sample name	sample
index	870
start time	 04-08-2021  01:26:50 PM


Wavelength (nm)	Absorbance
494.344910	-0.032037
494.563924	-0.032037
494.782919	-0.032037
495.001897	0.023965
495.220856	-0.001978
495.439797	-0.006842
495.658719	0.000131
495.877624	0.003731
496.096510	-0.004492
496.315378	-0.007788
496.534227	-0.007833
496.753059	-0.008469
496.971872	-0.010563
497.190667	0.016816
497.409444	0.036846
497.628203	0.042509
497.846943	0.047107
498.065665	0.050808
498.284369	0.052541
498.503055	0.054414
498.721723	0.054539
498.940372	0.055678
499.159003	0.056141
499.377616	0.055885
499.596210	0.055645
499.814787	0.055266
500.033345	0.055282
500.251885	0.055925
500.470406	0.056360
500.688910	0.056302
500.907395	0.055332
501.125862	0.055217
501.344311	0.055508
501.562742	0.056200
501.781154	0.056492
501.999548	0.057153
502.217924	0.056375
502.436282	0.056902
502.654621	0.057800
502.872942	0.058615
503.091245	0.058428
503.309530	0.059342
503.527797	0.059824
503.746045	0.059964
503.964275	0.058995
504.182487	0.060156
504.400681	0.059699
504.618856	0.059789
504.837013	0.060364
505.055152	0.061419
505.273273	0.061062
505.491376	0.061423
505.709460	0.061401
505.927526	0.061865
506.145574	0.061333
506.363604	0.061035
506.581615	0.061345
506.799608	0.061133
507.017583	0.061236
507.235540	0.060872
507.453478	0.060383
507.671399	0.060059
507.889301	0.060702
508.107185	0.061242
508.325050	0.061427
508.542898	0.061098
508.760727	0.061655
508.978538	0.061297
509.196330	0.062327
509.414105	0.062753
509.631861	0.063481
509.849599	0.063789
510.067319	0.064233
510.285021	0.063956
510.502704	0.064217
510.720369	0.063776
510.938016	0.063349
511.155645	0.062474
511.373255	0.062648
511.590848	0.062777
511.808422	0.062442
512.025977	0.062490
512.243515	0.064251
512.461034	0.064524
512.678536	0.064369
512.896018	0.064836
513.113483	0.066469
513.330930	0.066491
513.548358	0.067319
513.765768	0.067630
513.983160	0.067304
514.200533	0.066007
514.417889	0.065794
514.635226	0.066225
514.852545	0.067180
515.069845	0.066827
515.287128	0.067094
515.504392	0.067149
515.721638	0.067321
515.938866	0.067360
516.156075	0.068377
516.373267	0.068614
516.590440	0.068911
516.807594	0.068414
517.024731	0.068499
517.241850	0.068090
517.458950	0.067508
517.676032	0.067272
517.893095	0.067459
518.110141	0.067976
518.327168	0.068390
518.544177	0.068375
518.761168	0.068450
518.978141	0.068572
519.195095	0.069351
519.412031	0.069676
519.628949	0.069899
519.845849	0.069781
520.062731	0.069538
520.279594	0.069726
520.496439	0.069722
520.713266	0.070565
520.930074	0.070622
521.146865	0.070224
521.363637	0.070244
521.580391	0.070536
521.797127	0.071056
522.013844	0.070618
522.230543	0.070288
522.447224	0.071080
522.663887	0.071280
522.880532	0.071351
523.097158	0.071725
523.313766	0.071726
523.530356	0.072347
523.746928	0.072835
523.963481	0.073630
524.180017	0.073748
524.396534	0.073087
524.613032	0.072821
524.829513	0.072744
525.045975	0.072653
525.262420	0.073293
525.478845	0.072895
525.695253	0.073085
525.911643	0.072873
526.128014	0.073142
526.344367	0.073635
526.560702	0.073661
526.777018	0.073414
526.993316	0.074045
527.209597	0.074036
527.425858	0.074176
527.642102	0.074270
527.858328	0.074742
528.074535	0.075658
528.290724	0.075804
528.506894	0.076867
528.723047	0.077926
528.939181	0.078117
529.155297	0.078370
529.371395	0.078858
529.587475	0.078951
529.803536	0.078701
530.019579	0.078528
530.235604	0.078706
530.451611	0.078223
530.667600	0.078232
530.883570	0.078470
531.099522	0.079125
531.315456	0.079077
531.531372	0.079627
531.747269	0.080077
531.963148	0.080420
532.179009	0.080583
532.394852	0.080496
532.610676	0.081003
532.826482	0.080805
533.042271	0.080188
533.258040	0.080322
533.473792	0.079986
533.689525	0.080141
533.905240	0.079947
534.120937	0.080039
534.336616	0.080116
534.552277	0.080560
534.767919	0.080608
534.983543	0.080978
535.199149	0.081040
535.414736	0.081195
535.630306	0.081112
535.845857	0.081825
536.061390	0.082369
536.276904	0.082985
536.492401	0.082329
536.707879	0.082893
536.923339	0.083219
537.138781	0.083729
537.354204	0.084543
537.569610	0.084879
537.784997	0.084862
538.000366	0.085290
538.215716	0.085403
538.431049	0.085969
538.646363	0.086144
538.861659	0.086718
539.076937	0.086600
539.292196	0.085978
539.507438	0.086378
539.722661	0.086476
539.937866	0.086588
540.153052	0.087102
540.368221	0.087243
540.583371	0.087676
540.798503	0.087464
541.013617	0.088083
541.228712	0.088372
541.443789	0.088487
541.658848	0.088585
541.873889	0.088971
542.088912	0.089287
542.303916	0.089166
542.518902	0.089123
542.733870	0.089462
542.948820	0.089361
543.163752	0.089552
543.378665	0.089905
543.593560	0.090231
543.808437	0.089615
544.023295	0.089443
544.238136	0.090024
544.452958	0.089744
544.667762	0.089706
544.882548	0.090145
545.097315	0.090221
545.312064	0.090275
545.526795	0.090423
545.741508	0.091177
545.956203	0.091497
546.170879	0.091368
546.385537	0.091920
546.600177	0.092225
546.814799	0.092147
547.029402	0.092482
547.243988	0.092315
547.458555	0.092337
547.673103	0.092378
547.887634	0.092194
548.102146	0.092631
548.316640	0.092917
548.531116	0.092954
548.745574	0.093073
548.960013	0.093137
549.174435	0.093406
549.388838	0.093595
549.603222	0.092863
549.817589	0.093136
550.031937	0.093105
550.246267	0.093139
550.460579	0.093332
550.674873	0.093796
550.889148	0.093790
551.103405	0.093642
551.317644	0.093528
551.531865	0.094355
551.746068	0.094377
551.960252	0.094414
552.174418	0.094244
552.388566	0.094329
552.602696	0.094055
552.816807	0.094249
553.030900	0.094693
553.244975	0.095366
553.459032	0.095311
553.673070	0.095617
553.887091	0.096057
554.101093	0.096363
554.315077	0.096491
554.529042	0.096349
554.742990	0.096481
554.956919	0.096818
555.170830	0.096412
555.384722	0.096544
555.598597	0.096571
555.812453	0.096522
556.026291	0.096977
556.240111	0.097212
556.453913	0.097589
556.667696	0.097769
556.881461	0.097627
557.095208	0.098411
557.308937	0.098501
557.522647	0.098418
557.736339	0.098332
557.950013	0.098114
558.163669	0.097892
558.377307	0.097773
558.590926	0.097810
558.804527	0.098009
559.018110	0.097464
559.231675	0.097843
559.445221	0.098584
559.658749	0.099228
559.872259	0.099289
560.085751	0.099780
560.299225	0.100672
560.512680	0.101047
560.726117	0.101033
560.939536	0.101329
561.152937	0.101244
561.366319	0.100887
561.579683	0.100847
561.793029	0.101066
562.006357	0.100756
562.219667	0.100495
562.432958	0.100520
562.646231	0.100616
562.859486	0.100866
563.072723	0.100964
563.285941	0.100990
563.499141	0.100604
563.712323	0.100736
563.925487	0.100981
564.138632	0.100977
564.351760	0.100875
564.564869	0.100875
564.777960	0.100824
564.991032	0.100891
565.204087	0.100925
565.417123	0.101189
565.630141	0.101312
565.843140	0.101477
566.056122	0.101590
566.269085	0.101901
566.482030	0.102128
566.694957	0.102060
566.907866	0.102244
567.120756	0.102344
567.333628	0.102317
567.546482	0.102247
567.759318	0.102357
567.972135	0.102615
568.184935	0.102476
568.397716	0.102374
568.610478	0.102556
568.823223	0.102653
569.035949	0.103140
569.248657	0.103147
569.461347	0.103283
569.674019	0.103295
569.886672	0.103236
570.099308	0.103493
570.311925	0.103740
570.524523	0.103996
570.737104	0.103830
570.949666	0.103961
571.162210	0.104353
571.374736	0.104069
571.587244	0.104140
571.799733	0.104102
572.012205	0.104091
572.224658	0.104059
572.437092	0.104108
572.649509	0.104151
572.861907	0.104210
573.074287	0.104445
573.286649	0.105056
573.498993	0.105175
573.711318	0.105632
573.923625	0.105958
574.135914	0.106094
574.348185	0.106261
574.560438	0.106600
574.772672	0.106525
574.984888	0.106568
575.197086	0.106288
575.409266	0.106828
575.621427	0.106841
575.833570	0.107023
576.045695	0.107254
576.257802	0.106950
576.469890	0.106996
576.681961	0.107110
576.894013	0.106947
577.106046	0.107138
577.318062	0.107106
577.530059	0.107096
577.742039	0.106951
577.954000	0.107117
578.165942	0.107349
578.377867	0.107464
578.589773	0.107687
578.801661	0.108335
579.013531	0.108577
579.225382	0.108519
579.437216	0.108445
579.649031	0.108486
579.860828	0.108412
580.072606	0.108493
580.284367	0.108821
580.496109	0.108800
580.707833	0.108459
580.919539	0.108474
581.131227	0.108448
581.342896	0.108697
581.554547	0.108825
581.766180	0.108918
581.977795	0.109134
582.189391	0.109113
582.400969	0.108784
582.612529	0.109242
582.824071	0.109472
583.035595	0.109457
583.247100	0.109635
583.458587	0.109713
583.670056	0.109819
583.881506	0.110128
584.092939	0.110634
584.304353	0.111061
584.515749	0.110859
584.727127	0.110578
584.938486	0.110675
585.149828	0.110666
585.361151	0.110861
585.572456	0.110724
585.783742	0.110594
585.995011	0.110393
586.206261	0.110516
586.417493	0.110442
586.628706	0.110753
586.839902	0.110944
587.051079	0.111109
587.262238	0.111160
587.473379	0.111414
587.684502	0.111444
587.895606	0.111484
588.106692	0.111348
588.317760	0.111409
588.528810	0.111348
588.739841	0.111579
588.950855	0.111278
589.161850	0.111475
589.372827	0.111531
589.583785	0.111640
589.794726	0.111653
590.005648	0.111818
590.216552	0.111905
590.427437	0.111803
590.638305	0.112004
590.849154	0.112316
591.059985	0.112324
591.270798	0.112639
591.481592	0.112870
591.692369	0.112783
591.903127	0.113110
592.113867	0.113267
592.324588	0.113807
592.535292	0.113572
592.745977	0.113825
592.956644	0.113877
593.167293	0.114164
593.377923	0.114388
593.588536	0.114734
593.799130	0.114646
594.009706	0.114679
594.220263	0.114429
594.430803	0.114860
594.641324	0.114942
594.851827	0.114932
595.062312	0.114747
595.272778	0.114459
595.483227	0.114428
595.693657	0.114621
595.904069	0.114914
596.114462	0.115103
596.324838	0.114711
596.535195	0.114617
596.745534	0.114708
596.955855	0.114813
597.166157	0.115240
597.376441	0.115054
597.586707	0.114945
597.796955	0.114892
598.007185	0.115246
598.217396	0.115720
598.427589	0.115826
598.637764	0.116002
598.847921	0.116169
599.058060	0.116107
599.268180	0.116527
599.478282	0.116770
599.688366	0.116643
599.898431	0.116558
600.108479	0.116424
600.318508	0.116768
600.528519	0.116912
600.738511	0.116731
600.948486	0.116795
601.158442	0.116843
601.368380	0.117018
601.578300	0.117404
601.788202	0.117360
601.998085	0.117465
602.207950	0.117393
602.417797	0.117553
602.627626	0.117841
602.837436	0.117855
603.047228	0.118016
603.257002	0.117909
603.466758	0.117870
603.676496	0.117777
603.886215	0.117939
604.095916	0.117712
604.305599	0.117735
604.515264	0.117838
604.724910	0.118106
604.934538	0.118170
605.144148	0.118319
605.353740	0.118495
605.563314	0.118713
605.772869	0.118771
605.982406	0.119105
606.191925	0.119141
606.401425	0.119325
606.610908	0.119224
606.820372	0.119265
607.029818	0.119188
607.239246	0.119246
607.448655	0.119806
607.658047	0.119712
607.867420	0.119709
608.076775	0.119787
608.286111	0.119704
608.495430	0.119689
608.704730	0.119738
608.914012	0.119842
609.123275	0.119952
609.332521	0.119747
609.541748	0.119759
609.750957	0.120127
609.960148	0.120113
610.169321	0.120302
610.378475	0.120445
610.587611	0.120612
610.796729	0.120559
611.005829	0.120724
611.214910	0.120768
611.423974	0.121144
611.633019	0.121000
611.842045	0.120829
612.051054	0.120640
612.260044	0.120610
612.469017	0.120670
612.677970	0.120894
612.886906	0.120578
613.095824	0.120830
613.304723	0.120805
613.513604	0.120767
613.722467	0.121107
613.931311	0.121420
614.140138	0.121782
614.348946	0.121825
614.557736	0.122007
614.766507	0.122314
614.975261	0.122120
615.183996	0.122186
615.392713	0.122451
615.601412	0.122268
615.810092	0.122315
616.018754	0.122185
616.227399	0.122207
616.436024	0.122173
616.644632	0.122110
616.853222	0.122196
617.061793	0.122242
617.270346	0.122149
617.478880	0.122408
617.687397	0.122476
617.895895	0.122655
618.104375	0.122799
618.312837	0.122948
618.521281	0.123121
618.729706	0.123195
618.938113	0.123297
619.146502	0.123462
619.354873	0.123589
619.563226	0.123774
619.771560	0.124090
619.979876	0.123973
620.188174	0.124079
620.396453	0.124140
620.604715	0.124617
620.812958	0.124835
621.021183	0.125013
621.229390	0.125216
621.437578	0.125174
621.645748	0.124951
621.853900	0.125388
622.062034	0.125532
622.270150	0.125608
622.478247	0.125392
622.686326	0.125423
622.894387	0.125467
623.102430	0.125418
623.310454	0.125418
623.518461	0.125491
623.726449	0.125318
623.934418	0.125262
624.142370	0.125602
624.350303	0.125543
624.558218	0.125762
624.766115	0.125597
624.973994	0.125841
625.181855	0.125924
625.389697	0.126077
625.597521	0.126370
625.805327	0.126546
626.013114	0.126473
626.220883	0.126747
626.428634	0.126578
626.636367	0.126930
626.844082	0.126856
627.051778	0.126938
627.259457	0.127039
627.467117	0.126991
627.674758	0.127272
627.882382	0.127253
628.089987	0.127152
628.297574	0.127310
628.505143	0.127446
628.712694	0.127553
628.920226	0.127558
629.127740	0.127592
629.335236	0.127445
629.542714	0.127179
629.750174	0.127242
629.957615	0.127495
630.165038	0.127649
630.372443	0.127280
630.579829	0.127255
630.787198	0.127409
630.994548	0.127417
631.201880	0.127670
631.409194	0.127825
631.616489	0.128020
631.823766	0.128172
632.031025	0.128266
632.238266	0.128852
632.445489	0.129110
632.652693	0.129257
632.859879	0.129552
633.067047	0.129648
633.274197	0.129662
633.481329	0.129710
633.688442	0.129710
633.895537	0.129549
634.102614	0.129136
634.309672	0.129173
634.516713	0.129510
634.723735	0.129774
634.930739	0.129892
635.137724	0.130262
635.344692	0.130453
635.551641	0.130573
635.758572	0.130581
635.965485	0.130890
636.172379	0.131022
636.379256	0.130902
636.586114	0.130938
636.792954	0.131116
636.999775	0.130969
637.206579	0.130977
637.413364	0.131097
637.620131	0.131267
637.826880	0.131436
638.033610	0.131478
638.240323	0.131356
638.447017	0.131112
638.653692	0.131109
638.860350	0.131095
639.066990	0.131205
639.273611	0.131378
639.480214	0.131572
639.686798	0.131615
639.893365	0.131520
640.099913	0.131731
640.306443	0.132064
640.512955	0.132082
640.719449	0.132365
640.925924	0.132536
641.132381	0.132439
641.338820	0.132652
641.545241	0.132816
641.751644	0.133141
641.958028	0.133320
642.164394	0.133488
642.370742	0.133791
642.577071	0.134116
642.783383	0.134176
642.989676	0.134300
643.195951	0.134340
643.402207	0.134490
643.608446	0.134607
643.814666	0.134842
644.020868	0.134641
644.227052	0.134707
644.433218	0.134609
644.639365	0.134732
644.845494	0.135016
645.051605	0.135190
645.257698	0.135093
645.463772	0.135215
645.669828	0.135232
645.875866	0.135203
646.081886	0.135264
646.287888	0.135377
646.493871	0.135304
646.699836	0.135289
646.905783	0.135295
647.111712	0.135756
647.317622	0.135870
647.523514	0.135838
647.729388	0.136115
647.935244	0.136089
648.141082	0.136277
648.346901	0.136674
648.552702	0.136911
648.758485	0.136949
648.964250	0.136919
649.169996	0.137105
649.375724	0.137427
649.581434	0.137309
649.787126	0.137650
649.992800	0.137713
650.198455	0.137568
650.404092	0.137409
650.609711	0.137596
650.815311	0.137722
651.020894	0.137865
651.226458	0.137736
651.432004	0.138188
651.637532	0.138286
651.843041	0.138385
652.048532	0.138591
652.254006	0.138977
652.459460	0.139293
652.664897	0.139343
652.870315	0.139288
653.075716	0.139497
653.281097	0.139704
653.486461	0.139675
653.691807	0.139618
653.897134	0.139841
654.102443	0.139835
654.307734	0.139855
654.513006	0.139991
654.718261	0.140303
654.923497	0.140205
655.128715	0.140167
655.333915	0.140407
655.539096	0.140657
655.744259	0.140547
655.949404	0.140743
656.154531	0.140772
656.359640	0.140791
656.564730	0.140779
656.769802	0.141241
656.974856	0.141365
657.179892	0.141393
657.384909	0.141472
657.589908	0.141926
657.794889	0.142001
657.999852	0.142183
658.204797	0.142232
658.409723	0.142200
658.614631	0.142148
658.819521	0.142414
659.024393	0.142450
659.229246	0.142434
659.434081	0.142323
659.638898	0.142467
659.843697	0.142556
660.048478	0.142828
660.253240	0.142928
660.457984	0.143022
660.662710	0.143019
660.867417	0.143090
661.072107	0.143522
661.276778	0.143592
661.481431	0.143544
661.686066	0.143716
661.890682	0.143835
662.095281	0.144161
662.299861	0.144581
662.504422	0.144919
662.708966	0.145129
662.913491	0.145107
663.117999	0.145187
663.322488	0.145440
663.526958	0.145615
663.731411	0.145571
663.935845	0.145431
664.140261	0.145271
664.344659	0.145391
664.549038	0.145460
664.753400	0.145489
664.957743	0.145677
665.162068	0.145801
665.366375	0.145646
665.570663	0.145942
665.774933	0.146200
665.979185	0.146332
666.183419	0.146305
666.387635	0.146475
666.591832	0.146789
666.796011	0.146958
667.000172	0.147123
667.204315	0.147561
667.408439	0.147817
667.612545	0.147904
667.816634	0.148384
668.020703	0.148438
668.224755	0.148499
668.428788	0.148463
668.632803	0.148677
668.836800	0.148503
669.040779	0.148386
669.244739	0.148401
669.448681	0.148509
669.652605	0.148377
669.856511	0.148451
670.060399	0.148645
670.264268	0.148815
670.468119	0.148906
670.671952	0.149357
670.875767	0.149554
671.079563	0.149713
671.283341	0.149870
671.487101	0.149756
671.690843	0.149767
671.894567	0.149755
672.098272	0.149718
672.301959	0.149603
672.505628	0.149595
672.709278	0.149746
672.912911	0.149794
673.116525	0.149950
673.320121	0.150283
673.523699	0.150402
673.727258	0.150584
673.930799	0.150821
674.134322	0.150957
674.337827	0.151007
674.541314	0.150994
674.744782	0.151137
674.948232	0.151171
675.151664	0.151130
675.355078	0.151426
675.558474	0.151727
675.761851	0.151946
675.965210	0.152043
676.168551	0.152318
676.371873	0.152463
676.575178	0.152571
676.778464	0.152745
676.981732	0.152885
677.184981	0.153036
677.388213	0.153152
677.591426	0.153097
677.794621	0.153218
677.997798	0.153044
678.200956	0.153191
678.404097	0.153272
678.607219	0.153332
678.810323	0.153466
679.013408	0.153617
679.216476	0.153453
679.419525	0.153513
679.622556	0.153677
679.825569	0.153964
680.028563	0.154027
680.231540	0.153838
680.434498	0.154011
680.637438	0.154183
680.840359	0.154097
681.043263	0.154209
681.246148	0.154499
681.449015	0.154683
681.651864	0.154642
681.854694	0.154810
682.057506	0.155153
682.260301	0.155217
682.463076	0.155128
682.665834	0.155349
682.868573	0.155470
683.071295	0.155544
683.273998	0.155540
683.476682	0.155828
683.679349	0.155965
683.881997	0.156239
684.084627	0.156307
684.287239	0.156550
684.489833	0.156520
684.692408	0.156779
684.894965	0.156705
685.097504	0.156860
685.300025	0.156975
685.502527	0.156951
685.705012	0.157056
685.907478	0.157157
686.109925	0.157482
686.312355	0.157531
686.514766	0.157517
686.717159	0.157758
686.919534	0.157826
687.121891	0.157790
687.324230	0.158038
687.526550	0.157996
687.728852	0.158101
687.931136	0.157865
688.133401	0.158170
688.335649	0.158328
688.537878	0.158409
688.740089	0.158591
688.942281	0.158918
689.144456	0.158889
689.346612	0.159006
689.548750	0.159269
689.750870	0.159643
689.952971	0.159654
690.155055	0.159764
690.357120	0.159880
690.559167	0.159832
690.761195	0.159906
690.963206	0.160033
691.165198	0.160088
691.367172	0.160176
691.569128	0.160079
691.771065	0.160390
691.972984	0.160548
692.174885	0.160792
692.376768	0.161068
692.578633	0.160993
692.780479	0.160955
692.982308	0.161134
693.184118	0.161050
693.385909	0.161280
