sample name	sample
index	1452
start time	 05-10-2021  01:32:02 PM


Wavelength (nm)	Absorbance
494.344910	-0.021327
494.563924	-0.021327
494.782919	-0.021327
495.001897	0.021453
495.220856	0.010619
495.439797	0.012550
495.658719	0.010085
495.877624	0.007152
496.096510	-0.003746
496.315378	-0.005674
496.534227	-0.003196
496.753059	0.000569
496.971872	0.006643
497.190667	0.086670
497.409444	0.124732
497.628203	0.144862
497.846943	0.155288
498.065665	0.162710
498.284369	0.163896
498.503055	0.165989
498.721723	0.167556
498.940372	0.168472
499.159003	0.168294
499.377616	0.169256
499.596210	0.169739
499.814787	0.169710
500.033345	0.168522
500.251885	0.169726
500.470406	0.170758
500.688910	0.170380
500.907395	0.171499
501.125862	0.171480
501.344311	0.171804
501.562742	0.170745
501.781154	0.171765
501.999548	0.172044
502.217924	0.172655
502.436282	0.172614
502.654621	0.174392
502.872942	0.174116
503.091245	0.174774
503.309530	0.175668
503.527797	0.176113
503.746045	0.176778
503.964275	0.177428
504.182487	0.178473
504.400681	0.179665
504.618856	0.178635
504.837013	0.178574
505.055152	0.179020
505.273273	0.178645
505.491376	0.178441
505.709460	0.177852
505.927526	0.178938
506.145574	0.178033
506.363604	0.177211
506.581615	0.177284
506.799608	0.176673
507.017583	0.176087
507.235540	0.176702
507.453478	0.176712
507.671399	0.177155
507.889301	0.176365
508.107185	0.176368
508.325050	0.177817
508.542898	0.177881
508.760727	0.179507
508.978538	0.181134
509.196330	0.180511
509.414105	0.182235
509.631861	0.182339
509.849599	0.183673
510.067319	0.183607
510.285021	0.182020
510.502704	0.182278
510.720369	0.182375
510.938016	0.181527
511.155645	0.182321
511.373255	0.181921
511.590848	0.181968
511.808422	0.181416
512.025977	0.181565
512.243515	0.181963
512.461034	0.182294
512.678536	0.182180
512.896018	0.182941
513.113483	0.183615
513.330930	0.183810
513.548358	0.184246
513.765768	0.183937
513.983160	0.185127
514.200533	0.186440
514.417889	0.187367
514.635226	0.187720
514.852545	0.187880
515.069845	0.186945
515.287128	0.186896
515.504392	0.186029
515.721638	0.186235
515.938866	0.185505
516.156075	0.184162
516.373267	0.183460
516.590440	0.183303
516.807594	0.182735
517.024731	0.183938
517.241850	0.184893
517.458950	0.185440
517.676032	0.186494
517.893095	0.187063
518.110141	0.188192
518.327168	0.189146
518.544177	0.189795
518.761168	0.190537
518.978141	0.189700
519.195095	0.189345
519.412031	0.189626
519.628949	0.189825
519.845849	0.190067
520.062731	0.189904
520.279594	0.190283
520.496439	0.190221
520.713266	0.190420
520.930074	0.191690
521.146865	0.191431
521.363637	0.191858
521.580391	0.191979
521.797127	0.192229
522.013844	0.192624
522.230543	0.192152
522.447224	0.192816
522.663887	0.193720
522.880532	0.193780
523.097158	0.194663
523.313766	0.194989
523.530356	0.195520
523.746928	0.196571
523.963481	0.196701
524.180017	0.197323
524.396534	0.197416
524.613032	0.196249
524.829513	0.195750
525.045975	0.195940
525.262420	0.195337
525.478845	0.195333
525.695253	0.195237
525.911643	0.195350
526.128014	0.195409
526.344367	0.195436
526.560702	0.196619
526.777018	0.197742
526.993316	0.197583
527.209597	0.198699
527.425858	0.198855
527.642102	0.198475
527.858328	0.200175
528.074535	0.200244
528.290724	0.200142
528.506894	0.199818
528.723047	0.199080
528.939181	0.199556
529.155297	0.199472
529.371395	0.199326
529.587475	0.200150
529.803536	0.199287
530.019579	0.199427
530.235604	0.199822
530.451611	0.200466
530.667600	0.201072
530.883570	0.200830
531.099522	0.201409
531.315456	0.202283
531.531372	0.201719
531.747269	0.202001
531.963148	0.202464
532.179009	0.202640
532.394852	0.202698
532.610676	0.202577
532.826482	0.202780
533.042271	0.202671
533.258040	0.202403
533.473792	0.203163
533.689525	0.202925
533.905240	0.203302
534.120937	0.203717
534.336616	0.204160
534.552277	0.204854
534.767919	0.205264
534.983543	0.205526
535.199149	0.205739
535.414736	0.205565
535.630306	0.206872
535.845857	0.207519
536.061390	0.207642
536.276904	0.207609
536.492401	0.207708
536.707879	0.208539
536.923339	0.209519
537.138781	0.209898
537.354204	0.209734
537.569610	0.208966
537.784997	0.208698
538.000366	0.209561
538.215716	0.209880
538.431049	0.210224
538.646363	0.210464
538.861659	0.210127
539.076937	0.210334
539.292196	0.210873
539.507438	0.211836
539.722661	0.212498
539.937866	0.212457
540.153052	0.212942
540.368221	0.212824
540.583371	0.212334
540.798503	0.212713
541.013617	0.213609
541.228712	0.213904
541.443789	0.213584
541.658848	0.213702
541.873889	0.213732
542.088912	0.213967
542.303916	0.214255
542.518902	0.214574
542.733870	0.215043
542.948820	0.214731
543.163752	0.215643
543.378665	0.216353
543.593560	0.216671
543.808437	0.216418
544.023295	0.216411
544.238136	0.216704
544.452958	0.217578
544.667762	0.217878
544.882548	0.218584
545.097315	0.218953
545.312064	0.218548
545.526795	0.218739
545.741508	0.219268
545.956203	0.219614
546.170879	0.219706
546.385537	0.219092
546.600177	0.219300
546.814799	0.218860
547.029402	0.218607
547.243988	0.219000
547.458555	0.219205
547.673103	0.219916
547.887634	0.220331
548.102146	0.220898
548.316640	0.221424
548.531116	0.221405
548.745574	0.222202
548.960013	0.222472
549.174435	0.223115
549.388838	0.223060
549.603222	0.223124
549.817589	0.222834
550.031937	0.223042
550.246267	0.223416
550.460579	0.223097
550.674873	0.223083
550.889148	0.222871
551.103405	0.222340
551.317644	0.222312
551.531865	0.222050
551.746068	0.222648
551.960252	0.222719
552.174418	0.222834
552.388566	0.223432
552.602696	0.223301
552.816807	0.223706
553.030900	0.224437
553.244975	0.224738
553.459032	0.225029
553.673070	0.225217
553.887091	0.225468
554.101093	0.225684
554.315077	0.225815
554.529042	0.226441
554.742990	0.226438
554.956919	0.226227
555.170830	0.226691
555.384722	0.226503
555.598597	0.226011
555.812453	0.225961
556.026291	0.226144
556.240111	0.225797
556.453913	0.225386
556.667696	0.225702
556.881461	0.225882
557.095208	0.225474
557.308937	0.225863
557.522647	0.226402
557.736339	0.226226
557.950013	0.226103
558.163669	0.226614
558.377307	0.226827
558.590926	0.226997
558.804527	0.226705
559.018110	0.226973
559.231675	0.227395
559.445221	0.227205
559.658749	0.227435
559.872259	0.227703
560.085751	0.227496
560.299225	0.227413
560.512680	0.227263
560.726117	0.227577
560.939536	0.227804
561.152937	0.227757
561.366319	0.228035
561.579683	0.228233
561.793029	0.228421
562.006357	0.228853
562.219667	0.229040
562.432958	0.229390
562.646231	0.229852
562.859486	0.230036
563.072723	0.230202
563.285941	0.230504
563.499141	0.230788
563.712323	0.231007
563.925487	0.231190
564.138632	0.231220
564.351760	0.231166
564.564869	0.231296
564.777960	0.231248
564.991032	0.231063
565.204087	0.231148
565.417123	0.230904
565.630141	0.230715
565.843140	0.230603
566.056122	0.231113
566.269085	0.230849
566.482030	0.230862
566.694957	0.231040
566.907866	0.231067
567.120756	0.231157
567.333628	0.231516
567.546482	0.231392
567.759318	0.231603
567.972135	0.231552
568.184935	0.231918
568.397716	0.232051
568.610478	0.232006
568.823223	0.232370
569.035949	0.232957
569.248657	0.232806
569.461347	0.233137
569.674019	0.233389
569.886672	0.233838
570.099308	0.234180
570.311925	0.234225
570.524523	0.234607
570.737104	0.234777
570.949666	0.234112
571.162210	0.234926
571.374736	0.235288
571.587244	0.234988
571.799733	0.234928
572.012205	0.234805
572.224658	0.235055
572.437092	0.234901
572.649509	0.234942
572.861907	0.235298
573.074287	0.234923
573.286649	0.234766
573.498993	0.235297
573.711318	0.235517
573.923625	0.235947
574.135914	0.236183
574.348185	0.236235
574.560438	0.236270
574.772672	0.236230
574.984888	0.236175
575.197086	0.236435
575.409266	0.236302
575.621427	0.236193
575.833570	0.236611
576.045695	0.236713
576.257802	0.237363
576.469890	0.237391
576.681961	0.237566
576.894013	0.237943
577.106046	0.237949
577.318062	0.238475
577.530059	0.238484
577.742039	0.238097
577.954000	0.237815
578.165942	0.237899
578.377867	0.238420
578.589773	0.238779
578.801661	0.239364
579.013531	0.240020
579.225382	0.239992
579.437216	0.240628
579.649031	0.241029
579.860828	0.240963
580.072606	0.240690
580.284367	0.240969
580.496109	0.240756
580.707833	0.240660
580.919539	0.239953
581.131227	0.239705
581.342896	0.239333
581.554547	0.238930
581.766180	0.239214
581.977795	0.239528
582.189391	0.239494
582.400969	0.239782
582.612529	0.239636
582.824071	0.240094
583.035595	0.240290
583.247100	0.240776
583.458587	0.241516
583.670056	0.241756
583.881506	0.241840
584.092939	0.242401
584.304353	0.242637
584.515749	0.243025
584.727127	0.243702
584.938486	0.244109
585.149828	0.244190
585.361151	0.244441
585.572456	0.244881
585.783742	0.245235
585.995011	0.244845
586.206261	0.245039
586.417493	0.245347
586.628706	0.245207
586.839902	0.245346
587.051079	0.245777
587.262238	0.245599
587.473379	0.245964
587.684502	0.245711
587.895606	0.246095
588.106692	0.246169
588.317760	0.246053
588.528810	0.246301
588.739841	0.246439
588.950855	0.245931
589.161850	0.245906
589.372827	0.245831
589.583785	0.246155
589.794726	0.246365
590.005648	0.246713
590.216552	0.246923
590.427437	0.246988
590.638305	0.247422
590.849154	0.247931
591.059985	0.248331
591.270798	0.248276
591.481592	0.248470
591.692369	0.248449
591.903127	0.248207
592.113867	0.248225
592.324588	0.248507
592.535292	0.248374
592.745977	0.248172
592.956644	0.248262
593.167293	0.248576
593.377923	0.248617
593.588536	0.248356
593.799130	0.248753
594.009706	0.249202
594.220263	0.249386
594.430803	0.249191
594.641324	0.249416
594.851827	0.249423
595.062312	0.249758
595.272778	0.249608
595.483227	0.249947
595.693657	0.250162
595.904069	0.249680
596.114462	0.249046
596.324838	0.249619
596.535195	0.249949
596.745534	0.250251
596.955855	0.250540
597.166157	0.250863
597.376441	0.251343
597.586707	0.251285
597.796955	0.252015
598.007185	0.252618
598.217396	0.252494
598.427589	0.252157
598.637764	0.252219
598.847921	0.251964
599.058060	0.252010
599.268180	0.252041
599.478282	0.252285
599.688366	0.252039
599.898431	0.252166
600.108479	0.252449
600.318508	0.252887
600.528519	0.252817
600.738511	0.252646
600.948486	0.253087
601.158442	0.253189
601.368380	0.253463
601.578300	0.253558
601.788202	0.253639
601.998085	0.253377
602.207950	0.253403
602.417797	0.253569
602.627626	0.253550
602.837436	0.253431
603.047228	0.253155
603.257002	0.252610
603.466758	0.252821
603.676496	0.252723
603.886215	0.252794
604.095916	0.252731
604.305599	0.253227
604.515264	0.253564
604.724910	0.253640
604.934538	0.253738
605.144148	0.254057
605.353740	0.254046
605.563314	0.254105
605.772869	0.254540
605.982406	0.255004
606.191925	0.254739
606.401425	0.254847
606.610908	0.255118
606.820372	0.255502
607.029818	0.255798
607.239246	0.255679
607.448655	0.255996
607.658047	0.255776
607.867420	0.256011
608.076775	0.256367
608.286111	0.256918
608.495430	0.257041
608.704730	0.257180
608.914012	0.257457
609.123275	0.257802
609.332521	0.257974
609.541748	0.258409
609.750957	0.258338
609.960148	0.258261
610.169321	0.257910
610.378475	0.257923
610.587611	0.257796
610.796729	0.257910
611.005829	0.258295
611.214910	0.258354
611.423974	0.258680
611.633019	0.258597
611.842045	0.258778
612.051054	0.259131
612.260044	0.259501
612.469017	0.260027
612.677970	0.260041
612.886906	0.260056
613.095824	0.260152
613.304723	0.260102
613.513604	0.260441
613.722467	0.260369
613.931311	0.260270
614.140138	0.260206
614.348946	0.259805
614.557736	0.260115
614.766507	0.260378
614.975261	0.260662
615.183996	0.260613
615.392713	0.260751
615.601412	0.261213
615.810092	0.261769
616.018754	0.261944
616.227399	0.262265
616.436024	0.262104
616.644632	0.262234
616.853222	0.262221
617.061793	0.262645
617.270346	0.262367
617.478880	0.262385
617.687397	0.262363
617.895895	0.262575
618.104375	0.262829
618.312837	0.262973
618.521281	0.263242
618.729706	0.263426
618.938113	0.263440
619.146502	0.264096
619.354873	0.264147
619.563226	0.264129
619.771560	0.264354
619.979876	0.264479
620.188174	0.264680
620.396453	0.264430
620.604715	0.264495
620.812958	0.264362
621.021183	0.264159
621.229390	0.264471
621.437578	0.264664
621.645748	0.264418
621.853900	0.264415
622.062034	0.264380
622.270150	0.264516
622.478247	0.264600
622.686326	0.264884
622.894387	0.265393
623.102430	0.265188
623.310454	0.265256
623.518461	0.265380
623.726449	0.265963
623.934418	0.266284
624.142370	0.266501
624.350303	0.266671
624.558218	0.266868
624.766115	0.266518
624.973994	0.266629
625.181855	0.266555
625.389697	0.266695
625.597521	0.266327
625.805327	0.266313
626.013114	0.266152
626.220883	0.266116
626.428634	0.266063
626.636367	0.266432
626.844082	0.266770
627.051778	0.266916
627.259457	0.267248
627.467117	0.267445
627.674758	0.267525
627.882382	0.267594
628.089987	0.267865
628.297574	0.268104
628.505143	0.268255
628.712694	0.268376
628.920226	0.268447
629.127740	0.268420
629.335236	0.268437
629.542714	0.268509
629.750174	0.268846
629.957615	0.268886
630.165038	0.268909
630.372443	0.268790
630.579829	0.268432
630.787198	0.268578
630.994548	0.268665
631.201880	0.268724
631.409194	0.269071
631.616489	0.269293
631.823766	0.269396
632.031025	0.269437
632.238266	0.269493
632.445489	0.270024
632.652693	0.270447
632.859879	0.270252
633.067047	0.270424
633.274197	0.270436
633.481329	0.270498
633.688442	0.270664
633.895537	0.270775
634.102614	0.271037
634.309672	0.271066
634.516713	0.270901
634.723735	0.271287
634.930739	0.271396
635.137724	0.271579
635.344692	0.271608
635.551641	0.271545
635.758572	0.271823
635.965485	0.271803
636.172379	0.272293
636.379256	0.272575
636.586114	0.272899
636.792954	0.272935
636.999775	0.272821
637.206579	0.272961
637.413364	0.273078
637.620131	0.273182
637.826880	0.273318
638.033610	0.273105
638.240323	0.273359
638.447017	0.273339
638.653692	0.273604
638.860350	0.273627
639.066990	0.273744
639.273611	0.274090
639.480214	0.274263
639.686798	0.274428
639.893365	0.274504
640.099913	0.274626
640.306443	0.274932
640.512955	0.275079
640.719449	0.275753
640.925924	0.276099
641.132381	0.276065
641.338820	0.276161
641.545241	0.276351
641.751644	0.276676
641.958028	0.276606
642.164394	0.276497
642.370742	0.276584
642.577071	0.276390
642.783383	0.276236
642.989676	0.276358
643.195951	0.276582
643.402207	0.276613
643.608446	0.276709
643.814666	0.276604
644.020868	0.276755
644.227052	0.277125
644.433218	0.277119
644.639365	0.277551
644.845494	0.277929
645.051605	0.277812
645.257698	0.278397
645.463772	0.278758
645.669828	0.279034
645.875866	0.279291
646.081886	0.279271
646.287888	0.279606
646.493871	0.279412
646.699836	0.279485
646.905783	0.279927
647.111712	0.279605
647.317622	0.279480
647.523514	0.279485
647.729388	0.279408
647.935244	0.279449
648.141082	0.279280
648.346901	0.279430
648.552702	0.279513
648.758485	0.279525
648.964250	0.279920
649.169996	0.279870
649.375724	0.280419
649.581434	0.280491
649.787126	0.280310
649.992800	0.280796
650.198455	0.280973
650.404092	0.281106
650.609711	0.281113
650.815311	0.280933
651.020894	0.281115
651.226458	0.280955
651.432004	0.281261
651.637532	0.281499
651.843041	0.281239
652.048532	0.281596
652.254006	0.281652
652.459460	0.281781
652.664897	0.282100
652.870315	0.282268
653.075716	0.282297
653.281097	0.282604
653.486461	0.282755
653.691807	0.283114
653.897134	0.282938
654.102443	0.282881
654.307734	0.283172
654.513006	0.283396
654.718261	0.283540
654.923497	0.283941
655.128715	0.283934
655.333915	0.284313
655.539096	0.284680
655.744259	0.285098
655.949404	0.285521
656.154531	0.285580
656.359640	0.285306
656.564730	0.285411
656.769802	0.285566
656.974856	0.285577
657.179892	0.285505
657.384909	0.285511
657.589908	0.285467
657.794889	0.285623
657.999852	0.285751
658.204797	0.286473
658.409723	0.286626
658.614631	0.286741
658.819521	0.286819
659.024393	0.287156
659.229246	0.287023
659.434081	0.287238
659.638898	0.287316
659.843697	0.287505
660.048478	0.287264
660.253240	0.287362
660.457984	0.287560
660.662710	0.288000
660.867417	0.288272
661.072107	0.288623
661.276778	0.288613
661.481431	0.288874
661.686066	0.289011
661.890682	0.289197
662.095281	0.289455
662.299861	0.289423
662.504422	0.289588
662.708966	0.289635
662.913491	0.290163
663.117999	0.290181
663.322488	0.290021
663.526958	0.290109
663.731411	0.290504
663.935845	0.290484
664.140261	0.290958
664.344659	0.290936
664.549038	0.291035
664.753400	0.290563
664.957743	0.290867
665.162068	0.291181
665.366375	0.291257
665.570663	0.291044
665.774933	0.291217
665.979185	0.290974
666.183419	0.290897
666.387635	0.290740
666.591832	0.291175
666.796011	0.291339
667.000172	0.291701
667.204315	0.291864
667.408439	0.292014
667.612545	0.292056
667.816634	0.292406
668.020703	0.292517
668.224755	0.292743
668.428788	0.292939
668.632803	0.293268
668.836800	0.293195
669.040779	0.293389
669.244739	0.293490
669.448681	0.293585
669.652605	0.293570
669.856511	0.293945
670.060399	0.294314
670.264268	0.294413
670.468119	0.294609
670.671952	0.294853
670.875767	0.294981
671.079563	0.295586
671.283341	0.295916
671.487101	0.296051
671.690843	0.296441
671.894567	0.296617
672.098272	0.296891
672.301959	0.296913
672.505628	0.297039
672.709278	0.297473
672.912911	0.297517
673.116525	0.297583
673.320121	0.297836
673.523699	0.298010
673.727258	0.298221
673.930799	0.298262
674.134322	0.298460
674.337827	0.298455
674.541314	0.298409
674.744782	0.298493
674.948232	0.298633
675.151664	0.298992
675.355078	0.299009
675.558474	0.299155
675.761851	0.299349
675.965210	0.299497
676.168551	0.299811
676.371873	0.299983
676.575178	0.300083
676.778464	0.300377
676.981732	0.300297
677.184981	0.300465
677.388213	0.300336
677.591426	0.300523
677.794621	0.300604
677.997798	0.300796
678.200956	0.301016
678.404097	0.301090
678.607219	0.301295
678.810323	0.301493
679.013408	0.301576
679.216476	0.301982
679.419525	0.302067
679.622556	0.302126
679.825569	0.302184
680.028563	0.302260
680.231540	0.302623
680.434498	0.302575
680.637438	0.302704
680.840359	0.302778
681.043263	0.302808
681.246148	0.302829
681.449015	0.302972
681.651864	0.302935
681.854694	0.303068
682.057506	0.302996
682.260301	0.303493
682.463076	0.303255
682.665834	0.303359
682.868573	0.303654
683.071295	0.303691
683.273998	0.303716
683.476682	0.303993
683.679349	0.303936
683.881997	0.304140
684.084627	0.304047
684.287239	0.304376
684.489833	0.304344
684.692408	0.304319
684.894965	0.304330
685.097504	0.304676
685.300025	0.304767
685.502527	0.304980
685.705012	0.305085
685.907478	0.305188
686.109925	0.305664
686.312355	0.305862
686.514766	0.305914
686.717159	0.306163
686.919534	0.306042
687.121891	0.306265
687.324230	0.306280
687.526550	0.306231
687.728852	0.306277
687.931136	0.306074
688.133401	0.306147
688.335649	0.306157
688.537878	0.306006
688.740089	0.306236
688.942281	0.306392
689.144456	0.306691
689.346612	0.306973
689.548750	0.306925
689.750870	0.307281
689.952971	0.307570
690.155055	0.308009
690.357120	0.308341
690.559167	0.308633
690.761195	0.308791
690.963206	0.308825
691.165198	0.308684
691.367172	0.309089
691.569128	0.308850
691.771065	0.308930
691.972984	0.308987
692.174885	0.309289
692.376768	0.309209
692.578633	0.309203
692.780479	0.309280
692.982308	0.309654
693.184118	0.309496
693.385909	0.309794
