sample name	sample
index	311
start time	 02-25-2021  02:48:47 PM


Wavelength (nm)	Absorbance
494.344910	NaN
494.563924	NaN
494.782919	NaN
495.001897	-0.646034
495.220856	NaN
495.439797	NaN
495.658719	0.995229
495.877624	0.286795
496.096510	0.487449
496.315378	0.293765
496.534227	0.105570
496.753059	0.131070
496.971872	0.139312
497.190667	0.158929
497.409444	0.159733
497.628203	0.157629
497.846943	0.158090
498.065665	0.155696
498.284369	0.153538
498.503055	0.153720
498.721723	0.154306
498.940372	0.154071
499.159003	0.152378
499.377616	0.152559
499.596210	0.152866
499.814787	0.153994
500.033345	0.154158
500.251885	0.156588
500.470406	0.157679
500.688910	0.157655
500.907395	0.157769
501.125862	0.158907
501.344311	0.159208
501.562742	0.159715
501.781154	0.158269
501.999548	0.158880
502.217924	0.158412
502.436282	0.157916
502.654621	0.157603
502.872942	0.156878
503.091245	0.157428
503.309530	0.157411
503.527797	0.157707
503.746045	0.157734
503.964275	0.157776
504.182487	0.158316
504.400681	0.158818
504.618856	0.158627
504.837013	0.158785
505.055152	0.159109
505.273273	0.159152
505.491376	0.158326
505.709460	0.159646
505.927526	0.159574
506.145574	0.158504
506.363604	0.158330
506.581615	0.158059
506.799608	0.158929
507.017583	0.158295
507.235540	0.157450
507.453478	0.157908
507.671399	0.157989
507.889301	0.158624
508.107185	0.159078
508.325050	0.159392
508.542898	0.160342
508.760727	0.160586
508.978538	0.160809
509.196330	0.162071
509.414105	0.162452
509.631861	0.162089
509.849599	0.162229
510.067319	0.163191
510.285021	0.163622
510.502704	0.163943
510.720369	0.163853
510.938016	0.164846
511.155645	0.165243
511.373255	0.165986
511.590848	0.166790
511.808422	0.167226
512.025977	0.166211
512.243515	0.165578
512.461034	0.165499
512.678536	0.165581
512.896018	0.165055
513.113483	0.164397
513.330930	0.163850
513.548358	0.163162
513.765768	0.163475
513.983160	0.164119
514.200533	0.164299
514.417889	0.164246
514.635226	0.165194
514.852545	0.165484
515.069845	0.166565
515.287128	0.166565
515.504392	0.167200
515.721638	0.166635
515.938866	0.167369
516.156075	0.168210
516.373267	0.168712
516.590440	0.168533
516.807594	0.169314
517.024731	0.168340
517.241850	0.168907
517.458950	0.168971
517.676032	0.169704
517.893095	0.168918
518.110141	0.169029
518.327168	0.169523
518.544177	0.168973
518.761168	0.168918
518.978141	0.169417
519.195095	0.169279
519.412031	0.169880
519.628949	0.170243
519.845849	0.171152
520.062731	0.172022
520.279594	0.172257
520.496439	0.173219
520.713266	0.172920
520.930074	0.173271
521.146865	0.173379
521.363637	0.172919
521.580391	0.172736
521.797127	0.173366
522.013844	0.173056
522.230543	0.172773
522.447224	0.172877
522.663887	0.173449
522.880532	0.173846
523.097158	0.175029
523.313766	0.176205
523.530356	0.176788
523.746928	0.176243
523.963481	0.176983
524.180017	0.177234
524.396534	0.177477
524.613032	0.177866
524.829513	0.178186
525.045975	0.177688
525.262420	0.177164
525.478845	0.177906
525.695253	0.178627
525.911643	0.178270
526.128014	0.178524
526.344367	0.178382
526.560702	0.179158
526.777018	0.180121
526.993316	0.180009
527.209597	0.180998
527.425858	0.180636
527.642102	0.181216
527.858328	0.181196
528.074535	0.181796
528.290724	0.182801
528.506894	0.183004
528.723047	0.182805
528.939181	0.183808
529.155297	0.183763
529.371395	0.184200
529.587475	0.184184
529.803536	0.185177
530.019579	0.185469
530.235604	0.185692
530.451611	0.185872
530.667600	0.186308
530.883570	0.186541
531.099522	0.187143
531.315456	0.187402
531.531372	0.187865
531.747269	0.187388
531.963148	0.187667
532.179009	0.187565
532.394852	0.187902
532.610676	0.188858
532.826482	0.189592
533.042271	0.190006
533.258040	0.190754
533.473792	0.190510
533.689525	0.191164
533.905240	0.191640
534.120937	0.192097
534.336616	0.191686
534.552277	0.190952
534.767919	0.191245
534.983543	0.191432
535.199149	0.190843
535.414736	0.191898
535.630306	0.192840
535.845857	0.193003
536.061390	0.193763
536.276904	0.194128
536.492401	0.194649
536.707879	0.194652
536.923339	0.194954
537.138781	0.195309
537.354204	0.195543
537.569610	0.195438
537.784997	0.195509
538.000366	0.196031
538.215716	0.197094
538.431049	0.196781
538.646363	0.197322
538.861659	0.197243
539.076937	0.197444
539.292196	0.197208
539.507438	0.197400
539.722661	0.197840
539.937866	0.197272
540.153052	0.196678
540.368221	0.197323
540.583371	0.197714
540.798503	0.198341
541.013617	0.198925
541.228712	0.199151
541.443789	0.199174
541.658848	0.199008
541.873889	0.199750
542.088912	0.200639
542.303916	0.200758
542.518902	0.200644
542.733870	0.200388
542.948820	0.200797
543.163752	0.201618
543.378665	0.202315
543.593560	0.203084
543.808437	0.203432
544.023295	0.203981
544.238136	0.204534
544.452958	0.204420
544.667762	0.204720
544.882548	0.205001
545.097315	0.204843
545.312064	0.204796
545.526795	0.204823
545.741508	0.204908
545.956203	0.204561
546.170879	0.204489
546.385537	0.205011
546.600177	0.205361
546.814799	0.205526
547.029402	0.205992
547.243988	0.206100
547.458555	0.206315
547.673103	0.206122
547.887634	0.207098
548.102146	0.207810
548.316640	0.208429
548.531116	0.209524
548.745574	0.210053
548.960013	0.209920
549.174435	0.210601
549.388838	0.210589
549.603222	0.210977
549.817589	0.210453
550.031937	0.210418
550.246267	0.210155
550.460579	0.209529
550.674873	0.209200
550.889148	0.209682
551.103405	0.209822
551.317644	0.210192
551.531865	0.210438
551.746068	0.210687
551.960252	0.210753
552.174418	0.211367
552.388566	0.211829
552.602696	0.212535
552.816807	0.212885
553.030900	0.212713
553.244975	0.212640
553.459032	0.212996
553.673070	0.212536
553.887091	0.212900
554.101093	0.212950
554.315077	0.213283
554.529042	0.213185
554.742990	0.213655
554.956919	0.214648
555.170830	0.215175
555.384722	0.215154
555.598597	0.216189
555.812453	0.216371
556.026291	0.216662
556.240111	0.216586
556.453913	0.217071
556.667696	0.216779
556.881461	0.216274
557.095208	0.216484
557.308937	0.216969
557.522647	0.216546
557.736339	0.216541
557.950013	0.216720
558.163669	0.216684
558.377307	0.216650
558.590926	0.216964
558.804527	0.217513
559.018110	0.217968
559.231675	0.218258
559.445221	0.218586
559.658749	0.219323
559.872259	0.219566
560.085751	0.219872
560.299225	0.220252
560.512680	0.220503
560.726117	0.220630
560.939536	0.220635
561.152937	0.220780
561.366319	0.221404
561.579683	0.220743
561.793029	0.220568
562.006357	0.220957
562.219667	0.221031
562.432958	0.221041
562.646231	0.221164
562.859486	0.221105
563.072723	0.221054
563.285941	0.220942
563.499141	0.221547
563.712323	0.221766
563.925487	0.222065
564.138632	0.222069
564.351760	0.222247
564.564869	0.222323
564.777960	0.222824
564.991032	0.222816
565.204087	0.222939
565.417123	0.223181
565.630141	0.223378
565.843140	0.223185
566.056122	0.223413
566.269085	0.223104
566.482030	0.222914
566.694957	0.223366
566.907866	0.223415
567.120756	0.224057
567.333628	0.224515
567.546482	0.224704
567.759318	0.224790
567.972135	0.224941
568.184935	0.225574
568.397716	0.226624
568.610478	0.226362
568.823223	0.226359
569.035949	0.226087
569.248657	0.225857
569.461347	0.225995
569.674019	0.226646
569.886672	0.226734
570.099308	0.226757
570.311925	0.226162
570.524523	0.226252
570.737104	0.226693
570.949666	0.226763
571.162210	0.226625
571.374736	0.226937
571.587244	0.226835
571.799733	0.226901
572.012205	0.227047
572.224658	0.227614
572.437092	0.227864
572.649509	0.227940
572.861907	0.228527
573.074287	0.229203
573.286649	0.229063
573.498993	0.229168
573.711318	0.229288
573.923625	0.229588
574.135914	0.229731
574.348185	0.230050
574.560438	0.230396
574.772672	0.230362
574.984888	0.230130
575.197086	0.230442
575.409266	0.230518
575.621427	0.231175
575.833570	0.231687
576.045695	0.231680
576.257802	0.232002
576.469890	0.232361
576.681961	0.232360
576.894013	0.232535
577.106046	0.232565
577.318062	0.232994
577.530059	0.232778
577.742039	0.232296
577.954000	0.232377
578.165942	0.232863
578.377867	0.232862
578.589773	0.233202
578.801661	0.233330
579.013531	0.233774
579.225382	0.234021
579.437216	0.234410
579.649031	0.234751
579.860828	0.235330
580.072606	0.234977
580.284367	0.235211
580.496109	0.235260
580.707833	0.235709
580.919539	0.235788
581.131227	0.235500
581.342896	0.235396
581.554547	0.235760
581.766180	0.235551
581.977795	0.235772
582.189391	0.235969
582.400969	0.236669
582.612529	0.237124
582.824071	0.237567
583.035595	0.238130
583.247100	0.238162
583.458587	0.238707
583.670056	0.239089
583.881506	0.239133
584.092939	0.239381
584.304353	0.239103
584.515749	0.239011
584.727127	0.239135
584.938486	0.239227
585.149828	0.239780
585.361151	0.239841
585.572456	0.239906
585.783742	0.240162
585.995011	0.240349
586.206261	0.240433
586.417493	0.240535
586.628706	0.240527
586.839902	0.240786
587.051079	0.240984
587.262238	0.240723
587.473379	0.240736
587.684502	0.240965
587.895606	0.240674
588.106692	0.241005
588.317760	0.241457
588.528810	0.241527
588.739841	0.241666
588.950855	0.241821
589.161850	0.242198
589.372827	0.242740
589.583785	0.242584
589.794726	0.242966
590.005648	0.243343
590.216552	0.243774
590.427437	0.244245
590.638305	0.244297
590.849154	0.244532
591.059985	0.244571
591.270798	0.244142
591.481592	0.244431
591.692369	0.244753
591.903127	0.244492
592.113867	0.244448
592.324588	0.244478
592.535292	0.244350
592.745977	0.244143
592.956644	0.244403
593.167293	0.244562
593.377923	0.244821
593.588536	0.245060
593.799130	0.245350
594.009706	0.244989
594.220263	0.245148
594.430803	0.245563
594.641324	0.246139
594.851827	0.246152
595.062312	0.246659
595.272778	0.246495
595.483227	0.246246
595.693657	0.246227
595.904069	0.246690
596.114462	0.246976
596.324838	0.247128
596.535195	0.247464
596.745534	0.247679
596.955855	0.247628
597.166157	0.248302
597.376441	0.249244
597.586707	0.249351
597.796955	0.249670
598.007185	0.249333
598.217396	0.249545
598.427589	0.249122
598.637764	0.249335
598.847921	0.249537
599.058060	0.249879
599.268180	0.249726
599.478282	0.250333
599.688366	0.250100
599.898431	0.250932
600.108479	0.251241
600.318508	0.251768
600.528519	0.252103
600.738511	0.252526
600.948486	0.252333
601.158442	0.252372
601.368380	0.252603
601.578300	0.252849
601.788202	0.252917
601.998085	0.252914
602.207950	0.253400
602.417797	0.253634
602.627626	0.253688
602.837436	0.253675
603.047228	0.254035
603.257002	0.253922
603.466758	0.254446
603.676496	0.254431
603.886215	0.254654
604.095916	0.254321
604.305599	0.254109
604.515264	0.254338
604.724910	0.254423
604.934538	0.254854
605.144148	0.254863
605.353740	0.254844
605.563314	0.254673
605.772869	0.254816
605.982406	0.254841
606.191925	0.254955
606.401425	0.254792
606.610908	0.254972
606.820372	0.254575
607.029818	0.254791
607.239246	0.255042
607.448655	0.255372
607.658047	0.255504
607.867420	0.255835
608.076775	0.256273
608.286111	0.256658
608.495430	0.256970
608.704730	0.257103
608.914012	0.257311
609.123275	0.257290
609.332521	0.257178
609.541748	0.257443
609.750957	0.257365
609.960148	0.257423
610.169321	0.257407
610.378475	0.257658
610.587611	0.257902
610.796729	0.257937
611.005829	0.257860
611.214910	0.258529
611.423974	0.258440
611.633019	0.258716
611.842045	0.258808
612.051054	0.258980
612.260044	0.258999
612.469017	0.258810
612.677970	0.258789
612.886906	0.259068
613.095824	0.258923
613.304723	0.259146
613.513604	0.259237
613.722467	0.259420
613.931311	0.259532
614.140138	0.259668
614.348946	0.260213
614.557736	0.260680
614.766507	0.261044
614.975261	0.261137
615.183996	0.260818
615.392713	0.260938
615.601412	0.260904
615.810092	0.260982
616.018754	0.261047
616.227399	0.260950
616.436024	0.261046
616.644632	0.260962
616.853222	0.261176
617.061793	0.261584
617.270346	0.261794
617.478880	0.261996
617.687397	0.262268
617.895895	0.262518
618.104375	0.262914
618.312837	0.263051
618.521281	0.263071
618.729706	0.263137
618.938113	0.263418
619.146502	0.263402
619.354873	0.263561
619.563226	0.263783
619.771560	0.263753
619.979876	0.263606
620.188174	0.263712
620.396453	0.263843
620.604715	0.264239
620.812958	0.264347
621.021183	0.264431
621.229390	0.264422
621.437578	0.264391
621.645748	0.264515
621.853900	0.264609
622.062034	0.264369
622.270150	0.264453
622.478247	0.264665
622.686326	0.264619
622.894387	0.264905
623.102430	0.265163
623.310454	0.265422
623.518461	0.265776
623.726449	0.265988
623.934418	0.266579
624.142370	0.267296
624.350303	0.267285
624.558218	0.267570
624.766115	0.267667
624.973994	0.268140
625.181855	0.268505
625.389697	0.268507
625.597521	0.268571
625.805327	0.268598
626.013114	0.268246
626.220883	0.268244
626.428634	0.268333
626.636367	0.268433
626.844082	0.268178
627.051778	0.267958
627.259457	0.268112
627.467117	0.268279
627.674758	0.268624
627.882382	0.269039
628.089987	0.269115
628.297574	0.269246
628.505143	0.269190
628.712694	0.269414
628.920226	0.269556
629.127740	0.269472
629.335236	0.269679
629.542714	0.269799
629.750174	0.269774
629.957615	0.270081
630.165038	0.270276
630.372443	0.270708
630.579829	0.270739
630.787198	0.270750
630.994548	0.271156
631.201880	0.271565
631.409194	0.271636
631.616489	0.271664
631.823766	0.271711
632.031025	0.271992
632.238266	0.271932
632.445489	0.272199
632.652693	0.272484
632.859879	0.272627
633.067047	0.272499
633.274197	0.272656
633.481329	0.272838
633.688442	0.273237
633.895537	0.273287
634.102614	0.273671
634.309672	0.273706
634.516713	0.273879
634.723735	0.273943
634.930739	0.274230
635.137724	0.274525
635.344692	0.274934
635.551641	0.275003
635.758572	0.275203
635.965485	0.275177
636.172379	0.275512
636.379256	0.275848
636.586114	0.275836
636.792954	0.275930
636.999775	0.275633
637.206579	0.275675
637.413364	0.275872
637.620131	0.276050
637.826880	0.276329
638.033610	0.276297
638.240323	0.276230
638.447017	0.276608
638.653692	0.276575
638.860350	0.277150
639.066990	0.277379
639.273611	0.277075
639.480214	0.277133
639.686798	0.277465
639.893365	0.277696
640.099913	0.277953
640.306443	0.278041
640.512955	0.278329
640.719449	0.278269
640.925924	0.278441
641.132381	0.279079
641.338820	0.279248
641.545241	0.279234
641.751644	0.279390
641.958028	0.279573
642.164394	0.279804
642.370742	0.280318
642.577071	0.280346
642.783383	0.280200
642.989676	0.280106
643.195951	0.280260
643.402207	0.280369
643.608446	0.280554
643.814666	0.280588
644.020868	0.280734
644.227052	0.280291
644.433218	0.280342
644.639365	0.280582
644.845494	0.280708
645.051605	0.280873
645.257698	0.281000
645.463772	0.281106
645.669828	0.281353
645.875866	0.281657
646.081886	0.282118
646.287888	0.282684
646.493871	0.283059
646.699836	0.283362
646.905783	0.283523
647.111712	0.284022
647.317622	0.284228
647.523514	0.284413
647.729388	0.284456
647.935244	0.284637
648.141082	0.284818
648.346901	0.284723
648.552702	0.284779
648.758485	0.285006
648.964250	0.285020
649.169996	0.285074
649.375724	0.285481
649.581434	0.285655
649.787126	0.285939
649.992800	0.286026
650.198455	0.286359
650.404092	0.286555
650.609711	0.286586
650.815311	0.286756
651.020894	0.286998
651.226458	0.287084
651.432004	0.287285
651.637532	0.287259
651.843041	0.287350
652.048532	0.287450
652.254006	0.287529
652.459460	0.287814
652.664897	0.288064
652.870315	0.288218
653.075716	0.288332
653.281097	0.288338
653.486461	0.288688
653.691807	0.288831
653.897134	0.289121
654.102443	0.289396
654.307734	0.289656
654.513006	0.289734
654.718261	0.289976
654.923497	0.290014
655.128715	0.290343
655.333915	0.290444
655.539096	0.290804
655.744259	0.291143
655.949404	0.291406
656.154531	0.291548
656.359640	0.291827
656.564730	0.292340
656.769802	0.292594
656.974856	0.292852
657.179892	0.293191
657.384909	0.293359
657.589908	0.293366
657.794889	0.293694
657.999852	0.294132
658.204797	0.294163
658.409723	0.294109
658.614631	0.294230
658.819521	0.294202
659.024393	0.294346
659.229246	0.294612
659.434081	0.294695
659.638898	0.294891
659.843697	0.294812
660.048478	0.295067
660.253240	0.295361
660.457984	0.295698
660.662710	0.296114
660.867417	0.296317
661.072107	0.296453
661.276778	0.296983
661.481431	0.297066
661.686066	0.297321
661.890682	0.297498
662.095281	0.297693
662.299861	0.297890
662.504422	0.298196
662.708966	0.298367
662.913491	0.298570
663.117999	0.298563
663.322488	0.298767
663.526958	0.299050
663.731411	0.299502
663.935845	0.299655
664.140261	0.299835
664.344659	0.299954
664.549038	0.299998
664.753400	0.300032
664.957743	0.300266
665.162068	0.300585
665.366375	0.300857
665.570663	0.300937
665.774933	0.300858
665.979185	0.300953
666.183419	0.301164
666.387635	0.301375
666.591832	0.301583
666.796011	0.301861
667.000172	0.301944
667.204315	0.301969
667.408439	0.302268
667.612545	0.302832
667.816634	0.303246
668.020703	0.303322
668.224755	0.303658
668.428788	0.303941
668.632803	0.304130
668.836800	0.304494
669.040779	0.304596
669.244739	0.304635
669.448681	0.304853
669.652605	0.305021
669.856511	0.305292
670.060399	0.305349
670.264268	0.305505
670.468119	0.305485
670.671952	0.305487
670.875767	0.305650
671.079563	0.305856
671.283341	0.306001
671.487101	0.306339
671.690843	0.306736
671.894567	0.307048
672.098272	0.307403
672.301959	0.307974
672.505628	0.308354
672.709278	0.308741
672.912911	0.309016
673.116525	0.309210
673.320121	0.309210
673.523699	0.309105
673.727258	0.309365
673.930799	0.309505
674.134322	0.309560
674.337827	0.309600
674.541314	0.309550
674.744782	0.309760
674.948232	0.309921
675.151664	0.310089
675.355078	0.310540
675.558474	0.310762
675.761851	0.310854
675.965210	0.310804
676.168551	0.310999
676.371873	0.311497
676.575178	0.311710
676.778464	0.311930
676.981732	0.312143
677.184981	0.312282
677.388213	0.312819
677.591426	0.313266
677.794621	0.313830
677.997798	0.314180
678.200956	0.314297
678.404097	0.314654
678.607219	0.314723
678.810323	0.315040
679.013408	0.315136
679.216476	0.315045
679.419525	0.315106
679.622556	0.315093
679.825569	0.315256
680.028563	0.315577
680.231540	0.315441
680.434498	0.315822
680.637438	0.316109
680.840359	0.316378
681.043263	0.316363
681.246148	0.316795
681.449015	0.317038
681.651864	0.317523
681.854694	0.317694
682.057506	0.318075
682.260301	0.318258
682.463076	0.318208
682.665834	0.318283
682.868573	0.318749
683.071295	0.318866
683.273998	0.319098
683.476682	0.318890
683.679349	0.319094
683.881997	0.319086
684.084627	0.319427
684.287239	0.319617
684.489833	0.319852
684.692408	0.319995
684.894965	0.320025
685.097504	0.319806
685.300025	0.320302
685.502527	0.320373
685.705012	0.320594
685.907478	0.320603
686.109925	0.320769
686.312355	0.321091
686.514766	0.321256
686.717159	0.321291
686.919534	0.322115
687.121891	0.322211
687.324230	0.322446
687.526550	0.322932
687.728852	0.322980
687.931136	0.323208
688.133401	0.323363
688.335649	0.323304
688.537878	0.323534
688.740089	0.323272
688.942281	0.323128
689.144456	0.323326
689.346612	0.323279
689.548750	0.323531
689.750870	0.323634
689.952971	0.323609
690.155055	0.324042
690.357120	0.324471
690.559167	0.325157
690.761195	0.325604
690.963206	0.325614
691.165198	0.325684
691.367172	0.326023
691.569128	0.326356
691.771065	0.326625
691.972984	0.326752
692.174885	0.326824
692.376768	0.326553
692.578633	0.326561
692.780479	0.326864
692.982308	0.327105
693.184118	0.327450
693.385909	0.327507
693.587683	0.327965
