sample name	sample
index	339
start time	 03-01-2021  11:07:44 AM


Wavelength (nm)	Absorbance
494.344910	NaN
494.563924	NaN
494.782919	NaN
495.001897	0.023957
495.220856	0.415836
495.439797	0.402757
495.658719	0.258126
495.877624	0.224659
496.096510	0.165786
496.315378	0.149037
496.534227	0.113718
496.753059	0.059484
496.971872	0.080837
497.190667	0.225597
497.409444	0.234006
497.628203	0.245808
497.846943	0.247302
498.065665	0.253091
498.284369	0.253971
498.503055	0.254162
498.721723	0.253974
498.940372	0.254966
499.159003	0.253748
499.377616	0.252863
499.596210	0.251312
499.814787	0.250140
500.033345	0.247245
500.251885	0.246434
500.470406	0.244890
500.688910	0.242831
500.907395	0.241332
501.125862	0.240329
501.344311	0.241067
501.562742	0.241085
501.781154	0.240172
501.999548	0.239936
502.217924	0.237931
502.436282	0.237383
502.654621	0.237165
502.872942	0.236129
503.091245	0.234978
503.309530	0.233582
503.527797	0.232513
503.746045	0.232140
503.964275	0.230675
504.182487	0.230146
504.400681	0.229718
504.618856	0.229278
504.837013	0.228254
505.055152	0.228266
505.273273	0.227778
505.491376	0.227021
505.709460	0.226939
505.927526	0.226321
506.145574	0.226627
506.363604	0.225181
506.581615	0.225336
506.799608	0.224916
507.017583	0.224033
507.235540	0.222452
507.453478	0.221556
507.671399	0.220104
507.889301	0.219549
508.107185	0.218172
508.325050	0.217352
508.542898	0.216269
508.760727	0.215624
508.978538	0.215307
509.196330	0.215034
509.414105	0.213762
509.631861	0.212418
509.849599	0.212156
510.067319	0.211438
510.285021	0.210733
510.502704	0.210685
510.720369	0.210134
510.938016	0.209450
511.155645	0.208841
511.373255	0.207889
511.590848	0.208426
511.808422	0.208449
512.025977	0.207959
512.243515	0.208040
512.461034	0.205709
512.678536	0.205397
512.896018	0.204973
513.113483	0.204364
513.330930	0.204700
513.548358	0.203774
513.765768	0.202304
513.983160	0.202328
514.200533	0.201603
514.417889	0.201860
514.635226	0.201580
514.852545	0.200998
515.069845	0.200879
515.287128	0.200462
515.504392	0.198972
515.721638	0.199133
515.938866	0.197562
516.156075	0.196468
516.373267	0.196387
516.590440	0.195396
516.807594	0.195007
517.024731	0.193956
517.241850	0.193443
517.458950	0.192860
517.676032	0.191523
517.893095	0.191213
518.110141	0.191592
518.327168	0.190644
518.544177	0.190632
518.761168	0.189913
518.978141	0.190251
519.195095	0.189808
519.412031	0.190900
519.628949	0.191230
519.845849	0.191490
520.062731	0.191065
520.279594	0.190831
520.496439	0.190841
520.713266	0.189958
520.930074	0.188526
521.146865	0.187918
521.363637	0.186496
521.580391	0.186208
521.797127	0.186248
522.013844	0.185768
522.230543	0.185709
522.447224	0.184605
522.663887	0.184807
522.880532	0.185363
523.097158	0.185398
523.313766	0.186219
523.530356	0.185477
523.746928	0.184513
523.963481	0.184153
524.180017	0.184138
524.396534	0.184253
524.613032	0.183930
524.829513	0.183674
525.045975	0.182829
525.262420	0.181413
525.478845	0.181771
525.695253	0.181282
525.911643	0.181087
526.128014	0.180381
526.344367	0.179970
526.560702	0.180070
526.777018	0.179889
526.993316	0.180641
527.209597	0.181366
527.425858	0.180641
527.642102	0.181390
527.858328	0.180931
528.074535	0.180614
528.290724	0.180135
528.506894	0.179931
528.723047	0.179629
528.939181	0.179090
529.155297	0.178878
529.371395	0.179223
529.587475	0.178730
529.803536	0.179428
530.019579	0.179416
530.235604	0.179587
530.451611	0.178905
530.667600	0.179215
530.883570	0.178997
531.099522	0.178941
531.315456	0.178175
531.531372	0.178060
531.747269	0.177384
531.963148	0.177617
532.179009	0.177298
532.394852	0.177777
532.610676	0.177515
532.826482	0.176946
533.042271	0.176470
533.258040	0.176785
533.473792	0.176656
533.689525	0.176730
533.905240	0.176025
534.120937	0.176165
534.336616	0.176100
534.552277	0.175927
534.767919	0.176439
534.983543	0.176621
535.199149	0.176659
535.414736	0.176504
535.630306	0.176523
535.845857	0.176528
536.061390	0.177026
536.276904	0.176898
536.492401	0.176625
536.707879	0.176131
536.923339	0.175993
537.138781	0.175817
537.354204	0.175944
537.569610	0.175428
537.784997	0.175666
538.000366	0.175157
538.215716	0.175121
538.431049	0.175256
538.646363	0.175563
538.861659	0.175024
539.076937	0.174878
539.292196	0.174502
539.507438	0.174333
539.722661	0.174027
539.937866	0.173939
540.153052	0.174133
540.368221	0.174410
540.583371	0.174211
540.798503	0.174930
541.013617	0.174465
541.228712	0.174651
541.443789	0.175337
541.658848	0.175868
541.873889	0.175777
542.088912	0.175670
542.303916	0.175298
542.518902	0.175202
542.733870	0.174842
542.948820	0.175383
543.163752	0.175477
543.378665	0.174876
543.593560	0.174385
543.808437	0.174255
544.023295	0.173778
544.238136	0.174068
544.452958	0.174277
544.667762	0.174274
544.882548	0.174466
545.097315	0.174133
545.312064	0.174332
545.526795	0.174106
545.741508	0.174166
545.956203	0.173857
546.170879	0.173285
546.385537	0.173424
546.600177	0.173248
546.814799	0.172909
547.029402	0.172784
547.243988	0.172650
547.458555	0.172863
547.673103	0.172527
547.887634	0.173090
548.102146	0.173344
548.316640	0.173332
548.531116	0.173347
548.745574	0.173074
548.960013	0.173239
549.174435	0.173175
549.388838	0.172842
549.603222	0.172781
549.817589	0.172387
550.031937	0.172215
550.246267	0.171847
550.460579	0.171642
550.674873	0.171734
550.889148	0.171700
551.103405	0.171480
551.317644	0.171816
551.531865	0.172034
551.746068	0.172492
551.960252	0.172529
552.174418	0.172579
552.388566	0.172851
552.602696	0.172893
552.816807	0.173004
553.030900	0.173220
553.244975	0.173310
553.459032	0.173067
553.673070	0.172811
553.887091	0.172722
554.101093	0.172915
554.315077	0.172942
554.529042	0.172740
554.742990	0.172680
554.956919	0.172896
555.170830	0.172633
555.384722	0.172969
555.598597	0.173047
555.812453	0.173232
556.026291	0.172819
556.240111	0.172683
556.453913	0.172775
556.667696	0.173033
556.881461	0.173176
557.095208	0.173399
557.308937	0.172767
557.522647	0.172600
557.736339	0.172574
557.950013	0.173013
558.163669	0.173216
558.377307	0.173370
558.590926	0.172781
558.804527	0.172559
559.018110	0.172626
559.231675	0.172914
559.445221	0.173002
559.658749	0.172800
559.872259	0.172544
560.085751	0.172517
560.299225	0.172345
560.512680	0.172653
560.726117	0.172807
560.939536	0.172955
561.152937	0.173263
561.366319	0.173368
561.579683	0.173638
561.793029	0.173847
562.006357	0.173353
562.219667	0.173247
562.432958	0.173084
562.646231	0.173008
562.859486	0.172860
563.072723	0.172848
563.285941	0.172702
563.499141	0.172581
563.712323	0.172435
563.925487	0.173007
564.138632	0.172983
564.351760	0.173037
564.564869	0.172919
564.777960	0.172930
564.991032	0.172908
565.204087	0.172754
565.417123	0.172765
565.630141	0.172640
565.843140	0.172596
566.056122	0.172976
566.269085	0.173161
566.482030	0.173342
566.694957	0.172964
566.907866	0.172988
567.120756	0.173447
567.333628	0.173798
567.546482	0.174026
567.759318	0.173684
567.972135	0.173428
568.184935	0.173397
568.397716	0.173374
568.610478	0.173417
568.823223	0.173249
569.035949	0.173322
569.248657	0.173157
569.461347	0.172851
569.674019	0.173261
569.886672	0.173791
570.099308	0.173772
570.311925	0.173608
570.524523	0.173927
570.737104	0.174251
570.949666	0.173870
571.162210	0.173924
571.374736	0.174393
571.587244	0.174688
571.799733	0.174566
572.012205	0.174657
572.224658	0.174828
572.437092	0.174990
572.649509	0.174876
572.861907	0.175198
573.074287	0.175449
573.286649	0.175234
573.498993	0.175163
573.711318	0.175088
573.923625	0.175188
574.135914	0.175748
574.348185	0.175794
574.560438	0.176152
574.772672	0.176087
574.984888	0.175833
575.197086	0.176188
575.409266	0.175998
575.621427	0.175821
575.833570	0.175919
576.045695	0.175518
576.257802	0.175488
576.469890	0.175318
576.681961	0.175412
576.894013	0.175633
577.106046	0.175831
577.318062	0.175919
577.530059	0.176081
577.742039	0.176272
577.954000	0.176510
578.165942	0.176699
578.377867	0.176731
578.589773	0.177094
578.801661	0.177066
579.013531	0.176761
579.225382	0.176449
579.437216	0.176408
579.649031	0.175864
579.860828	0.175708
580.072606	0.175540
580.284367	0.175503
580.496109	0.175391
580.707833	0.175617
580.919539	0.175815
581.131227	0.176337
581.342896	0.176484
581.554547	0.176750
581.766180	0.176906
581.977795	0.177172
582.189391	0.177771
582.400969	0.177837
582.612529	0.177912
582.824071	0.177954
583.035595	0.178187
583.247100	0.178379
583.458587	0.178604
583.670056	0.178386
583.881506	0.178218
584.092939	0.177829
584.304353	0.178109
584.515749	0.177959
584.727127	0.178097
584.938486	0.177805
585.149828	0.178172
585.361151	0.178579
585.572456	0.179043
585.783742	0.179252
585.995011	0.179244
586.206261	0.179334
586.417493	0.179596
586.628706	0.179630
586.839902	0.179692
587.051079	0.179747
587.262238	0.179626
587.473379	0.179550
587.684502	0.179803
587.895606	0.180100
588.106692	0.179786
588.317760	0.179619
588.528810	0.179813
588.739841	0.180025
588.950855	0.180472
589.161850	0.180693
589.372827	0.181012
589.583785	0.180981
589.794726	0.181144
590.005648	0.181781
590.216552	0.181911
590.427437	0.181609
590.638305	0.181877
590.849154	0.181508
591.059985	0.181468
591.270798	0.180987
591.481592	0.181338
591.692369	0.181339
591.903127	0.181100
592.113867	0.181399
592.324588	0.181957
592.535292	0.181896
592.745977	0.181873
592.956644	0.182205
593.167293	0.182659
593.377923	0.182252
593.588536	0.182627
593.799130	0.182448
594.009706	0.182665
594.220263	0.182763
594.430803	0.183083
594.641324	0.183405
594.851827	0.183321
595.062312	0.183183
595.272778	0.183645
595.483227	0.183423
595.693657	0.183581
595.904069	0.183501
596.114462	0.183440
596.324838	0.183229
596.535195	0.183262
596.745534	0.183473
596.955855	0.183797
597.166157	0.183707
597.376441	0.184133
597.586707	0.184306
597.796955	0.184708
598.007185	0.184823
598.217396	0.185117
598.427589	0.185242
598.637764	0.185469
598.847921	0.185496
599.058060	0.185812
599.268180	0.185694
599.478282	0.186086
599.688366	0.185936
599.898431	0.185929
600.108479	0.186159
600.318508	0.186714
600.528519	0.186658
600.738511	0.186957
600.948486	0.187043
601.158442	0.187117
601.368380	0.187150
601.578300	0.187139
601.788202	0.187401
601.998085	0.187455
602.207950	0.187147
602.417797	0.186942
602.627626	0.186904
602.837436	0.186920
603.047228	0.187208
603.257002	0.187362
603.466758	0.187485
603.676496	0.187515
603.886215	0.187998
604.095916	0.187876
604.305599	0.187996
604.515264	0.188155
604.724910	0.188769
604.934538	0.189050
605.144148	0.188971
605.353740	0.189294
605.563314	0.189317
605.772869	0.189119
605.982406	0.189562
606.191925	0.190108
606.401425	0.190405
606.610908	0.189994
606.820372	0.189840
607.029818	0.190112
607.239246	0.190187
607.448655	0.190309
607.658047	0.190196
607.867420	0.189911
608.076775	0.189918
608.286111	0.189912
608.495430	0.190250
608.704730	0.190297
608.914012	0.190270
609.123275	0.190280
609.332521	0.190728
609.541748	0.190960
609.750957	0.191405
609.960148	0.191517
610.169321	0.191615
610.378475	0.191813
610.587611	0.192017
610.796729	0.192171
611.005829	0.192325
611.214910	0.192285
611.423974	0.192465
611.633019	0.192557
611.842045	0.192599
612.051054	0.192566
612.260044	0.192460
612.469017	0.192340
612.677970	0.192249
612.886906	0.192364
613.095824	0.192480
613.304723	0.192683
613.513604	0.192522
613.722467	0.192853
613.931311	0.193148
614.140138	0.193168
614.348946	0.193575
614.557736	0.193882
614.766507	0.193968
614.975261	0.194128
615.183996	0.194047
615.392713	0.194403
615.601412	0.194440
615.810092	0.194588
616.018754	0.194711
616.227399	0.194492
616.436024	0.194678
616.644632	0.194935
616.853222	0.194927
617.061793	0.194959
617.270346	0.194987
617.478880	0.194960
617.687397	0.194801
617.895895	0.194916
618.104375	0.195083
618.312837	0.195220
618.521281	0.195120
618.729706	0.195099
618.938113	0.195207
619.146502	0.195428
619.354873	0.195356
619.563226	0.195522
619.771560	0.195695
619.979876	0.195876
620.188174	0.196080
620.396453	0.196397
620.604715	0.196516
620.812958	0.196736
621.021183	0.196789
621.229390	0.197042
621.437578	0.197152
621.645748	0.197295
621.853900	0.197598
622.062034	0.197554
622.270150	0.197345
622.478247	0.197445
622.686326	0.197441
622.894387	0.197324
623.102430	0.197328
623.310454	0.197485
623.518461	0.197477
623.726449	0.197435
623.934418	0.197452
624.142370	0.197451
624.350303	0.197657
624.558218	0.197918
624.766115	0.198234
624.973994	0.198354
625.181855	0.198474
625.389697	0.198685
625.597521	0.198806
625.805327	0.198722
626.013114	0.199003
626.220883	0.199159
626.428634	0.199363
626.636367	0.199356
626.844082	0.199686
627.051778	0.199653
627.259457	0.199558
627.467117	0.199589
627.674758	0.199805
627.882382	0.199997
628.089987	0.200060
628.297574	0.199992
628.505143	0.200201
628.712694	0.199964
628.920226	0.200076
629.127740	0.200292
629.335236	0.200414
629.542714	0.200648
629.750174	0.200466
629.957615	0.200376
630.165038	0.200211
630.372443	0.200341
630.579829	0.200498
630.787198	0.200712
630.994548	0.200867
631.201880	0.200947
631.409194	0.200997
631.616489	0.201543
631.823766	0.201923
632.031025	0.202534
632.238266	0.202722
632.445489	0.202903
632.652693	0.203109
632.859879	0.203195
633.067047	0.203566
633.274197	0.203497
633.481329	0.203724
633.688442	0.203719
633.895537	0.203605
634.102614	0.203738
634.309672	0.203818
634.516713	0.203886
634.723735	0.203738
634.930739	0.203768
635.137724	0.204146
635.344692	0.203868
635.551641	0.204037
635.758572	0.204068
635.965485	0.204123
636.172379	0.204201
636.379256	0.204295
636.586114	0.204518
636.792954	0.204410
636.999775	0.204500
637.206579	0.204639
637.413364	0.204722
637.620131	0.204994
637.826880	0.204938
638.033610	0.205090
638.240323	0.205199
638.447017	0.205391
638.653692	0.205486
638.860350	0.205500
639.066990	0.205554
639.273611	0.205693
639.480214	0.205583
639.686798	0.205861
639.893365	0.206154
640.099913	0.206440
640.306443	0.206586
640.512955	0.206896
640.719449	0.206853
640.925924	0.207068
641.132381	0.207328
641.338820	0.207636
641.545241	0.207475
641.751644	0.207407
641.958028	0.207375
642.164394	0.207317
642.370742	0.207461
642.577071	0.207734
642.783383	0.207801
642.989676	0.207655
643.195951	0.207764
643.402207	0.207840
643.608446	0.208020
643.814666	0.208129
644.020868	0.208507
644.227052	0.208541
644.433218	0.208716
644.639365	0.208894
644.845494	0.209319
645.051605	0.209311
645.257698	0.209718
645.463772	0.209927
645.669828	0.209795
645.875866	0.210090
646.081886	0.210296
646.287888	0.210503
646.493871	0.210437
646.699836	0.210245
646.905783	0.210427
647.111712	0.210578
647.317622	0.210666
647.523514	0.211115
647.729388	0.211024
647.935244	0.210980
648.141082	0.210938
648.346901	0.211323
648.552702	0.211406
648.758485	0.211641
648.964250	0.211641
649.169996	0.211948
649.375724	0.211770
649.581434	0.211890
649.787126	0.212225
649.992800	0.212458
650.198455	0.212601
650.404092	0.212875
650.609711	0.212971
650.815311	0.213375
651.020894	0.213300
651.226458	0.213495
651.432004	0.213712
651.637532	0.213856
651.843041	0.213815
652.048532	0.213708
652.254006	0.213966
652.459460	0.214100
652.664897	0.213861
652.870315	0.213889
653.075716	0.214024
653.281097	0.213909
653.486461	0.213809
653.691807	0.214028
653.897134	0.214183
654.102443	0.214132
654.307734	0.214299
654.513006	0.214514
654.718261	0.214671
654.923497	0.214939
655.128715	0.215279
655.333915	0.215293
655.539096	0.215576
655.744259	0.215707
655.949404	0.215932
656.154531	0.216034
656.359640	0.216208
656.564730	0.216405
656.769802	0.216658
656.974856	0.216536
657.179892	0.216975
657.384909	0.216977
657.589908	0.217173
657.794889	0.217401
657.999852	0.217898
658.204797	0.218258
658.409723	0.218643
658.614631	0.218893
658.819521	0.219467
659.024393	0.219449
659.229246	0.219745
659.434081	0.220172
659.638898	0.220426
659.843697	0.220215
660.048478	0.220176
660.253240	0.220311
660.457984	0.220411
660.662710	0.220505
660.867417	0.220859
661.072107	0.221059
661.276778	0.220990
661.481431	0.220816
661.686066	0.220970
661.890682	0.221255
662.095281	0.221001
662.299861	0.221108
662.504422	0.221065
662.708966	0.220913
662.913491	0.221207
663.117999	0.221522
663.322488	0.221569
663.526958	0.221520
663.731411	0.221551
663.935845	0.221964
664.140261	0.222138
664.344659	0.222438
664.549038	0.222667
664.753400	0.222405
664.957743	0.222574
665.162068	0.223036
665.366375	0.223255
665.570663	0.223434
665.774933	0.223756
665.979185	0.223786
666.183419	0.223930
666.387635	0.224121
666.591832	0.224374
666.796011	0.224630
667.000172	0.224739
667.204315	0.224991
667.408439	0.225219
667.612545	0.225206
667.816634	0.225242
668.020703	0.225186
668.224755	0.225496
668.428788	0.225677
668.632803	0.225492
668.836800	0.225508
669.040779	0.225747
669.244739	0.225755
669.448681	0.225922
669.652605	0.226096
669.856511	0.226401
670.060399	0.226641
670.264268	0.226764
670.468119	0.227154
670.671952	0.227400
670.875767	0.227575
671.079563	0.227880
671.283341	0.227825
671.487101	0.228021
671.690843	0.228179
671.894567	0.228219
672.098272	0.228314
672.301959	0.228329
672.505628	0.228287
672.709278	0.228323
672.912911	0.228451
673.116525	0.228851
673.320121	0.229160
673.523699	0.229277
673.727258	0.229356
673.930799	0.229554
674.134322	0.229703
674.337827	0.229897
674.541314	0.230203
674.744782	0.230334
674.948232	0.230347
675.151664	0.230235
675.355078	0.230208
675.558474	0.230190
675.761851	0.230329
675.965210	0.230490
676.168551	0.230692
676.371873	0.230561
676.575178	0.230646
676.778464	0.230802
676.981732	0.231192
677.184981	0.231510
677.388213	0.231873
677.591426	0.232209
677.794621	0.232412
677.997798	0.232602
678.200956	0.232813
678.404097	0.233072
678.607219	0.233278
678.810323	0.233318
679.013408	0.233628
679.216476	0.233780
679.419525	0.233909
679.622556	0.234210
679.825569	0.234589
680.028563	0.234747
680.231540	0.234912
680.434498	0.235055
680.637438	0.235333
680.840359	0.235302
681.043263	0.235410
681.246148	0.235412
681.449015	0.235295
681.651864	0.235157
681.854694	0.235328
682.057506	0.235314
682.260301	0.235437
682.463076	0.235354
682.665834	0.235510
682.868573	0.235754
683.071295	0.235982
683.273998	0.236320
683.476682	0.236547
683.679349	0.236779
683.881997	0.237048
684.084627	0.237338
684.287239	0.237533
684.489833	0.237610
684.692408	0.237601
684.894965	0.237575
685.097504	0.237830
685.300025	0.238078
685.502527	0.238236
685.705012	0.238270
685.907478	0.238042
686.109925	0.238056
686.312355	0.238233
686.514766	0.238329
686.717159	0.238628
686.919534	0.238316
687.121891	0.238422
687.324230	0.238397
687.526550	0.238620
687.728852	0.238856
687.931136	0.239254
688.133401	0.239430
688.335649	0.239695
688.537878	0.239589
688.740089	0.240010
688.942281	0.240199
689.144456	0.240443
689.346612	0.240733
689.548750	0.240848
689.750870	0.240846
689.952971	0.240906
690.155055	0.241232
690.357120	0.241549
690.559167	0.241658
690.761195	0.241457
690.963206	0.241492
691.165198	0.241391
691.367172	0.241669
691.569128	0.241816
691.771065	0.242211
691.972984	0.241994
692.174885	0.242224
692.376768	0.242365
692.578633	0.242796
692.780479	0.242913
692.982308	0.242958
693.184118	0.243153
693.385909	0.243239
693.587683	0.243373
