sample name	sample
index	893
start time	 04-08-2021  03:08:33 PM


Wavelength (nm)	Absorbance
494.344910	NaN
494.563924	NaN
494.782919	NaN
495.001897	NaN
495.220856	NaN
495.439797	-0.564363
495.658719	-0.112475
495.877624	0.232906
496.096510	0.262884
496.315378	0.153320
496.534227	NaN
496.753059	0.672115
496.971872	0.363967
497.190667	0.141307
497.409444	0.140275
497.628203	0.140945
497.846943	0.138627
498.065665	0.139307
498.284369	0.138972
498.503055	0.139499
498.721723	0.140750
498.940372	0.140308
499.159003	0.140519
499.377616	0.140668
499.596210	0.139755
499.814787	0.139828
500.033345	0.140064
500.251885	0.140594
500.470406	0.139642
500.688910	0.139664
500.907395	0.140080
501.125862	0.141162
501.344311	0.142051
501.562742	0.141618
501.781154	0.142762
501.999548	0.143117
502.217924	0.143990
502.436282	0.143654
502.654621	0.143029
502.872942	0.142391
503.091245	0.142682
503.309530	0.141712
503.527797	0.142123
503.746045	0.141836
503.964275	0.141592
504.182487	0.141145
504.400681	0.141519
504.618856	0.141714
504.837013	0.143178
505.055152	0.142477
505.273273	0.143163
505.491376	0.143071
505.709460	0.143154
505.927526	0.143125
506.145574	0.143045
506.363604	0.144030
506.581615	0.144797
506.799608	0.144852
507.017583	0.145558
507.235540	0.145452
507.453478	0.146153
507.671399	0.145875
507.889301	0.146288
508.107185	0.146213
508.325050	0.146129
508.542898	0.146298
508.760727	0.146088
508.978538	0.146222
509.196330	0.146966
509.414105	0.146884
509.631861	0.147611
509.849599	0.147982
510.067319	0.148547
510.285021	0.148263
510.502704	0.148122
510.720369	0.148899
510.938016	0.149083
511.155645	0.148990
511.373255	0.149048
511.590848	0.147932
511.808422	0.147700
512.025977	0.146911
512.243515	0.147037
512.461034	0.146934
512.678536	0.146573
512.896018	0.147138
513.113483	0.147404
513.330930	0.147680
513.548358	0.149756
513.765768	0.150420
513.983160	0.151791
514.200533	0.151828
514.417889	0.153008
514.635226	0.153697
514.852545	0.153729
515.069845	0.153680
515.287128	0.153945
515.504392	0.153444
515.721638	0.154628
515.938866	0.155052
516.156075	0.155021
516.373267	0.154219
516.590440	0.154288
516.807594	0.154483
517.024731	0.153932
517.241850	0.154357
517.458950	0.154492
517.676032	0.153733
517.893095	0.153258
518.110141	0.154147
518.327168	0.154232
518.544177	0.154293
518.761168	0.153933
518.978141	0.154913
519.195095	0.155560
519.412031	0.155562
519.628949	0.155755
519.845849	0.156590
520.062731	0.156867
520.279594	0.157364
520.496439	0.157206
520.713266	0.157870
520.930074	0.157727
521.146865	0.157610
521.363637	0.158327
521.580391	0.158412
521.797127	0.158082
522.013844	0.158434
522.230543	0.158712
522.447224	0.158615
522.663887	0.158460
522.880532	0.159737
523.097158	0.160070
523.313766	0.159256
523.530356	0.159767
523.746928	0.160215
523.963481	0.160319
524.180017	0.160645
524.396534	0.161686
524.613032	0.161406
524.829513	0.161050
525.045975	0.161123
525.262420	0.162089
525.478845	0.162357
525.695253	0.162194
525.911643	0.162344
526.128014	0.161862
526.344367	0.162147
526.560702	0.162645
526.777018	0.162402
526.993316	0.162798
527.209597	0.162430
527.425858	0.163001
527.642102	0.163265
527.858328	0.164419
528.074535	0.165908
528.290724	0.166227
528.506894	0.167530
528.723047	0.168741
528.939181	0.168712
529.155297	0.170106
529.371395	0.169998
529.587475	0.170797
529.803536	0.170372
530.019579	0.170410
530.235604	0.170379
530.451611	0.170180
530.667600	0.169782
530.883570	0.170639
531.099522	0.170434
531.315456	0.170748
531.531372	0.171007
531.747269	0.171658
531.963148	0.172059
532.179009	0.172200
532.394852	0.172337
532.610676	0.172886
532.826482	0.172160
533.042271	0.172728
533.258040	0.173095
533.473792	0.173515
533.689525	0.173578
533.905240	0.173502
534.120937	0.174004
534.336616	0.174652
534.552277	0.174841
534.767919	0.175676
534.983543	0.175804
535.199149	0.176643
535.414736	0.177004
535.630306	0.177577
535.845857	0.177991
536.061390	0.178747
536.276904	0.179310
536.492401	0.179764
536.707879	0.180530
536.923339	0.180470
537.138781	0.180123
537.354204	0.180230
537.569610	0.179978
537.784997	0.180197
538.000366	0.179821
538.215716	0.179878
538.431049	0.180004
538.646363	0.180393
538.861659	0.180803
539.076937	0.181220
539.292196	0.181430
539.507438	0.181909
539.722661	0.182716
539.937866	0.183819
540.153052	0.183956
540.368221	0.184352
540.583371	0.183904
540.798503	0.184354
541.013617	0.184676
541.228712	0.185128
541.443789	0.184960
541.658848	0.185180
541.873889	0.185120
542.088912	0.185776
542.303916	0.186060
542.518902	0.186695
542.733870	0.187076
542.948820	0.186694
543.163752	0.186823
543.378665	0.187663
543.593560	0.187680
543.808437	0.187387
544.023295	0.187489
544.238136	0.188098
544.452958	0.188630
544.667762	0.189095
544.882548	0.189762
545.097315	0.189780
545.312064	0.189967
545.526795	0.190491
545.741508	0.191120
545.956203	0.191388
546.170879	0.191147
546.385537	0.191062
546.600177	0.190899
546.814799	0.191711
547.029402	0.192090
547.243988	0.192394
547.458555	0.192289
547.673103	0.192855
547.887634	0.192874
548.102146	0.193468
548.316640	0.193944
548.531116	0.193954
548.745574	0.193455
548.960013	0.194012
549.174435	0.194058
549.388838	0.194539
549.603222	0.194577
549.817589	0.194945
550.031937	0.194615
550.246267	0.194276
550.460579	0.194966
550.674873	0.195424
550.889148	0.195622
551.103405	0.195979
551.317644	0.195677
551.531865	0.195932
551.746068	0.195702
551.960252	0.196174
552.174418	0.197260
552.388566	0.197166
552.602696	0.197375
552.816807	0.197479
553.030900	0.197328
553.244975	0.197709
553.459032	0.197937
553.673070	0.198582
553.887091	0.198919
554.101093	0.198957
554.315077	0.199043
554.529042	0.199375
554.742990	0.199845
554.956919	0.200589
555.170830	0.201043
555.384722	0.201140
555.598597	0.200939
555.812453	0.201036
556.026291	0.201200
556.240111	0.201825
556.453913	0.201951
556.667696	0.202139
556.881461	0.201678
557.095208	0.201741
557.308937	0.201206
557.522647	0.201529
557.736339	0.201246
557.950013	0.201417
558.163669	0.201260
558.377307	0.201258
558.590926	0.200996
558.804527	0.201409
559.018110	0.201927
559.231675	0.202963
559.445221	0.203789
559.658749	0.204547
559.872259	0.204328
560.085751	0.205038
560.299225	0.205569
560.512680	0.206209
560.726117	0.206511
560.939536	0.206356
561.152937	0.206411
561.366319	0.206177
561.579683	0.206409
561.793029	0.207154
562.006357	0.207310
562.219667	0.207311
562.432958	0.207221
562.646231	0.207762
562.859486	0.208028
563.072723	0.208057
563.285941	0.208160
563.499141	0.208247
563.712323	0.208435
563.925487	0.208424
564.138632	0.208577
564.351760	0.208856
564.564869	0.208849
564.777960	0.209052
564.991032	0.209264
565.204087	0.209596
565.417123	0.209786
565.630141	0.209980
565.843140	0.210118
566.056122	0.210381
566.269085	0.210628
566.482030	0.210933
566.694957	0.210928
566.907866	0.211025
567.120756	0.211355
567.333628	0.211449
567.546482	0.211355
567.759318	0.211252
567.972135	0.211307
568.184935	0.211529
568.397716	0.211415
568.610478	0.211975
568.823223	0.212294
569.035949	0.212519
569.248657	0.212663
569.461347	0.212768
569.674019	0.213323
569.886672	0.213250
570.099308	0.213464
570.311925	0.213835
570.524523	0.213686
570.737104	0.213462
570.949666	0.213515
571.162210	0.213763
571.374736	0.213785
571.587244	0.214321
571.799733	0.214556
572.012205	0.214891
572.224658	0.214928
572.437092	0.214778
572.649509	0.215368
572.861907	0.215351
573.074287	0.215498
573.286649	0.215817
573.498993	0.215625
573.711318	0.216345
573.923625	0.215983
574.135914	0.216409
574.348185	0.216816
574.560438	0.216828
574.772672	0.216721
574.984888	0.217305
575.197086	0.217428
575.409266	0.217538
575.621427	0.217506
575.833570	0.217519
576.045695	0.217624
576.257802	0.217421
576.469890	0.217875
576.681961	0.217849
576.894013	0.217435
577.106046	0.217472
577.318062	0.217569
577.530059	0.217441
577.742039	0.217769
577.954000	0.217532
578.165942	0.217998
578.377867	0.217968
578.589773	0.218994
578.801661	0.219244
579.013531	0.219326
579.225382	0.219526
579.437216	0.219869
579.649031	0.219822
579.860828	0.220500
580.072606	0.220427
580.284367	0.220811
580.496109	0.220354
580.707833	0.220560
580.919539	0.220751
581.131227	0.220551
581.342896	0.220626
581.554547	0.221202
581.766180	0.220825
581.977795	0.221446
582.189391	0.221314
582.400969	0.221470
582.612529	0.221659
582.824071	0.221615
583.035595	0.222130
583.247100	0.222414
583.458587	0.222690
583.670056	0.222986
583.881506	0.223149
584.092939	0.223311
584.304353	0.223281
584.515749	0.223465
584.727127	0.223992
584.938486	0.224303
585.149828	0.224102
585.361151	0.223926
585.572456	0.224172
585.783742	0.223738
585.995011	0.223858
586.206261	0.223925
586.417493	0.223755
586.628706	0.223452
586.839902	0.223281
587.051079	0.223592
587.262238	0.223753
587.473379	0.223549
587.684502	0.224297
587.895606	0.224325
588.106692	0.224708
588.317760	0.225160
588.528810	0.225506
588.739841	0.225842
588.950855	0.225583
589.161850	0.225265
589.372827	0.225401
589.583785	0.225496
589.794726	0.225692
590.005648	0.225519
590.216552	0.225420
590.427437	0.225451
590.638305	0.225471
590.849154	0.226201
591.059985	0.226940
591.270798	0.227342
591.481592	0.227483
591.692369	0.227601
591.903127	0.228106
592.113867	0.228484
592.324588	0.228981
592.535292	0.228947
592.745977	0.228833
592.956644	0.228708
593.167293	0.228586
593.377923	0.228679
593.588536	0.228940
593.799130	0.228977
594.009706	0.229074
594.220263	0.229431
594.430803	0.230130
594.641324	0.230277
594.851827	0.230450
595.062312	0.231075
595.272778	0.231485
595.483227	0.231975
595.693657	0.232239
595.904069	0.232273
596.114462	0.231979
596.324838	0.232258
596.535195	0.232100
596.745534	0.232299
596.955855	0.231849
597.166157	0.231884
597.376441	0.231999
597.586707	0.232353
597.796955	0.232685
598.007185	0.232916
598.217396	0.232780
598.427589	0.233420
598.637764	0.233342
598.847921	0.233692
599.058060	0.233293
599.268180	0.232815
599.478282	0.232918
599.688366	0.233026
599.898431	0.233202
600.108479	0.233097
600.318508	0.233102
600.528519	0.233579
600.738511	0.234010
600.948486	0.234616
601.158442	0.235055
601.368380	0.235288
601.578300	0.235330
601.788202	0.235163
601.998085	0.235367
602.207950	0.235304
602.417797	0.235313
602.627626	0.235201
602.837436	0.235144
603.047228	0.235136
603.257002	0.234944
603.466758	0.235138
603.676496	0.235799
603.886215	0.235900
604.095916	0.236319
604.305599	0.236250
604.515264	0.236617
604.724910	0.236563
604.934538	0.236751
605.144148	0.236858
605.353740	0.236713
605.563314	0.236464
605.772869	0.236716
605.982406	0.237163
606.191925	0.237644
606.401425	0.237735
606.610908	0.237926
606.820372	0.238006
607.029818	0.238283
607.239246	0.238332
607.448655	0.238829
607.658047	0.238835
607.867420	0.238535
608.076775	0.238543
608.286111	0.238729
608.495430	0.239008
608.704730	0.239214
608.914012	0.239590
609.123275	0.240025
609.332521	0.239929
609.541748	0.240029
609.750957	0.240311
609.960148	0.240466
610.169321	0.240419
610.378475	0.240453
610.587611	0.240622
610.796729	0.240394
611.005829	0.240308
611.214910	0.240554
611.423974	0.240558
611.633019	0.240719
611.842045	0.241018
612.051054	0.241142
612.260044	0.241111
612.469017	0.241129
612.677970	0.241119
612.886906	0.241477
613.095824	0.241581
613.304723	0.241479
613.513604	0.241411
613.722467	0.241318
613.931311	0.241441
614.140138	0.241648
614.348946	0.241777
614.557736	0.242080
614.766507	0.242096
614.975261	0.242248
615.183996	0.242812
615.392713	0.242761
615.601412	0.242896
615.810092	0.243279
616.018754	0.243594
616.227399	0.243717
616.436024	0.244007
616.644632	0.244263
616.853222	0.244240
617.061793	0.244183
617.270346	0.244330
617.478880	0.244425
617.687397	0.244278
617.895895	0.244297
618.104375	0.244308
618.312837	0.244575
618.521281	0.244408
618.729706	0.244605
618.938113	0.244763
619.146502	0.244839
619.354873	0.245107
619.563226	0.245375
619.771560	0.245705
619.979876	0.245859
620.188174	0.245810
620.396453	0.246307
620.604715	0.246293
620.812958	0.246509
621.021183	0.246977
621.229390	0.246848
621.437578	0.246665
621.645748	0.246579
621.853900	0.246948
622.062034	0.246962
622.270150	0.246977
622.478247	0.247229
622.686326	0.247420
622.894387	0.247243
623.102430	0.247457
623.310454	0.247691
623.518461	0.247960
623.726449	0.248006
623.934418	0.248302
624.142370	0.248363
624.350303	0.248649
624.558218	0.248713
624.766115	0.249064
624.973994	0.249480
625.181855	0.249524
625.389697	0.249499
625.597521	0.249729
625.805327	0.249627
626.013114	0.249588
626.220883	0.249601
626.428634	0.249791
626.636367	0.249649
626.844082	0.249745
627.051778	0.250061
627.259457	0.250237
627.467117	0.250204
627.674758	0.250468
627.882382	0.250801
628.089987	0.251122
628.297574	0.251255
628.505143	0.251536
628.712694	0.251712
628.920226	0.251800
629.127740	0.251893
629.335236	0.252225
629.542714	0.252398
629.750174	0.252520
629.957615	0.252402
630.165038	0.252522
630.372443	0.252725
630.579829	0.252478
630.787198	0.252741
630.994548	0.252822
631.201880	0.252705
631.409194	0.252568
631.616489	0.252980
631.823766	0.253151
632.031025	0.253340
632.238266	0.253434
632.445489	0.253645
632.652693	0.253733
632.859879	0.254001
633.067047	0.254408
633.274197	0.254638
633.481329	0.254363
633.688442	0.254251
633.895537	0.254537
634.102614	0.254800
634.309672	0.255023
634.516713	0.255230
634.723735	0.255235
634.930739	0.255242
635.137724	0.255393
635.344692	0.255509
635.551641	0.255916
635.758572	0.255961
635.965485	0.256094
636.172379	0.256263
636.379256	0.256280
636.586114	0.256815
636.792954	0.257092
636.999775	0.257541
637.206579	0.257982
637.413364	0.258058
637.620131	0.258048
637.826880	0.258368
638.033610	0.258326
638.240323	0.258579
638.447017	0.258531
638.653692	0.258736
638.860350	0.258540
639.066990	0.258611
639.273611	0.258813
639.480214	0.259448
639.686798	0.259338
639.893365	0.259654
640.099913	0.259930
640.306443	0.260053
640.512955	0.260061
640.719449	0.260525
640.925924	0.260761
641.132381	0.261083
641.338820	0.260727
641.545241	0.261231
641.751644	0.261532
641.958028	0.261696
642.164394	0.261701
642.370742	0.262008
642.577071	0.262060
642.783383	0.262004
642.989676	0.262051
643.195951	0.262295
643.402207	0.262043
643.608446	0.262098
643.814666	0.262151
644.020868	0.262350
644.227052	0.262630
644.433218	0.262938
644.639365	0.263286
644.845494	0.263612
645.051605	0.263874
645.257698	0.264191
645.463772	0.264000
645.669828	0.264058
645.875866	0.264447
646.081886	0.264281
646.287888	0.264120
646.493871	0.264232
646.699836	0.264004
646.905783	0.264124
647.111712	0.264283
647.317622	0.264999
647.523514	0.265355
647.729388	0.265145
647.935244	0.265388
648.141082	0.265859
648.346901	0.265944
648.552702	0.266332
648.758485	0.266643
648.964250	0.267015
649.169996	0.267334
649.375724	0.267385
649.581434	0.267731
649.787126	0.268171
649.992800	0.268423
650.198455	0.268766
650.404092	0.269126
650.609711	0.269253
650.815311	0.269443
651.020894	0.269518
651.226458	0.269671
651.432004	0.270110
651.637532	0.270080
651.843041	0.269910
652.048532	0.270010
652.254006	0.270191
652.459460	0.270371
652.664897	0.270243
652.870315	0.270068
653.075716	0.270388
653.281097	0.270535
653.486461	0.270823
653.691807	0.271058
653.897134	0.271475
654.102443	0.271518
654.307734	0.271688
654.513006	0.271955
654.718261	0.272260
654.923497	0.272590
655.128715	0.272397
655.333915	0.272447
655.539096	0.272626
655.744259	0.272649
655.949404	0.272955
656.154531	0.272961
656.359640	0.273153
656.564730	0.273593
656.769802	0.273724
656.974856	0.274391
657.179892	0.274286
657.384909	0.274490
657.589908	0.274566
657.794889	0.274678
657.999852	0.275057
658.204797	0.275285
658.409723	0.275425
658.614631	0.275597
658.819521	0.275560
659.024393	0.276042
659.229246	0.276419
659.434081	0.276903
659.638898	0.277257
659.843697	0.277497
660.048478	0.277837
660.253240	0.277773
660.457984	0.277869
660.662710	0.278239
660.867417	0.278599
661.072107	0.278985
661.276778	0.279018
661.481431	0.279003
661.686066	0.279326
661.890682	0.279405
662.095281	0.279678
662.299861	0.279995
662.504422	0.280358
662.708966	0.280504
662.913491	0.280710
663.117999	0.280878
663.322488	0.281341
663.526958	0.281451
663.731411	0.281995
663.935845	0.282458
664.140261	0.282625
664.344659	0.282652
664.549038	0.282587
664.753400	0.282514
664.957743	0.282823
665.162068	0.282966
665.366375	0.283065
665.570663	0.283102
665.774933	0.283249
665.979185	0.283448
666.183419	0.283622
666.387635	0.283869
666.591832	0.284142
666.796011	0.284131
667.000172	0.284206
667.204315	0.284547
667.408439	0.284643
667.612545	0.284670
667.816634	0.284983
668.020703	0.284893
668.224755	0.285374
668.428788	0.285776
668.632803	0.286171
668.836800	0.286462
669.040779	0.286807
669.244739	0.286922
669.448681	0.287220
669.652605	0.287307
669.856511	0.287850
670.060399	0.287935
670.264268	0.288019
670.468119	0.288057
670.671952	0.287948
670.875767	0.287810
671.079563	0.288377
671.283341	0.288597
671.487101	0.288841
671.690843	0.289007
671.894567	0.289211
672.098272	0.289414
672.301959	0.289796
672.505628	0.290113
672.709278	0.290449
672.912911	0.290722
673.116525	0.290954
673.320121	0.291096
673.523699	0.291388
673.727258	0.291562
673.930799	0.291659
674.134322	0.291981
674.337827	0.292342
674.541314	0.292453
674.744782	0.292360
674.948232	0.292295
675.151664	0.292353
675.355078	0.292620
675.558474	0.293142
675.761851	0.293444
675.965210	0.293617
676.168551	0.293742
676.371873	0.294109
676.575178	0.294298
676.778464	0.294841
676.981732	0.295196
677.184981	0.295284
677.388213	0.295267
677.591426	0.295331
677.794621	0.295290
677.997798	0.295472
678.200956	0.295481
678.404097	0.295684
678.607219	0.295815
678.810323	0.296031
679.013408	0.296319
679.216476	0.296547
679.419525	0.296687
679.622556	0.297152
679.825569	0.297361
680.028563	0.297719
680.231540	0.298126
680.434498	0.298261
680.637438	0.298502
680.840359	0.298633
681.043263	0.298953
681.246148	0.299480
681.449015	0.299522
681.651864	0.299832
681.854694	0.300043
682.057506	0.300016
682.260301	0.300053
682.463076	0.300401
682.665834	0.300419
682.868573	0.300476
683.071295	0.300610
683.273998	0.300999
683.476682	0.301213
683.679349	0.301180
683.881997	0.301298
684.084627	0.301596
684.287239	0.301552
684.489833	0.301770
684.692408	0.301960
684.894965	0.302116
685.097504	0.302240
685.300025	0.302581
685.502527	0.302800
685.705012	0.303109
685.907478	0.303357
686.109925	0.303668
686.312355	0.304085
686.514766	0.304158
686.717159	0.304346
686.919534	0.304581
687.121891	0.304758
687.324230	0.305225
687.526550	0.305272
687.728852	0.305770
687.931136	0.305923
688.133401	0.306195
688.335649	0.306536
688.537878	0.306666
688.740089	0.306890
688.942281	0.307007
689.144456	0.306943
689.346612	0.307409
689.548750	0.307451
689.750870	0.307617
689.952971	0.307659
690.155055	0.307877
690.357120	0.308272
690.559167	0.308346
690.761195	0.308323
690.963206	0.308615
691.165198	0.308599
691.367172	0.308385
691.569128	0.308436
691.771065	0.308678
691.972984	0.308644
692.174885	0.308614
692.376768	0.308630
692.578633	0.308787
692.780479	0.308741
692.982308	0.308999
693.184118	0.309321
693.385909	0.309440
693.587683	0.309513
