sample name	sample
index	1446
start time	 05-10-2021  01:16:30 PM


Wavelength (nm)	Absorbance
494.344910	0.000495
494.563924	0.000495
494.782919	0.000495
495.001897	0.016263
495.220856	0.002476
495.439797	0.001806
495.658719	0.004961
495.877624	0.006424
496.096510	0.003221
496.315378	0.000423
496.534227	-0.002331
496.753059	0.002458
496.971872	-0.005628
497.190667	0.034177
497.409444	0.054202
497.628203	0.061453
497.846943	0.066405
498.065665	0.069506
498.284369	0.073197
498.503055	0.074367
498.721723	0.077415
498.940372	0.077952
499.159003	0.079050
499.377616	0.080632
499.596210	0.081536
499.814787	0.082334
500.033345	0.082512
500.251885	0.081964
500.470406	0.081364
500.688910	0.079483
500.907395	0.079747
501.125862	0.079664
501.344311	0.078868
501.562742	0.078812
501.781154	0.078182
501.999548	0.078579
502.217924	0.079255
502.436282	0.080551
502.654621	0.080861
502.872942	0.081425
503.091245	0.080595
503.309530	0.081394
503.527797	0.081089
503.746045	0.081094
503.964275	0.081186
504.182487	0.081242
504.400681	0.080388
504.618856	0.080848
504.837013	0.080559
505.055152	0.081145
505.273273	0.080649
505.491376	0.081218
505.709460	0.081192
505.927526	0.080657
506.145574	0.080280
506.363604	0.081385
506.581615	0.081223
506.799608	0.081123
507.017583	0.081270
507.235540	0.081993
507.453478	0.082018
507.671399	0.082317
507.889301	0.083008
508.107185	0.082890
508.325050	0.081937
508.542898	0.081569
508.760727	0.081317
508.978538	0.082184
509.196330	0.081489
509.414105	0.081087
509.631861	0.081751
509.849599	0.081587
510.067319	0.081980
510.285021	0.081961
510.502704	0.082503
510.720369	0.082373
510.938016	0.082460
511.155645	0.083199
511.373255	0.084142
511.590848	0.083045
511.808422	0.082580
512.025977	0.081996
512.243515	0.082588
512.461034	0.082245
512.678536	0.082689
512.896018	0.081884
513.113483	0.080695
513.330930	0.079520
513.548358	0.079503
513.765768	0.080036
513.983160	0.080301
514.200533	0.080357
514.417889	0.081269
514.635226	0.081660
514.852545	0.081715
515.069845	0.082146
515.287128	0.082955
515.504392	0.083723
515.721638	0.084150
515.938866	0.084283
516.156075	0.083884
516.373267	0.083397
516.590440	0.083135
516.807594	0.083841
517.024731	0.083630
517.241850	0.083370
517.458950	0.083641
517.676032	0.083775
517.893095	0.083793
518.110141	0.084296
518.327168	0.084740
518.544177	0.085159
518.761168	0.085429
518.978141	0.085983
519.195095	0.086279
519.412031	0.085997
519.628949	0.085078
519.845849	0.085176
520.062731	0.085600
520.279594	0.085819
520.496439	0.086088
520.713266	0.085743
520.930074	0.086226
521.146865	0.085869
521.363637	0.086062
521.580391	0.087049
521.797127	0.087329
522.013844	0.087007
522.230543	0.086437
522.447224	0.085810
522.663887	0.085404
522.880532	0.085094
523.097158	0.084777
523.313766	0.084563
523.530356	0.083889
523.746928	0.084738
523.963481	0.085658
524.180017	0.086055
524.396534	0.086593
524.613032	0.087036
524.829513	0.086750
525.045975	0.087529
525.262420	0.088252
525.478845	0.089447
525.695253	0.088376
525.911643	0.087677
526.128014	0.087773
526.344367	0.088225
526.560702	0.088356
526.777018	0.089245
526.993316	0.089587
527.209597	0.089522
527.425858	0.089095
527.642102	0.089325
527.858328	0.089858
528.074535	0.089924
528.290724	0.089844
528.506894	0.090099
528.723047	0.089926
528.939181	0.089564
529.155297	0.089463
529.371395	0.089948
529.587475	0.090092
529.803536	0.089955
530.019579	0.089966
530.235604	0.089935
530.451611	0.090338
530.667600	0.090527
530.883570	0.090763
531.099522	0.090801
531.315456	0.090258
531.531372	0.090578
531.747269	0.091019
531.963148	0.091270
532.179009	0.091617
532.394852	0.091546
532.610676	0.091465
532.826482	0.091586
533.042271	0.092380
533.258040	0.092293
533.473792	0.092206
533.689525	0.091989
533.905240	0.092492
534.120937	0.092374
534.336616	0.091874
534.552277	0.092075
534.767919	0.092800
534.983543	0.092877
535.199149	0.093937
535.414736	0.094096
535.630306	0.093994
535.845857	0.093504
536.061390	0.093829
536.276904	0.094872
536.492401	0.094720
536.707879	0.093782
536.923339	0.093505
537.138781	0.093283
537.354204	0.093389
537.569610	0.094002
537.784997	0.093956
538.000366	0.093713
538.215716	0.093739
538.431049	0.093710
538.646363	0.094494
538.861659	0.094141
539.076937	0.093669
539.292196	0.093462
539.507438	0.093255
539.722661	0.093692
539.937866	0.093287
540.153052	0.092945
540.368221	0.093219
540.583371	0.093272
540.798503	0.093802
541.013617	0.094146
541.228712	0.094919
541.443789	0.094891
541.658848	0.095043
541.873889	0.095846
542.088912	0.096037
542.303916	0.096273
542.518902	0.096202
542.733870	0.096316
542.948820	0.096911
543.163752	0.097201
543.378665	0.096944
543.593560	0.096845
543.808437	0.096981
544.023295	0.097367
544.238136	0.097663
544.452958	0.097669
544.667762	0.097718
544.882548	0.097633
545.097315	0.097112
545.312064	0.097794
545.526795	0.097867
545.741508	0.098306
545.956203	0.098103
546.170879	0.098111
546.385537	0.098538
546.600177	0.098530
546.814799	0.098329
547.029402	0.098794
547.243988	0.099107
547.458555	0.099319
547.673103	0.099484
547.887634	0.099586
548.102146	0.099290
548.316640	0.099226
548.531116	0.099252
548.745574	0.099596
548.960013	0.099646
549.174435	0.099781
549.388838	0.100152
549.603222	0.099768
549.817589	0.100017
550.031937	0.100675
550.246267	0.100694
550.460579	0.101348
550.674873	0.101381
550.889148	0.101435
551.103405	0.101372
551.317644	0.101345
551.531865	0.101453
551.746068	0.101402
551.960252	0.101294
552.174418	0.101403
552.388566	0.101344
552.602696	0.101204
552.816807	0.101394
553.030900	0.101494
553.244975	0.101316
553.459032	0.101316
553.673070	0.101633
553.887091	0.101981
554.101093	0.102352
554.315077	0.102525
554.529042	0.102572
554.742990	0.102054
554.956919	0.101860
555.170830	0.102116
555.384722	0.102155
555.598597	0.101840
555.812453	0.101655
556.026291	0.101545
556.240111	0.101073
556.453913	0.101328
556.667696	0.101756
556.881461	0.102100
557.095208	0.101994
557.308937	0.101700
557.522647	0.101854
557.736339	0.101811
557.950013	0.102098
558.163669	0.101778
558.377307	0.101724
558.590926	0.101625
558.804527	0.101096
559.018110	0.100916
559.231675	0.101358
559.445221	0.101352
559.658749	0.101393
559.872259	0.101292
560.085751	0.101932
560.299225	0.101845
560.512680	0.102290
560.726117	0.102345
560.939536	0.103032
561.152937	0.103199
561.366319	0.103070
561.579683	0.102967
561.793029	0.102645
562.006357	0.102946
562.219667	0.103532
562.432958	0.103485
562.646231	0.103844
562.859486	0.103374
563.072723	0.103127
563.285941	0.103321
563.499141	0.103504
563.712323	0.103831
563.925487	0.103637
564.138632	0.103144
564.351760	0.103217
564.564869	0.103071
564.777960	0.103464
564.991032	0.103692
565.204087	0.104039
565.417123	0.104032
565.630141	0.104148
565.843140	0.104175
566.056122	0.104697
566.269085	0.104761
566.482030	0.105196
566.694957	0.105053
566.907866	0.105361
567.120756	0.105496
567.333628	0.105510
567.546482	0.105546
567.759318	0.105659
567.972135	0.105529
568.184935	0.105675
568.397716	0.105781
568.610478	0.106285
568.823223	0.106177
569.035949	0.106464
569.248657	0.106922
569.461347	0.106728
569.674019	0.106986
569.886672	0.107052
570.099308	0.106810
570.311925	0.106397
570.524523	0.106256
570.737104	0.106693
570.949666	0.106421
571.162210	0.106277
571.374736	0.106632
571.587244	0.106201
571.799733	0.106509
572.012205	0.106690
572.224658	0.106890
572.437092	0.107089
572.649509	0.107070
572.861907	0.107081
573.074287	0.107172
573.286649	0.107409
573.498993	0.107819
573.711318	0.107654
573.923625	0.108190
574.135914	0.108531
574.348185	0.108212
574.560438	0.108235
574.772672	0.108301
574.984888	0.108644
575.197086	0.108628
575.409266	0.109255
575.621427	0.109262
575.833570	0.108925
576.045695	0.109257
576.257802	0.109728
576.469890	0.109688
576.681961	0.109742
576.894013	0.109403
577.106046	0.109305
577.318062	0.108961
577.530059	0.109198
577.742039	0.109394
577.954000	0.109144
578.165942	0.109152
578.377867	0.109470
578.589773	0.110266
578.801661	0.110580
579.013531	0.111150
579.225382	0.111292
579.437216	0.111784
579.649031	0.111806
579.860828	0.112163
580.072606	0.112332
580.284367	0.112221
580.496109	0.111590
580.707833	0.111571
580.919539	0.111525
581.131227	0.111475
581.342896	0.111421
581.554547	0.111503
581.766180	0.111703
581.977795	0.111739
582.189391	0.111959
582.400969	0.112138
582.612529	0.112551
582.824071	0.112473
583.035595	0.112438
583.247100	0.112271
583.458587	0.112922
583.670056	0.112725
583.881506	0.112803
584.092939	0.112733
584.304353	0.112816
584.515749	0.113001
584.727127	0.113548
584.938486	0.113904
585.149828	0.114356
585.361151	0.114207
585.572456	0.114566
585.783742	0.114875
585.995011	0.115203
586.206261	0.115539
586.417493	0.115793
586.628706	0.115451
586.839902	0.115704
587.051079	0.115878
587.262238	0.115997
587.473379	0.115972
587.684502	0.116261
587.895606	0.116264
588.106692	0.116281
588.317760	0.116426
588.528810	0.116882
588.739841	0.116843
588.950855	0.116801
589.161850	0.116511
589.372827	0.116890
589.583785	0.116820
589.794726	0.116868
590.005648	0.117097
590.216552	0.116869
590.427437	0.116897
590.638305	0.117090
590.849154	0.117111
591.059985	0.117249
591.270798	0.117388
591.481592	0.117408
591.692369	0.117798
591.903127	0.117820
592.113867	0.117847
592.324588	0.117837
592.535292	0.117829
592.745977	0.117769
592.956644	0.118162
593.167293	0.118189
593.377923	0.118232
593.588536	0.118029
593.799130	0.118032
594.009706	0.118039
594.220263	0.117881
594.430803	0.118084
594.641324	0.118142
594.851827	0.117930
595.062312	0.117766
595.272778	0.117520
595.483227	0.117564
595.693657	0.117835
595.904069	0.117917
596.114462	0.118022
596.324838	0.117988
596.535195	0.118019
596.745534	0.118310
596.955855	0.118346
597.166157	0.118730
597.376441	0.119113
597.586707	0.119056
597.796955	0.119656
598.007185	0.119712
598.217396	0.119614
598.427589	0.119765
598.637764	0.119856
598.847921	0.120125
599.058060	0.120101
599.268180	0.120306
599.478282	0.120336
599.688366	0.119743
599.898431	0.120322
600.108479	0.120449
600.318508	0.120553
600.528519	0.120556
600.738511	0.120648
600.948486	0.120766
601.158442	0.120591
601.368380	0.120463
601.578300	0.120858
601.788202	0.120827
601.998085	0.120893
602.207950	0.121088
602.417797	0.121198
602.627626	0.121064
602.837436	0.121119
603.047228	0.121205
603.257002	0.121450
603.466758	0.121215
603.676496	0.121394
603.886215	0.121268
604.095916	0.121487
604.305599	0.121576
604.515264	0.121724
604.724910	0.121974
604.934538	0.121657
605.144148	0.121577
605.353740	0.121846
605.563314	0.121616
605.772869	0.121826
605.982406	0.121550
606.191925	0.121558
606.401425	0.121896
606.610908	0.121787
606.820372	0.122142
607.029818	0.122631
607.239246	0.123077
607.448655	0.123342
607.658047	0.123586
607.867420	0.124014
608.076775	0.124297
608.286111	0.124384
608.495430	0.124578
608.704730	0.124699
608.914012	0.124495
609.123275	0.124405
609.332521	0.124383
609.541748	0.124323
609.750957	0.124260
609.960148	0.124189
610.169321	0.124345
610.378475	0.124326
610.587611	0.124309
610.796729	0.124694
611.005829	0.124498
611.214910	0.124456
611.423974	0.124810
611.633019	0.125151
611.842045	0.125320
612.051054	0.125094
612.260044	0.125073
612.469017	0.125516
612.677970	0.125531
612.886906	0.125686
613.095824	0.125830
613.304723	0.125772
613.513604	0.125702
613.722467	0.125779
613.931311	0.125904
614.140138	0.125968
614.348946	0.125841
614.557736	0.125796
614.766507	0.125784
614.975261	0.125755
615.183996	0.125787
615.392713	0.125850
615.601412	0.126115
615.810092	0.126101
616.018754	0.126474
616.227399	0.126447
616.436024	0.126583
616.644632	0.127006
616.853222	0.127249
617.061793	0.127680
617.270346	0.127802
617.478880	0.127766
617.687397	0.127882
617.895895	0.128020
618.104375	0.128224
618.312837	0.128495
618.521281	0.128581
618.729706	0.128598
618.938113	0.128428
619.146502	0.128481
619.354873	0.128403
619.563226	0.128610
619.771560	0.128512
619.979876	0.128702
620.188174	0.128314
620.396453	0.128437
620.604715	0.128308
620.812958	0.128354
621.021183	0.128182
621.229390	0.128323
621.437578	0.128115
621.645748	0.128201
621.853900	0.127936
622.062034	0.128394
622.270150	0.128175
622.478247	0.128572
622.686326	0.128524
622.894387	0.128824
623.102430	0.128956
623.310454	0.129181
623.518461	0.129243
623.726449	0.129601
623.934418	0.129521
624.142370	0.129735
624.350303	0.129653
624.558218	0.129791
624.766115	0.129788
624.973994	0.129896
625.181855	0.129925
625.389697	0.130175
625.597521	0.129992
625.805327	0.130074
626.013114	0.129957
626.220883	0.129897
626.428634	0.130110
626.636367	0.130053
626.844082	0.130014
627.051778	0.130171
627.259457	0.129909
627.467117	0.130214
627.674758	0.130225
627.882382	0.130464
628.089987	0.130694
628.297574	0.130600
628.505143	0.130619
628.712694	0.130795
628.920226	0.130427
629.127740	0.130522
629.335236	0.130645
629.542714	0.130624
629.750174	0.130576
629.957615	0.130522
630.165038	0.130675
630.372443	0.130704
630.579829	0.130618
630.787198	0.131109
630.994548	0.130910
631.201880	0.130465
631.409194	0.130386
631.616489	0.130303
631.823766	0.130264
632.031025	0.130112
632.238266	0.130467
632.445489	0.130503
632.652693	0.130557
632.859879	0.130795
633.067047	0.131083
633.274197	0.131383
633.481329	0.131435
633.688442	0.131847
633.895537	0.132146
634.102614	0.132071
634.309672	0.132138
634.516713	0.132355
634.723735	0.132701
634.930739	0.132831
635.137724	0.133102
635.344692	0.133401
635.551641	0.133142
635.758572	0.133036
635.965485	0.133192
636.172379	0.133184
636.379256	0.133187
636.586114	0.132986
636.792954	0.133183
636.999775	0.133329
637.206579	0.133695
637.413364	0.134100
637.620131	0.134703
637.826880	0.134770
638.033610	0.135124
638.240323	0.135225
638.447017	0.135752
638.653692	0.136060
638.860350	0.136126
639.066990	0.136140
639.273611	0.136346
639.480214	0.136411
639.686798	0.136748
639.893365	0.136923
640.099913	0.137139
640.306443	0.137168
640.512955	0.137061
640.719449	0.136930
640.925924	0.136822
641.132381	0.136782
641.338820	0.136410
641.545241	0.136321
641.751644	0.136339
641.958028	0.136332
642.164394	0.136337
642.370742	0.136443
642.577071	0.136671
642.783383	0.137062
642.989676	0.137459
643.195951	0.137747
643.402207	0.137858
643.608446	0.138058
643.814666	0.138014
644.020868	0.138214
644.227052	0.138116
644.433218	0.137994
644.639365	0.137898
644.845494	0.137698
645.051605	0.137775
645.257698	0.137845
645.463772	0.137750
645.669828	0.138007
645.875866	0.137927
646.081886	0.137975
646.287888	0.138222
646.493871	0.138203
646.699836	0.138206
646.905783	0.138264
647.111712	0.138369
647.317622	0.138416
647.523514	0.138369
647.729388	0.138463
647.935244	0.138640
648.141082	0.138466
648.346901	0.138681
648.552702	0.138748
648.758485	0.138688
648.964250	0.138545
649.169996	0.138638
649.375724	0.138642
649.581434	0.138626
649.787126	0.138742
649.992800	0.138923
650.198455	0.138833
650.404092	0.139014
650.609711	0.139149
650.815311	0.139188
651.020894	0.139121
651.226458	0.139291
651.432004	0.139343
651.637532	0.139445
651.843041	0.139530
652.048532	0.139712
652.254006	0.139746
652.459460	0.139761
652.664897	0.139748
652.870315	0.139889
653.075716	0.140001
653.281097	0.140126
653.486461	0.140134
653.691807	0.140419
653.897134	0.140586
654.102443	0.140542
654.307734	0.140807
654.513006	0.141192
654.718261	0.141453
654.923497	0.141472
655.128715	0.141652
655.333915	0.142095
655.539096	0.141991
655.744259	0.142129
655.949404	0.142341
656.154531	0.142476
656.359640	0.142757
656.564730	0.142848
656.769802	0.142968
656.974856	0.143231
657.179892	0.143092
657.384909	0.143272
657.589908	0.143216
657.794889	0.143430
657.999852	0.143507
658.204797	0.143536
658.409723	0.143625
658.614631	0.143878
658.819521	0.143739
659.024393	0.143546
659.229246	0.143704
659.434081	0.143783
659.638898	0.143707
659.843697	0.143697
660.048478	0.143716
660.253240	0.143709
660.457984	0.143622
660.662710	0.143741
660.867417	0.144104
661.072107	0.144289
661.276778	0.144441
661.481431	0.144627
661.686066	0.144945
661.890682	0.144892
662.095281	0.145325
662.299861	0.145412
662.504422	0.145400
662.708966	0.145397
662.913491	0.145449
663.117999	0.145659
663.322488	0.145722
663.526958	0.145524
663.731411	0.145726
663.935845	0.145735
664.140261	0.145663
664.344659	0.145652
664.549038	0.145780
664.753400	0.145718
664.957743	0.145733
665.162068	0.145966
665.366375	0.146215
665.570663	0.146250
665.774933	0.146088
665.979185	0.146216
666.183419	0.146507
666.387635	0.146667
666.591832	0.146724
666.796011	0.146698
667.000172	0.146608
667.204315	0.146638
667.408439	0.146741
667.612545	0.146722
667.816634	0.146874
668.020703	0.146920
668.224755	0.147006
668.428788	0.147265
668.632803	0.147470
668.836800	0.147365
669.040779	0.147729
669.244739	0.147798
669.448681	0.147803
669.652605	0.148001
669.856511	0.148292
670.060399	0.148508
670.264268	0.148650
670.468119	0.148686
670.671952	0.149027
670.875767	0.148856
671.079563	0.149044
671.283341	0.149313
671.487101	0.149473
671.690843	0.149540
671.894567	0.149519
672.098272	0.149593
672.301959	0.149580
672.505628	0.149510
672.709278	0.149688
672.912911	0.149704
673.116525	0.149915
673.320121	0.149839
673.523699	0.149949
673.727258	0.149977
673.930799	0.150115
674.134322	0.150305
674.337827	0.150646
674.541314	0.150655
674.744782	0.150750
674.948232	0.150853
675.151664	0.151361
675.355078	0.151403
675.558474	0.151525
675.761851	0.151408
675.965210	0.151522
676.168551	0.151413
676.371873	0.151442
676.575178	0.151619
676.778464	0.151476
676.981732	0.151301
677.184981	0.151153
677.388213	0.151190
677.591426	0.151261
677.794621	0.151270
677.997798	0.151520
678.200956	0.151760
678.404097	0.151689
678.607219	0.151943
678.810323	0.151823
679.013408	0.152123
679.216476	0.152298
679.419525	0.152519
679.622556	0.152576
679.825569	0.152432
680.028563	0.152517
680.231540	0.152700
680.434498	0.152810
680.637438	0.153133
680.840359	0.153132
681.043263	0.153057
681.246148	0.153130
681.449015	0.153379
681.651864	0.153509
681.854694	0.153604
682.057506	0.153671
682.260301	0.153556
682.463076	0.153477
682.665834	0.153526
682.868573	0.153801
683.071295	0.153857
683.273998	0.154045
683.476682	0.154100
683.679349	0.154207
683.881997	0.154404
684.084627	0.154824
684.287239	0.155129
684.489833	0.155352
684.692408	0.155602
684.894965	0.155690
685.097504	0.155658
685.300025	0.155807
685.502527	0.155645
685.705012	0.155821
685.907478	0.155892
686.109925	0.155919
686.312355	0.156129
686.514766	0.155844
686.717159	0.155953
686.919534	0.155782
687.121891	0.155628
687.324230	0.155778
687.526550	0.155579
687.728852	0.155389
687.931136	0.155330
688.133401	0.155035
688.335649	0.155291
688.537878	0.155176
688.740089	0.155526
688.942281	0.155765
689.144456	0.156030
689.346612	0.156322
689.548750	0.156466
689.750870	0.156688
689.952971	0.156869
690.155055	0.156914
690.357120	0.157002
690.559167	0.156905
690.761195	0.157266
690.963206	0.157157
691.165198	0.156974
691.367172	0.157079
691.569128	0.156986
691.771065	0.157383
691.972984	0.157660
692.174885	0.157841
692.376768	0.157961
692.578633	0.157850
692.780479	0.158097
692.982308	0.158126
693.184118	0.158266
693.385909	0.158437
