sample name	sample
index	1370
start time	 05-03-2021  02:22:11 PM
880	0.231173
Peak Time (s)	92.537
Peak Height 	0.2312
calc peak height	90,93
Baseline Time (s)	10.537
Baseline Value 	-0.005748
subtract baseline	10,4
Abs	0.141811
Peak Time (s)	91.035
Peak Height 	0.1418
calc peak height	90,93
Baseline Time (s)	9.036
Baseline Value 	0.003839
subtract baseline	10,3
PK_550	0.082281
Peak Time (s)	91.536
Peak Height 	0.08228
calc peak height	90,93
Baseline Time (s)	10.036
Baseline Value 	6.0423E-4
subtract baseline	10,2
PK_880	0.136572
Peak Time (s)	92.537
Peak Height 	0.1366
calc peak height	90,93
Baseline Time (s)	9.036
Baseline Value 	0.002616
subtract baseline	10,1


Time (s)	A880-A510	A880-A775	A880-A975	A880	I510	I775	I975	I880	
0.035500	0.001381	-0.000688	-0.004204	0.002597	6159.724687	42429.602982	3923.327612	22108.229985
0.538500	-0.002414	-0.000063	-0.005933	0.004339	6119.510061	42328.376534	3915.704288	22031.679031
1.036000	-0.005183	-0.000381	-0.002900	0.006727	6082.516767	42084.214166	3917.117228	21927.259816
1.537500	-0.002672	-0.000755	-0.000809	0.001839	6135.736192	42492.347213	3932.532555	22141.643219
2.037000	-0.002152	-0.000754	0.000454	0.001263	6143.691348	42544.771070	3936.634493	22167.055271
2.537000	0.000434	0.000005	-0.004446	0.001958	6157.476109	42550.645740	3924.203810	22136.375103
3.035000	-0.001776	-0.000246	-0.005837	0.005506	6115.698595	42206.435546	3913.364885	21980.591926
3.535000	0.001183	0.000102	-0.005815	0.001020	6169.829506	42644.987317	3923.254213	22177.813396
4.034500	-0.001786	-0.000337	-0.001028	0.000408	6152.584672	42660.750101	3935.233723	22204.851278
4.536000	-0.001741	-0.000086	-0.005467	0.000240	6154.141977	42698.976535	3925.744701	22212.286519
5.039000	0.001023	-0.000268	0.002340	0.000095	6175.437563	42695.618595	3943.489515	22218.723470
5.536500	-0.000580	-0.000737	-0.000537	-0.000164	6165.583937	42676.477912	3937.612872	22230.211446
6.036500	-0.000221	0.000797	0.001935	0.000477	6163.513278	42758.045850	3941.718115	22201.786754
6.536500	0.001013	0.000470	-0.003193	0.000530	6172.174728	42723.388314	3930.141546	22199.477317
7.040000	-0.001834	-0.000043	-0.000909	-0.000378	6157.972664	42759.495085	3937.258544	22239.675594
7.537000	0.000682	-0.000015	-0.003691	0.000210	6172.086435	42708.214145	3929.745216	22213.615659
8.037500	0.000100	-0.000205	-0.001949	-0.000197	6170.804039	42728.042906	3934.528147	22231.637415
8.535000	-0.000286	-0.000659	-0.006154	-0.000003	6166.561286	42668.925379	3924.764601	22223.073881
9.035500	0.000000	0.001221	0.000000	0.000505	6164.927299	42794.301762	3937.314815	22200.552635
9.538000	0.001092	-0.000152	0.001048	0.000193	6175.226737	42697.251578	3940.364373	22214.378986
10.035500	0.000787	0.000000	-0.002072	-0.000111	6175.212804	42738.927176	3934.061499	22227.821387
10.536500	-0.000561	0.000471	-0.003681	0.000000	6164.520173	42771.949734	3930.235601	22222.924351
11.036500	-0.002589	0.001342	0.001029	0.001861	6136.176471	42681.455651	3936.585434	22140.681749
11.537000	0.000594	-0.000076	0.001959	-0.000553	6177.049465	42772.469556	3944.090723	22247.456669
12.037000	-0.000762	-0.000125	-0.000417	-0.000389	6165.892097	42752.890808	3938.382448	22240.147708
12.534500	-0.000802	-0.000259	-0.001149	-0.000565	6166.888122	42756.734678	3937.138856	22247.947914
13.035000	-0.001154	-0.000779	-0.003216	0.000383	6157.383962	42622.687969	3930.417499	22205.972023
13.535000	-0.000399	0.000223	-0.002699	0.000400	6162.781687	42712.707805	3931.528562	22205.228760
14.041000	-0.003574	-0.000590	-0.002469	0.001611	6130.848165	42528.085830	3929.348954	22151.705457
14.540000	-0.002465	0.000231	-0.003858	0.002269	6134.116138	42542.972833	3924.816138	22122.692659
15.036000	-0.003228	0.000256	-0.005320	0.006554	6097.733187	42157.144847	3912.205210	21934.801718
15.536500	-0.000580	-0.000459	0.000707	0.000298	6162.201681	42659.671914	3939.363306	22209.734145
16.037000	-0.000779	0.000021	-0.000414	0.000147	6161.847324	42717.296223	3937.190549	22216.412590
16.537000	0.001126	0.000271	0.001899	0.000750	6171.386960	42685.096932	3941.024486	22189.753207
17.040000	-0.000039	0.000739	0.000377	-0.000998	6175.664299	42887.943194	3941.532086	22267.173346
17.537500	0.000112	0.001035	-0.001936	0.001870	6155.771665	42652.495666	3929.956635	22140.267988
18.035000	-0.001619	0.000020	0.003872	0.001615	6145.009022	42583.219338	3943.515508	22151.503647
18.538500	0.001914	0.000699	-0.000578	0.002356	6165.387637	42577.615758	3931.894303	22118.834700
19.035000	-0.000166	0.000124	0.000920	0.002008	6152.730822	42556.903267	3936.011647	22134.180872
19.535500	0.000087	0.000817	0.003385	0.002117	6153.783519	42610.093188	3941.290543	22129.374441
20.036000	-0.000873	0.001046	0.001915	0.002626	6143.083377	42584.609741	3936.854485	22106.963261
20.536000	-0.000447	0.000598	-0.000646	0.002069	6150.238808	42594.545939	3932.382967	22131.491936
21.038000	-0.000474	-0.000513	-0.004295	0.001583	6153.587416	42537.649260	3925.366032	22152.922642
21.537000	-0.002596	0.000269	-0.001122	0.001874	6136.028394	42582.296755	3931.756662	22140.085433
22.037000	-0.001658	-0.000276	-0.005006	0.001477	6145.735919	42568.928586	3924.030777	22157.625927
22.534500	0.002448	0.000347	-0.002170	0.001837	6173.115910	42592.835777	3929.512898	22141.746542
23.038000	-0.000706	-0.000014	0.001484	0.001485	6152.610315	42591.981803	3938.444211	22157.263423
23.535500	-0.001028	0.000028	-0.001254	0.001491	6150.214894	42595.243026	3932.314370	22156.971130
24.035500	-0.001030	-0.000229	-0.003638	0.001430	6150.642969	42577.364700	3927.157349	22159.672522
24.535500	-0.002194	-0.000361	-0.002104	0.001216	6143.726972	42584.870229	3931.036437	22169.120457
25.036500	-0.000226	0.000212	-0.002147	0.001655	6154.865267	42597.071696	3929.965431	22149.737972
25.536500	-0.001392	0.000390	-0.002868	0.001915	6144.485342	42589.614269	3927.789817	22138.298250
26.037000	-0.000070	0.000705	-0.000758	0.001493	6157.193443	42656.766942	3933.415363	22156.886544
26.537000	-0.001197	0.000443	0.003850	0.001720	6147.322524	42612.231802	3943.229329	22146.891503
27.034500	0.000210	0.000488	0.000480	-0.001425	6180.636370	42904.141407	3942.723158	22286.143422
27.538000	0.001581	0.000474	0.001751	0.000388	6177.389889	42736.748206	3941.504286	22205.758330
28.035500	-0.000948	-0.000125	0.000925	0.000298	6159.505808	42690.112299	3939.852728	22209.722353
28.536000	-0.001131	0.000111	-0.003596	0.000527	6156.503108	42690.804589	3929.253314	22199.610784
29.036000	-0.003858	-0.000277	-0.003625	0.003291	6116.660429	42403.956441	3923.075620	22077.704646
29.536000	0.000323	0.000289	-0.003966	0.000421	6167.904603	42716.732858	3928.666755	22204.266869
30.036500	-0.000277	-0.000105	0.004774	0.000610	6162.136166	42663.536639	3947.821584	22195.944012
30.536500	-0.002051	0.000471	0.002202	0.002626	6134.535962	42532.313656	3937.498521	22106.973366
31.037000	0.000088	0.000481	-0.002208	0.002577	6150.438418	42537.590189	3927.785686	22109.104609
31.540000	-0.001473	0.000608	-0.000142	0.000761	6152.298993	42714.846364	3936.425260	22189.247885
32.037500	0.000862	-0.000489	-0.002246	0.000077	6174.387387	42677.097381	3933.256239	22219.513660
32.535000	-0.000286	0.000802	-0.001101	0.000458	6163.179030	42760.307292	3934.960540	22202.640832
33.035000	0.000678	0.000581	-0.002735	0.001640	6161.587238	42632.056096	3928.694642	22150.412321
33.535500	-0.001791	0.000099	-0.002598	0.000820	6149.553859	42662.949214	3930.820216	22186.650602
34.036000	0.001789	0.000394	-0.001990	0.001741	6168.981509	42605.801678	3930.123058	22145.955366
34.536000	0.001062	0.001211	-0.003096	0.002249	6159.939071	42633.983991	3926.545021	22123.561058
35.037000	-0.001889	0.000773	-0.004698	0.002170	6139.019680	42601.299302	3923.181106	22127.055014
35.537000	-0.001720	-0.000134	-0.003271	0.000793	6150.261931	42644.177509	3929.384501	22187.846999
36.037500	-0.001431	0.001141	0.001033	0.002477	6140.112052	42606.837897	3935.215545	22113.507841
36.537500	-0.001501	0.000065	-0.001562	0.001796	6144.552290	42570.811894	3930.952142	22143.524338
37.034500	0.000175	0.000757	-0.003380	0.001955	6155.608716	42619.366118	3926.565677	22136.507310
37.535000	-0.002244	-0.000653	-0.006855	0.000917	6145.542584	42585.520422	3921.189490	22182.344053
38.035000	-0.002284	0.000192	0.000645	0.002092	6136.712454	42555.465953	3935.208401	22130.468082
38.536000	-0.000972	0.001057	-0.005133	0.002160	6145.751187	42628.058271	3922.244952	22127.476834
39.036500	-0.002610	-0.000177	-0.004668	0.001659	6137.491279	42561.355692	3924.376017	22149.587090
39.536500	-0.001776	0.000390	-0.004423	0.001935	6141.541142	42587.772636	3924.305389	22137.402211
40.036500	-0.000010	0.000296	-0.001295	0.002030	6153.708418	42570.562521	3931.024199	22133.203614
40.539000	-0.003232	0.001058	-0.004815	0.002074	6129.969485	42636.046250	3923.133320	22131.264319
41.040000	-0.000448	0.000454	-0.003225	0.002247	6148.935907	42565.223274	3926.264850	22123.669589
41.535000	-0.004115	0.000491	0.002694	0.002468	6120.740628	42548.490317	3938.953619	22113.918295
42.035500	-0.002801	-0.000007	0.000697	0.001776	6135.252780	42566.091548	3936.029980	22144.397007
42.535500	0.000404	0.001207	0.000697	0.002929	6150.176652	42571.751671	3933.459465	22093.634081
43.036000	-0.001314	0.000051	0.004209	0.001557	6147.657019	42591.393847	3944.404702	22154.079599
43.542000	0.002654	0.001253	0.005380	-0.002329	6205.366585	43057.674632	3955.870984	22326.359748
44.036000	0.001397	0.000418	-0.003244	0.000908	6172.214996	42684.041669	3929.189985	22182.752996
44.537000	0.001210	0.000516	-0.002594	0.001145	6169.108588	42671.342060	3930.105999	22172.286652
45.037000	-0.000960	-0.000006	-0.003546	0.001129	6153.354505	42625.137919	3928.027987	22172.966745
45.539500	0.000322	0.000444	0.004558	0.001205	6162.156868	42659.237731	3945.986321	22169.603521
46.035000	0.000340	0.001291	-0.004341	0.001592	6159.465342	42701.304189	3925.246053	22152.537546
46.537500	-0.000718	-0.000101	-0.002018	0.000117	6162.515178	42708.934597	3933.676823	22217.764321
47.035000	-0.000877	0.000359	-0.003787	0.002688	6142.606685	42516.502385	3924.048508	22104.246258
47.535500	0.000239	0.000236	0.004084	0.001523	6159.234457	42611.378799	3944.201925	22155.596204
48.036000	-0.001008	-0.000149	0.000084	0.000368	6158.557413	42681.539936	3937.809264	22206.620802
48.536500	-0.000873	0.000251	-0.001454	0.000287	6160.142732	42725.554467	3934.554674	22210.230142
49.036500	0.000577	0.001109	0.000878	0.000511	6169.117037	42783.583955	3939.269921	22200.305465
49.536500	0.003325	0.000754	0.001964	-0.001609	6205.002791	42945.501274	3946.483093	22294.331101
50.039500	0.000870	-0.000385	-0.000359	0.001454	6164.352728	42561.007716	3934.394190	22158.637898
50.537500	0.020802	-0.011844	0.004495	0.044710	5998.119967	37880.255566	3852.398326	20340.986543
51.034500	0.018146	-0.012828	-0.011494	0.375800	4382.363386	19247.174825	3364.336056	11082.978708
51.534500	0.015770	-0.028246	-0.025401	-0.094095	7084.969248	49230.128375	4105.180227	26876.898888
52.035500	0.018918	-0.091716	-0.015660	-0.286458	9416.061447	65197.403440	4780.540429	40190.708368
52.535500	0.025783	-0.087825	-0.005045	-0.282003	9451.844432	65116.863280	4806.473111	39811.054772
53.035500	0.019603	-0.055114	-0.002922	-0.234410	8698.756013	63024.948161	4623.470444	35988.701398
53.536500	0.023399	-0.036091	-0.002429	-0.200120	8311.332928	60952.144280	4499.339111	33483.112879
54.036500	0.020460	-0.026450	-0.002803	-0.177952	8012.163565	59304.922187	4421.754275	31965.468381
54.539000	0.014671	-0.019503	0.000538	-0.153604	7675.160816	57094.423598	4352.993167	30385.512401
55.037000	0.022289	-0.020155	0.004282	-0.163376	7866.768325	58241.901062	4396.853456	31009.023480
55.537000	0.028767	-0.010790	0.015218	-0.110482	7371.952807	52975.245855	4265.037035	27795.595434
56.035000	0.033565	-0.002888	0.021557	-0.048189	6828.007648	47094.675112	4107.944139	24480.428362
56.535000	0.038930	0.005247	0.027538	-0.010441	6551.893455	44189.452337	4027.360837	22691.010835
57.035500	0.042960	0.012150	0.029651	0.010593	6414.948147	42871.416635	3982.093236	21759.387383
57.535500	0.049722	0.018764	0.033335	0.063612	6068.424489	38832.724780	3872.926883	19601.833985
58.036000	0.055854	0.020360	0.045666	0.079897	5997.187185	37641.707672	3864.704898	18990.320272
58.536500	0.058559	0.025788	0.052396	0.089865	5947.230892	37281.683681	3858.023958	18627.147257
59.039500	0.066220	0.030717	0.055249	0.089577	6001.948529	37695.767076	3864.502704	18637.529251
59.537000	0.075170	0.038375	0.065849	0.122553	5839.586229	35732.002736	3819.357201	17493.076783
60.037000	0.082189	0.039041	0.075351	0.130986	5830.311225	35152.118053	3821.460242	17214.084947
60.535000	0.087086	0.046560	0.077730	0.151491	5729.873872	34205.493021	3786.470845	16557.889407
61.035000	0.089434	0.047891	0.093671	0.172855	5612.291391	32799.633447	3776.283323	15906.407080
61.535500	0.090559	0.051320	0.092118	0.182952	5558.571656	32345.860887	3754.823433	15609.463906
62.036000	0.093438	0.052321	0.087331	0.182910	5575.941494	32416.369780	3746.246293	15610.697032
62.535500	0.092164	0.053542	0.087587	0.183338	5565.812613	32470.174756	3745.937943	15598.267717
63.041500	0.095204	0.055323	0.095659	0.181942	5592.301917	32686.344180	3763.137821	15638.860020
63.542500	0.097251	0.058971	0.095057	0.184002	5592.223457	32795.000424	3758.264276	15578.985431
64.036500	0.102501	0.060941	0.103547	0.183630	5626.190483	32956.038500	3774.605978	15589.777848
64.537000	0.103364	0.061719	0.098153	0.184963	5623.334724	32917.799157	3762.171164	15551.159437
65.037000	0.106179	0.062644	0.100671	0.186783	5629.389285	32856.294944	3763.453676	15498.615469
65.535000	0.107346	0.064873	0.102292	0.189797	5618.163981	32802.379755	3760.897139	15412.070223
66.035500	0.109682	0.064816	0.102753	0.191338	5622.991335	32692.985280	3758.922582	15368.056130
66.535500	0.109388	0.065400	0.102771	0.192864	5611.957192	32628.657450	3756.169876	15324.609086
67.035500	0.109579	0.068206	0.109000	0.197110	5587.545514	32530.693984	3759.790294	15204.570051
67.535500	0.112807	0.067350	0.110997	0.197612	5603.933457	32438.554705	3762.528953	15190.460465
68.039000	0.113423	0.069622	0.106795	0.200226	5591.912480	32415.365256	3750.117343	15117.212932
68.536500	0.116295	0.070059	0.106579	0.200499	5607.559000	32426.451804	3749.234466	15109.587252
69.036500	0.114802	0.071074	0.113970	0.200849	5596.456081	32471.534452	3762.044109	15099.822838
69.537000	0.114934	0.071995	0.115938	0.201160	5595.380904	32512.964266	3765.088864	15091.151376
70.035000	0.117183	0.072266	0.118642	0.202705	5599.612392	32426.523234	3767.225936	15048.162789
70.535000	0.118089	0.072762	0.115380	0.205431	5588.680228	32275.953500	3756.247941	14972.695820
71.035500	0.119423	0.073128	0.113005	0.208506	5578.268336	32093.990968	3746.386637	14888.118028
71.535500	0.122670	0.075243	0.125619	0.211323	5580.829966	32047.047699	3764.202148	14811.144346
72.035500	0.120894	0.075904	0.119575	0.212377	5563.971753	32020.793372	3751.254777	14782.494717
72.539000	0.123689	0.078330	0.128223	0.215351	5562.914215	31984.228760	3761.587308	14701.991525
73.036500	0.125595	0.077666	0.124599	0.216617	5566.710908	31855.782116	3752.674259	14667.881356
73.536000	0.128443	0.078274	0.124283	0.217182	5580.316613	31858.633327	3751.078973	14652.685256
74.036500	0.124427	0.077521	0.123218	0.216982	5557.615899	31821.915161	3749.515619	14658.056963
74.534500	0.126953	0.078723	0.128861	0.218013	5566.486545	31833.296603	3757.887707	14630.397225
75.035000	0.128002	0.078826	0.123700	0.219281	5565.183742	31756.103544	3746.242833	14596.433699
75.535500	0.127981	0.080275	0.127858	0.219748	5562.283417	31821.100941	3752.905440	14583.944674
76.035500	0.128968	0.080630	0.129497	0.220078	5566.190637	31822.776532	3755.283384	14575.148649
76.535500	0.131131	0.080102	0.129713	0.220474	5576.714736	31761.603870	3754.955961	14564.598620
77.039000	0.131858	0.080073	0.134238	0.221605	5574.306124	31684.921788	3761.149889	14534.479458
77.536000	0.132757	0.080681	0.133593	0.221760	5578.742953	31714.850995	3759.685255	14530.357482
78.036500	0.131729	0.081657	0.133234	0.222983	5565.333796	31698.547808	3756.797387	14497.891520
78.536500	0.134062	0.081819	0.136109	0.224440	5570.545004	31613.137996	3759.386080	14459.324334
79.037000	0.132203	0.082957	0.137050	0.225129	5555.419348	31642.675867	3759.846187	14441.135177
79.535000	0.135011	0.083228	0.133472	0.226130	5566.135497	31594.677262	3751.516013	14414.774623
80.035000	0.129995	0.082626	0.136118	0.225911	5537.788534	31569.439397	3756.717894	14420.534252
80.535000	0.134338	0.082333	0.132099	0.226903	5557.557202	31485.115354	3747.640901	14394.449112
81.038000	0.133312	0.082411	0.135760	0.227797	5546.210749	31431.663609	3752.639470	14370.988598
81.538500	0.132584	0.083924	0.141656	0.228528	5537.618223	31482.868799	3762.057037	14351.830003
82.036000	0.132207	0.083315	0.139159	0.227443	5541.786074	31514.071348	3759.470754	14380.260951
82.536500	0.131434	0.083585	0.135771	0.228670	5530.040449	31451.364324	3751.077992	14348.112974
83.037000	0.133245	0.082833	0.134654	0.226436	5553.855620	31548.538527	3753.103192	14406.723451
83.537000	0.133944	0.083186	0.131124	0.226021	5560.448585	31599.002885	3747.473652	14417.629845
84.037000	0.135076	0.083080	0.131304	0.225235	5571.847164	31643.833047	3749.215083	14438.354437
84.534500	0.131827	0.082632	0.129749	0.226071	5547.629760	31559.296435	3744.911486	14416.312827
85.035000	0.135983	0.083171	0.136362	0.226432	5570.119004	31570.960594	3756.211499	14406.807283
85.535000	0.135084	0.083318	0.131233	0.225279	5571.631891	31656.614743	3749.006814	14437.188568
86.038500	0.134758	0.083340	0.142134	0.225718	5567.086363	31629.148359	3768.111894	14425.624284
86.536000	0.133382	0.082188	0.140568	0.224958	5563.421788	31603.269017	3766.622697	14445.645618
87.036500	0.134249	0.082707	0.142430	0.226629	5558.649524	31527.578275	3766.973944	14401.635162
87.536500	0.135789	0.083299	0.135884	0.227063	5565.210225	31537.911668	3754.195319	14390.225731
88.037000	0.132505	0.081712	0.135686	0.226776	5547.472542	31452.721970	3754.357232	14397.766586
88.537000	0.130774	0.081247	0.137156	0.228438	5527.536182	31313.832416	3754.010340	14354.195698
89.034500	0.135376	0.080724	0.134541	0.227436	5560.555258	31345.076732	3751.087080	14380.459453
89.535000	0.134683	0.082146	0.141502	0.228186	5552.006558	31388.881002	3762.402121	14360.786845
90.035500	0.135381	0.082170	0.141451	0.228930	5551.731106	31341.857569	3760.944166	14341.303322
90.538000	0.134035	0.081724	0.138831	0.228731	5544.970498	31325.795734	3756.522552	14346.528386
91.035500	0.134835	0.081434	0.141811	0.229746	5543.699613	31240.912208	3760.110504	14320.009696
91.536000	0.133804	0.082281	0.141809	0.230332	5534.189919	31257.843818	3759.033249	14304.708311
92.036500	0.133634	0.080486	0.141391	0.230166	5534.168575	31152.117302	3758.575174	14309.046418
92.536500	0.136572	0.081849	0.135437	0.231173	5545.529801	31175.184801	3745.964917	14282.826671
93.083500	0.136776	0.082047	0.137662	0.231657	5543.873087	31156.658038	3749.098322	14270.233805
93.537000	0.136798	0.082580	0.137851	0.232466	5539.243070	31138.750378	3747.979823	14249.224955
94.035000	0.138624	0.082524	0.141436	0.232791	5548.082094	31114.120428	3753.877122	14240.802075
94.534500	0.133483	0.080219	0.144533	0.231921	5523.004636	31021.392040	3761.109987	14263.366489
95.038000	0.138303	0.082056	0.140813	0.233598	5541.436509	31031.704852	3751.284832	14219.906148
95.535500	0.137776	0.081984	0.144524	0.234023	5535.841199	30999.712306	3757.252157	14208.915229
