sample name	sample
index	591
start time	 03-16-2021  04:31:22 PM


Wavelength (nm)	Absorbance
494.344910	0.096188
494.563924	0.096188
494.782919	0.096188
495.001897	-0.114755
495.220856	-0.058856
495.439797	-0.102932
495.658719	-0.135599
495.877624	-0.160558
496.096510	-0.150035
496.315378	-0.077464
496.534227	-0.043909
496.753059	-0.184786
496.971872	-0.176955
497.190667	0.088752
497.409444	0.129877
497.628203	0.136874
497.846943	0.139870
498.065665	0.143436
498.284369	0.145829
498.503055	0.148971
498.721723	0.150551
498.940372	0.150521
499.159003	0.152373
499.377616	0.151893
499.596210	0.152642
499.814787	0.152130
500.033345	0.151843
500.251885	0.152206
500.470406	0.151060
500.688910	0.151950
500.907395	0.151216
501.125862	0.150296
501.344311	0.150008
501.562742	0.149025
501.781154	0.149307
501.999548	0.149345
502.217924	0.149085
502.436282	0.149302
502.654621	0.147766
502.872942	0.149351
503.091245	0.148994
503.309530	0.148550
503.527797	0.149210
503.746045	0.151272
503.964275	0.152288
504.182487	0.152401
504.400681	0.152492
504.618856	0.153790
504.837013	0.151934
505.055152	0.152587
505.273273	0.153167
505.491376	0.153558
505.709460	0.152248
505.927526	0.151282
506.145574	0.150295
506.363604	0.150388
506.581615	0.150077
506.799608	0.151068
507.017583	0.151195
507.235540	0.151562
507.453478	0.152310
507.671399	0.152763
507.889301	0.152980
508.107185	0.154849
508.325050	0.155365
508.542898	0.155135
508.760727	0.155165
508.978538	0.155734
509.196330	0.156667
509.414105	0.156257
509.631861	0.155097
509.849599	0.155369
510.067319	0.154211
510.285021	0.153340
510.502704	0.154568
510.720369	0.155890
510.938016	0.155576
511.155645	0.154993
511.373255	0.154647
511.590848	0.155852
511.808422	0.156259
512.025977	0.155838
512.243515	0.157143
512.461034	0.157526
512.678536	0.156331
512.896018	0.156453
513.113483	0.156108
513.330930	0.156669
513.548358	0.156952
513.765768	0.155613
513.983160	0.157751
514.200533	0.156379
514.417889	0.156920
514.635226	0.157071
514.852545	0.156915
515.069845	0.157460
515.287128	0.157350
515.504392	0.157372
515.721638	0.159371
515.938866	0.157405
516.156075	0.158605
516.373267	0.158332
516.590440	0.159246
516.807594	0.159788
517.024731	0.160099
517.241850	0.159413
517.458950	0.159145
517.676032	0.158377
517.893095	0.159280
518.110141	0.159196
518.327168	0.158575
518.544177	0.157796
518.761168	0.157302
518.978141	0.156798
519.195095	0.158123
519.412031	0.159962
519.628949	0.159870
519.845849	0.159044
520.062731	0.158276
520.279594	0.158345
520.496439	0.158798
520.713266	0.158986
520.930074	0.159538
521.146865	0.158830
521.363637	0.158600
521.580391	0.158906
521.797127	0.160014
522.013844	0.161099
522.230543	0.161093
522.447224	0.161261
522.663887	0.162139
522.880532	0.162655
523.097158	0.163798
523.313766	0.163483
523.530356	0.163891
523.746928	0.163646
523.963481	0.164083
524.180017	0.165159
524.396534	0.165492
524.613032	0.165399
524.829513	0.164780
525.045975	0.163839
525.262420	0.164603
525.478845	0.165406
525.695253	0.166673
525.911643	0.167056
526.128014	0.167349
526.344367	0.168166
526.560702	0.167993
526.777018	0.169467
526.993316	0.170058
527.209597	0.169340
527.425858	0.169381
527.642102	0.169211
527.858328	0.169172
528.074535	0.168591
528.290724	0.168908
528.506894	0.170010
528.723047	0.169475
528.939181	0.169881
529.155297	0.170041
529.371395	0.170032
529.587475	0.170646
529.803536	0.170941
530.019579	0.171895
530.235604	0.171277
530.451611	0.171467
530.667600	0.172027
530.883570	0.172167
531.099522	0.173208
531.315456	0.174012
531.531372	0.173627
531.747269	0.173673
531.963148	0.174092
532.179009	0.174889
532.394852	0.174884
532.610676	0.174955
532.826482	0.175288
533.042271	0.175247
533.258040	0.174055
533.473792	0.173476
533.689525	0.174368
533.905240	0.174095
534.120937	0.173062
534.336616	0.173604
534.552277	0.174009
534.767919	0.174538
534.983543	0.175048
535.199149	0.176543
535.414736	0.177958
535.630306	0.177809
535.845857	0.178175
536.061390	0.180061
536.276904	0.179993
536.492401	0.180793
536.707879	0.180960
536.923339	0.180495
537.138781	0.180457
537.354204	0.180326
537.569610	0.179928
537.784997	0.180386
538.000366	0.180014
538.215716	0.180001
538.431049	0.179789
538.646363	0.180181
538.861659	0.180946
539.076937	0.181333
539.292196	0.181288
539.507438	0.182106
539.722661	0.181945
539.937866	0.182306
540.153052	0.182864
540.368221	0.183101
540.583371	0.183343
540.798503	0.183405
541.013617	0.183727
541.228712	0.184752
541.443789	0.185251
541.658848	0.185676
541.873889	0.185892
542.088912	0.186293
542.303916	0.186389
542.518902	0.186929
542.733870	0.187770
542.948820	0.187908
543.163752	0.187955
543.378665	0.187540
543.593560	0.187420
543.808437	0.187429
544.023295	0.187221
544.238136	0.187931
544.452958	0.187885
544.667762	0.187667
544.882548	0.187694
545.097315	0.187554
545.312064	0.188363
545.526795	0.188858
545.741508	0.188910
545.956203	0.189257
546.170879	0.189140
546.385537	0.189464
546.600177	0.189693
546.814799	0.189767
547.029402	0.189759
547.243988	0.189980
547.458555	0.190487
547.673103	0.190738
547.887634	0.190968
548.102146	0.191127
548.316640	0.191502
548.531116	0.191125
548.745574	0.191282
548.960013	0.191618
549.174435	0.191554
549.388838	0.191201
549.603222	0.191927
549.817589	0.192051
550.031937	0.192053
550.246267	0.191913
550.460579	0.192928
550.674873	0.193433
550.889148	0.193917
551.103405	0.194014
551.317644	0.194116
551.531865	0.194246
551.746068	0.195309
551.960252	0.195394
552.174418	0.195825
552.388566	0.196082
552.602696	0.196061
552.816807	0.196166
553.030900	0.196194
553.244975	0.196944
553.459032	0.196984
553.673070	0.196399
553.887091	0.196700
554.101093	0.196482
554.315077	0.196809
554.529042	0.197261
554.742990	0.197273
554.956919	0.197863
555.170830	0.197852
555.384722	0.197695
555.598597	0.198044
555.812453	0.198397
556.026291	0.198747
556.240111	0.198487
556.453913	0.198545
556.667696	0.199445
556.881461	0.199539
557.095208	0.199151
557.308937	0.199563
557.522647	0.199218
557.736339	0.199612
557.950013	0.199727
558.163669	0.199608
558.377307	0.199732
558.590926	0.199568
558.804527	0.199402
559.018110	0.200250
559.231675	0.200648
559.445221	0.200994
559.658749	0.200617
559.872259	0.200811
560.085751	0.201120
560.299225	0.200769
560.512680	0.200430
560.726117	0.200628
560.939536	0.200821
561.152937	0.201232
561.366319	0.201605
561.579683	0.201857
561.793029	0.202190
562.006357	0.202406
562.219667	0.202866
562.432958	0.203184
562.646231	0.203193
562.859486	0.203448
563.072723	0.203277
563.285941	0.203453
563.499141	0.203493
563.712323	0.202791
563.925487	0.202946
564.138632	0.203147
564.351760	0.203484
564.564869	0.204089
564.777960	0.203729
564.991032	0.203659
565.204087	0.203877
565.417123	0.204278
565.630141	0.205283
565.843140	0.205337
566.056122	0.205574
566.269085	0.205903
566.482030	0.205944
566.694957	0.206049
566.907866	0.206368
567.120756	0.206376
567.333628	0.206511
567.546482	0.206560
567.759318	0.206390
567.972135	0.206315
568.184935	0.206251
568.397716	0.206054
568.610478	0.206363
568.823223	0.206392
569.035949	0.206513
569.248657	0.206739
569.461347	0.206684
569.674019	0.207111
569.886672	0.207175
570.099308	0.207503
570.311925	0.208134
570.524523	0.208715
570.737104	0.209232
570.949666	0.209410
571.162210	0.209606
571.374736	0.209759
571.587244	0.209792
571.799733	0.209725
572.012205	0.209544
572.224658	0.209161
572.437092	0.209065
572.649509	0.208209
572.861907	0.208628
573.074287	0.208523
573.286649	0.208444
573.498993	0.208951
573.711318	0.209385
573.923625	0.209320
574.135914	0.209932
574.348185	0.209976
574.560438	0.210545
574.772672	0.209938
574.984888	0.209550
575.197086	0.210275
575.409266	0.210141
575.621427	0.210416
575.833570	0.211192
576.045695	0.210512
576.257802	0.210666
576.469890	0.210649
576.681961	0.211201
576.894013	0.211824
577.106046	0.211592
577.318062	0.211643
577.530059	0.211717
577.742039	0.211434
577.954000	0.212374
578.165942	0.211934
578.377867	0.212497
578.589773	0.213131
578.801661	0.213477
579.013531	0.213630
579.225382	0.213639
579.437216	0.213612
579.649031	0.213763
579.860828	0.213748
580.072606	0.213767
580.284367	0.213945
580.496109	0.213490
580.707833	0.213274
580.919539	0.213374
581.131227	0.213819
581.342896	0.214036
581.554547	0.214254
581.766180	0.213959
581.977795	0.214839
582.189391	0.214960
582.400969	0.215240
582.612529	0.215160
582.824071	0.215660
583.035595	0.215338
583.247100	0.215227
583.458587	0.214753
583.670056	0.215292
583.881506	0.215058
584.092939	0.215450
584.304353	0.215150
584.515749	0.215484
584.727127	0.215321
584.938486	0.215862
585.149828	0.216511
585.361151	0.217376
585.572456	0.217247
585.783742	0.217623
585.995011	0.218012
586.206261	0.218347
586.417493	0.218332
586.628706	0.218569
586.839902	0.218549
587.051079	0.218566
587.262238	0.218757
587.473379	0.219104
587.684502	0.219038
587.895606	0.218374
588.106692	0.218785
588.317760	0.219153
588.528810	0.218769
588.739841	0.218856
588.950855	0.218956
589.161850	0.218857
589.372827	0.218710
589.583785	0.219110
589.794726	0.219235
590.005648	0.219010
590.216552	0.219082
590.427437	0.219536
590.638305	0.220016
590.849154	0.220055
591.059985	0.220398
591.270798	0.220724
591.481592	0.220818
591.692369	0.221600
591.903127	0.221559
592.113867	0.221926
592.324588	0.222071
592.535292	0.222017
592.745977	0.222463
592.956644	0.221776
593.167293	0.221929
593.377923	0.222141
593.588536	0.221716
593.799130	0.222321
594.009706	0.222519
594.220263	0.222621
594.430803	0.222635
594.641324	0.222510
594.851827	0.222861
595.062312	0.223022
595.272778	0.222816
595.483227	0.223187
595.693657	0.223017
595.904069	0.222903
596.114462	0.223252
596.324838	0.223592
596.535195	0.223809
596.745534	0.224611
596.955855	0.225080
597.166157	0.225464
597.376441	0.225386
597.586707	0.225965
597.796955	0.226340
598.007185	0.226307
598.217396	0.226391
598.427589	0.226174
598.637764	0.225853
598.847921	0.225652
599.058060	0.225678
599.268180	0.225593
599.478282	0.225288
599.688366	0.225428
599.898431	0.225569
600.108479	0.225759
600.318508	0.226268
600.528519	0.226764
600.738511	0.226836
600.948486	0.227197
601.158442	0.227489
601.368380	0.227506
601.578300	0.227347
601.788202	0.227336
601.998085	0.227436
602.207950	0.227419
602.417797	0.227147
602.627626	0.227359
602.837436	0.226750
603.047228	0.227122
603.257002	0.227532
603.466758	0.227592
603.676496	0.227874
603.886215	0.227678
604.095916	0.227741
604.305599	0.228101
604.515264	0.228359
604.724910	0.228358
604.934538	0.228216
605.144148	0.228326
605.353740	0.228713
605.563314	0.229189
605.772869	0.229342
605.982406	0.229686
606.191925	0.229949
606.401425	0.229601
606.610908	0.230436
606.820372	0.230604
607.029818	0.230709
607.239246	0.230909
607.448655	0.230298
607.658047	0.230424
607.867420	0.230297
608.076775	0.230009
608.286111	0.230951
608.495430	0.231047
608.704730	0.230979
608.914012	0.230684
609.123275	0.230700
609.332521	0.231459
609.541748	0.231755
609.750957	0.231882
609.960148	0.232145
610.169321	0.231679
610.378475	0.231685
610.587611	0.232193
610.796729	0.232760
611.005829	0.232772
611.214910	0.232496
611.423974	0.232772
611.633019	0.233178
611.842045	0.233680
612.051054	0.233730
612.260044	0.233614
612.469017	0.233884
612.677970	0.233922
612.886906	0.234166
613.095824	0.234776
613.304723	0.234765
613.513604	0.234710
613.722467	0.234630
613.931311	0.234728
614.140138	0.235245
614.348946	0.235424
614.557736	0.235715
614.766507	0.236087
614.975261	0.236007
615.183996	0.235867
615.392713	0.235798
615.601412	0.236096
615.810092	0.236484
616.018754	0.236492
616.227399	0.236271
616.436024	0.236608
616.644632	0.236033
616.853222	0.236248
617.061793	0.236791
617.270346	0.236989
617.478880	0.236959
617.687397	0.237465
617.895895	0.237672
618.104375	0.237953
618.312837	0.237553
618.521281	0.237901
618.729706	0.237660
618.938113	0.237745
619.146502	0.237926
619.354873	0.237930
619.563226	0.237660
619.771560	0.237650
619.979876	0.237612
620.188174	0.238129
620.396453	0.238599
620.604715	0.239046
620.812958	0.238959
621.021183	0.239190
621.229390	0.239646
621.437578	0.239414
621.645748	0.239487
621.853900	0.239491
622.062034	0.239601
622.270150	0.239486
622.478247	0.239526
622.686326	0.239589
622.894387	0.239871
623.102430	0.239800
623.310454	0.240151
623.518461	0.240403
623.726449	0.241002
623.934418	0.240864
624.142370	0.241359
624.350303	0.241479
624.558218	0.241672
624.766115	0.241641
624.973994	0.241661
625.181855	0.242192
625.389697	0.242313
625.597521	0.242171
625.805327	0.242585
626.013114	0.242421
626.220883	0.242403
626.428634	0.242690
626.636367	0.242879
626.844082	0.242824
627.051778	0.242759
627.259457	0.242738
627.467117	0.242830
627.674758	0.242686
627.882382	0.242507
628.089987	0.242669
628.297574	0.242402
628.505143	0.242258
628.712694	0.242680
628.920226	0.242699
629.127740	0.242946
629.335236	0.243146
629.542714	0.243205
629.750174	0.243558
629.957615	0.243704
630.165038	0.243967
630.372443	0.244296
630.579829	0.244443
630.787198	0.244395
630.994548	0.244452
631.201880	0.244800
631.409194	0.244966
631.616489	0.244940
631.823766	0.245096
632.031025	0.245487
632.238266	0.245693
632.445489	0.245872
632.652693	0.246114
632.859879	0.246289
633.067047	0.246181
633.274197	0.246585
633.481329	0.246926
633.688442	0.246922
633.895537	0.246948
634.102614	0.247047
634.309672	0.247203
634.516713	0.247602
634.723735	0.248047
634.930739	0.248557
635.137724	0.248879
635.344692	0.249028
635.551641	0.249251
635.758572	0.249500
635.965485	0.249452
636.172379	0.249402
636.379256	0.249348
636.586114	0.249146
636.792954	0.248702
636.999775	0.248635
637.206579	0.248645
637.413364	0.249032
637.620131	0.249069
637.826880	0.249707
638.033610	0.249738
638.240323	0.249912
638.447017	0.250222
638.653692	0.250699
638.860350	0.250604
639.066990	0.250764
639.273611	0.250787
639.480214	0.250806
639.686798	0.250566
639.893365	0.251020
640.099913	0.250901
640.306443	0.250890
640.512955	0.250977
640.719449	0.251445
640.925924	0.251470
641.132381	0.251435
641.338820	0.251623
641.545241	0.251806
641.751644	0.251555
641.958028	0.251693
642.164394	0.252245
642.370742	0.252470
642.577071	0.252005
642.783383	0.252275
642.989676	0.252476
643.195951	0.252736
643.402207	0.252889
643.608446	0.253351
643.814666	0.253525
644.020868	0.253585
644.227052	0.253615
644.433218	0.254098
644.639365	0.254418
644.845494	0.254501
645.051605	0.254830
645.257698	0.254987
645.463772	0.255077
645.669828	0.255264
645.875866	0.255116
646.081886	0.255384
646.287888	0.255633
646.493871	0.255702
646.699836	0.255985
646.905783	0.255855
647.111712	0.256094
647.317622	0.256241
647.523514	0.256446
647.729388	0.256367
647.935244	0.256281
648.141082	0.256467
648.346901	0.256780
648.552702	0.256913
648.758485	0.257140
648.964250	0.257260
649.169996	0.257558
649.375724	0.257903
649.581434	0.258459
649.787126	0.258835
649.992800	0.258756
650.198455	0.258845
650.404092	0.259147
650.609711	0.259298
650.815311	0.259369
651.020894	0.259149
651.226458	0.259312
651.432004	0.259375
651.637532	0.259529
651.843041	0.259970
652.048532	0.259990
652.254006	0.259875
652.459460	0.259916
652.664897	0.260143
652.870315	0.260396
653.075716	0.260532
653.281097	0.260577
653.486461	0.260482
653.691807	0.260479
653.897134	0.260926
654.102443	0.260908
654.307734	0.261187
654.513006	0.261486
654.718261	0.261782
654.923497	0.261868
655.128715	0.262345
655.333915	0.262695
655.539096	0.263178
655.744259	0.263304
655.949404	0.263686
656.154531	0.263815
656.359640	0.263839
656.564730	0.264196
656.769802	0.264448
656.974856	0.264170
657.179892	0.264226
657.384909	0.264074
657.589908	0.264085
657.794889	0.264275
657.999852	0.264788
658.204797	0.265163
658.409723	0.265096
658.614631	0.265167
658.819521	0.265581
659.024393	0.265618
659.229246	0.265606
659.434081	0.265792
659.638898	0.266202
659.843697	0.265946
660.048478	0.265941
660.253240	0.266172
660.457984	0.266388
660.662710	0.266728
660.867417	0.267104
661.072107	0.267539
661.276778	0.267803
661.481431	0.267712
661.686066	0.267912
661.890682	0.268221
662.095281	0.268290
662.299861	0.268531
662.504422	0.268585
662.708966	0.268772
662.913491	0.269066
663.117999	0.269074
663.322488	0.269131
663.526958	0.269779
663.731411	0.269933
663.935845	0.270298
664.140261	0.270381
664.344659	0.270395
664.549038	0.270546
664.753400	0.270782
664.957743	0.271250
665.162068	0.271590
665.366375	0.271406
665.570663	0.271344
665.774933	0.271437
665.979185	0.271738
666.183419	0.272066
666.387635	0.272357
666.591832	0.272560
666.796011	0.272601
667.000172	0.272718
667.204315	0.273061
667.408439	0.273263
667.612545	0.273346
667.816634	0.273424
668.020703	0.273477
668.224755	0.273621
668.428788	0.273655
668.632803	0.273776
668.836800	0.274145
669.040779	0.274319
669.244739	0.274600
669.448681	0.274942
669.652605	0.275188
669.856511	0.275627
670.060399	0.276058
670.264268	0.276148
670.468119	0.276318
670.671952	0.276551
670.875767	0.276557
671.079563	0.276969
671.283341	0.277101
671.487101	0.277204
671.690843	0.277207
671.894567	0.277134
672.098272	0.277487
672.301959	0.277578
672.505628	0.277723
672.709278	0.278128
672.912911	0.278209
673.116525	0.278353
673.320121	0.278298
673.523699	0.278855
673.727258	0.278985
673.930799	0.279131
674.134322	0.279400
674.337827	0.279484
674.541314	0.279600
674.744782	0.279686
674.948232	0.280039
675.151664	0.280404
675.355078	0.280450
675.558474	0.280705
675.761851	0.280719
675.965210	0.281184
676.168551	0.281707
676.371873	0.281675
676.575178	0.282050
676.778464	0.281987
676.981732	0.282475
677.184981	0.282611
677.388213	0.282958
677.591426	0.283448
677.794621	0.283575
677.997798	0.283485
678.200956	0.283853
678.404097	0.283849
678.607219	0.284116
678.810323	0.283935
679.013408	0.284283
679.216476	0.284233
679.419525	0.284375
679.622556	0.284668
679.825569	0.284841
680.028563	0.284923
680.231540	0.285213
680.434498	0.285416
680.637438	0.285786
680.840359	0.285706
681.043263	0.286004
681.246148	0.286107
681.449015	0.286183
681.651864	0.286648
681.854694	0.287103
682.057506	0.287357
682.260301	0.287738
682.463076	0.288078
682.665834	0.288561
682.868573	0.288644
683.071295	0.288837
683.273998	0.289004
683.476682	0.288786
683.679349	0.288811
683.881997	0.288820
684.084627	0.288990
684.287239	0.289110
684.489833	0.288937
684.692408	0.288956
684.894965	0.289256
685.097504	0.289342
685.300025	0.289954
685.502527	0.290166
685.705012	0.290372
685.907478	0.290199
686.109925	0.290234
686.312355	0.290587
686.514766	0.291074
686.717159	0.291347
686.919534	0.291406
687.121891	0.291429
687.324230	0.291574
687.526550	0.291630
687.728852	0.291953
687.931136	0.292134
688.133401	0.292201
688.335649	0.292084
688.537878	0.292030
688.740089	0.292239
688.942281	0.292395
689.144456	0.292807
689.346612	0.292843
689.548750	0.293071
689.750870	0.293148
689.952971	0.293500
690.155055	0.293696
690.357120	0.293828
690.559167	0.294016
690.761195	0.293929
690.963206	0.293630
691.165198	0.293779
691.367172	0.294022
691.569128	0.294232
691.771065	0.294167
691.972984	0.294543
692.174885	0.294460
692.376768	0.294712
692.578633	0.294811
692.780479	0.295033
692.982308	0.295268
693.184118	0.295241
693.385909	0.295399
