sample name	sample
index	1014
start time	 04-19-2021  11:42:55 AM


Wavelength (nm)	Absorbance
494.344910	0.138717
494.563924	0.138717
494.782919	0.138717
495.001897	-0.039750
495.220856	0.014560
495.439797	-0.003021
495.658719	-0.017995
495.877624	-0.041810
496.096510	-0.040224
496.315378	-0.043181
496.534227	-0.034033
496.753059	-0.026778
496.971872	-0.029246
497.190667	0.055565
497.409444	0.077548
497.628203	0.083808
497.846943	0.087181
498.065665	0.087727
498.284369	0.089833
498.503055	0.092421
498.721723	0.092518
498.940372	0.092871
499.159003	0.091930
499.377616	0.091958
499.596210	0.092324
499.814787	0.093486
500.033345	0.094476
500.251885	0.094550
500.470406	0.093287
500.688910	0.094225
500.907395	0.094786
501.125862	0.095244
501.344311	0.096187
501.562742	0.096290
501.781154	0.096569
501.999548	0.096633
502.217924	0.097238
502.436282	0.097591
502.654621	0.096824
502.872942	0.095862
503.091245	0.096465
503.309530	0.095188
503.527797	0.094612
503.746045	0.095118
503.964275	0.095151
504.182487	0.094824
504.400681	0.094810
504.618856	0.094362
504.837013	0.094798
505.055152	0.094342
505.273273	0.095258
505.491376	0.095726
505.709460	0.094810
505.927526	0.095463
506.145574	0.095355
506.363604	0.095733
506.581615	0.096908
506.799608	0.097192
507.017583	0.097851
507.235540	0.097404
507.453478	0.097899
507.671399	0.098089
507.889301	0.098138
508.107185	0.099347
508.325050	0.099827
508.542898	0.099686
508.760727	0.099418
508.978538	0.099581
509.196330	0.099565
509.414105	0.099600
509.631861	0.100221
509.849599	0.100345
510.067319	0.099452
510.285021	0.099284
510.502704	0.099429
510.720369	0.099158
510.938016	0.098584
511.155645	0.099873
511.373255	0.100045
511.590848	0.099525
511.808422	0.098700
512.025977	0.099643
512.243515	0.099682
512.461034	0.099608
512.678536	0.100499
512.896018	0.099956
513.113483	0.099097
513.330930	0.099006
513.548358	0.099401
513.765768	0.099847
513.983160	0.100117
514.200533	0.099386
514.417889	0.099495
514.635226	0.100053
514.852545	0.100352
515.069845	0.100121
515.287128	0.100223
515.504392	0.099498
515.721638	0.099669
515.938866	0.098983
516.156075	0.099512
516.373267	0.098929
516.590440	0.098578
516.807594	0.099482
517.024731	0.100131
517.241850	0.100088
517.458950	0.100301
517.676032	0.100990
517.893095	0.101209
518.110141	0.101710
518.327168	0.102528
518.544177	0.102127
518.761168	0.101984
518.978141	0.101675
519.195095	0.101857
519.412031	0.101793
519.628949	0.100649
519.845849	0.100485
520.062731	0.100236
520.279594	0.100080
520.496439	0.100276
520.713266	0.100113
520.930074	0.100205
521.146865	0.100437
521.363637	0.100771
521.580391	0.101071
521.797127	0.100670
522.013844	0.101091
522.230543	0.101155
522.447224	0.101450
522.663887	0.102004
522.880532	0.102861
523.097158	0.103372
523.313766	0.103855
523.530356	0.104303
523.746928	0.105077
523.963481	0.105103
524.180017	0.105059
524.396534	0.104930
524.613032	0.105174
524.829513	0.105056
525.045975	0.104470
525.262420	0.104238
525.478845	0.104711
525.695253	0.104710
525.911643	0.104593
526.128014	0.105330
526.344367	0.105942
526.560702	0.105991
526.777018	0.106191
526.993316	0.106903
527.209597	0.106810
527.425858	0.106365
527.642102	0.106375
527.858328	0.106834
528.074535	0.106846
528.290724	0.106601
528.506894	0.106533
528.723047	0.106836
528.939181	0.106270
529.155297	0.106372
529.371395	0.106743
529.587475	0.107523
529.803536	0.107276
530.019579	0.107913
530.235604	0.107849
530.451611	0.108228
530.667600	0.107961
530.883570	0.108822
531.099522	0.110013
531.315456	0.110148
531.531372	0.110744
531.747269	0.111291
531.963148	0.110917
532.179009	0.111824
532.394852	0.112106
532.610676	0.112144
532.826482	0.111936
533.042271	0.111225
533.258040	0.111655
533.473792	0.110557
533.689525	0.110825
533.905240	0.110895
534.120937	0.110709
534.336616	0.110591
534.552277	0.111462
534.767919	0.112041
534.983543	0.112842
535.199149	0.112927
535.414736	0.113766
535.630306	0.113367
535.845857	0.113133
536.061390	0.113444
536.276904	0.113473
536.492401	0.113179
536.707879	0.112830
536.923339	0.112455
537.138781	0.112505
537.354204	0.112206
537.569610	0.112386
537.784997	0.112351
538.000366	0.112488
538.215716	0.112963
538.431049	0.112994
538.646363	0.113413
538.861659	0.113236
539.076937	0.112834
539.292196	0.112792
539.507438	0.113102
539.722661	0.113957
539.937866	0.114030
540.153052	0.114148
540.368221	0.114767
540.583371	0.114071
540.798503	0.114955
541.013617	0.115620
541.228712	0.116028
541.443789	0.115898
541.658848	0.115930
541.873889	0.115848
542.088912	0.115813
542.303916	0.115548
542.518902	0.116516
542.733870	0.116376
542.948820	0.116954
543.163752	0.117419
543.378665	0.118224
543.593560	0.118493
543.808437	0.118628
544.023295	0.118882
544.238136	0.119141
544.452958	0.118939
544.667762	0.119357
544.882548	0.119308
545.097315	0.119502
545.312064	0.119644
545.526795	0.119673
545.741508	0.119739
545.956203	0.120441
546.170879	0.120346
546.385537	0.120835
546.600177	0.120824
546.814799	0.120395
547.029402	0.120133
547.243988	0.119572
547.458555	0.119816
547.673103	0.120445
547.887634	0.120222
548.102146	0.120353
548.316640	0.120248
548.531116	0.120436
548.745574	0.120825
548.960013	0.121055
549.174435	0.121755
549.388838	0.121924
549.603222	0.122064
549.817589	0.121764
550.031937	0.121770
550.246267	0.122170
550.460579	0.122408
550.674873	0.122927
550.889148	0.123122
551.103405	0.122992
551.317644	0.123228
551.531865	0.122752
551.746068	0.122974
551.960252	0.123439
552.174418	0.123666
552.388566	0.123300
552.602696	0.123056
552.816807	0.123279
553.030900	0.123547
553.244975	0.123318
553.459032	0.123716
553.673070	0.123946
553.887091	0.123987
554.101093	0.123948
554.315077	0.124401
554.529042	0.124745
554.742990	0.124866
554.956919	0.124772
555.170830	0.124647
555.384722	0.124639
555.598597	0.124318
555.812453	0.124560
556.026291	0.124571
556.240111	0.125075
556.453913	0.124985
556.667696	0.124965
556.881461	0.125150
557.095208	0.125217
557.308937	0.125575
557.522647	0.126286
557.736339	0.126336
557.950013	0.126558
558.163669	0.126419
558.377307	0.126651
558.590926	0.126805
558.804527	0.127071
559.018110	0.127376
559.231675	0.127616
559.445221	0.127285
559.658749	0.127601
559.872259	0.127553
560.085751	0.127620
560.299225	0.127593
560.512680	0.127611
560.726117	0.127682
560.939536	0.127653
561.152937	0.127467
561.366319	0.127683
561.579683	0.127603
561.793029	0.127930
562.006357	0.128104
562.219667	0.128137
562.432958	0.128646
562.646231	0.128325
562.859486	0.128769
563.072723	0.129263
563.285941	0.129544
563.499141	0.129537
563.712323	0.129490
563.925487	0.129377
564.138632	0.129576
564.351760	0.129291
564.564869	0.129693
564.777960	0.129601
564.991032	0.129862
565.204087	0.129888
565.417123	0.130322
565.630141	0.130499
565.843140	0.130310
566.056122	0.130371
566.269085	0.130745
566.482030	0.131057
566.694957	0.131265
566.907866	0.130877
567.120756	0.130797
567.333628	0.130764
567.546482	0.130339
567.759318	0.130514
567.972135	0.130567
568.184935	0.130578
568.397716	0.130657
568.610478	0.130809
568.823223	0.130849
569.035949	0.131260
569.248657	0.131429
569.461347	0.132441
569.674019	0.132609
569.886672	0.133020
570.099308	0.132854
570.311925	0.132540
570.524523	0.132548
570.737104	0.132950
570.949666	0.132819
571.162210	0.132706
571.374736	0.132320
571.587244	0.132541
571.799733	0.132314
572.012205	0.132417
572.224658	0.133131
572.437092	0.133215
572.649509	0.133405
572.861907	0.133896
573.074287	0.133722
573.286649	0.133395
573.498993	0.133386
573.711318	0.133249
573.923625	0.133365
574.135914	0.132977
574.348185	0.133309
574.560438	0.133189
574.772672	0.132805
574.984888	0.132850
575.197086	0.133176
575.409266	0.133540
575.621427	0.133828
575.833570	0.133827
576.045695	0.133800
576.257802	0.133672
576.469890	0.133600
576.681961	0.133770
576.894013	0.133630
577.106046	0.133919
577.318062	0.133804
577.530059	0.133852
577.742039	0.134043
577.954000	0.134516
578.165942	0.134571
578.377867	0.134897
578.589773	0.134725
578.801661	0.134985
579.013531	0.135142
579.225382	0.135307
579.437216	0.135368
579.649031	0.135293
579.860828	0.135375
580.072606	0.135156
580.284367	0.134895
580.496109	0.135307
580.707833	0.136109
580.919539	0.135917
581.131227	0.136038
581.342896	0.136384
581.554547	0.136901
581.766180	0.136624
581.977795	0.136950
582.189391	0.137223
582.400969	0.137245
582.612529	0.136851
582.824071	0.136736
583.035595	0.136740
583.247100	0.136675
583.458587	0.136580
583.670056	0.136962
583.881506	0.136990
584.092939	0.137538
584.304353	0.137722
584.515749	0.137992
584.727127	0.138451
584.938486	0.138636
585.149828	0.138573
585.361151	0.138425
585.572456	0.138558
585.783742	0.138694
585.995011	0.138316
586.206261	0.138558
586.417493	0.138486
586.628706	0.138538
586.839902	0.138746
587.051079	0.139237
587.262238	0.139590
587.473379	0.139465
587.684502	0.139634
587.895606	0.139556
588.106692	0.139897
588.317760	0.139785
588.528810	0.140191
588.739841	0.140159
588.950855	0.140124
589.161850	0.140295
589.372827	0.140458
589.583785	0.140899
589.794726	0.141125
590.005648	0.140729
590.216552	0.141423
590.427437	0.141002
590.638305	0.141052
590.849154	0.141256
591.059985	0.140851
591.270798	0.140886
591.481592	0.140805
591.692369	0.140617
591.903127	0.140770
592.113867	0.140528
592.324588	0.140943
592.535292	0.140569
592.745977	0.140491
592.956644	0.140882
593.167293	0.140752
593.377923	0.140610
593.588536	0.140946
593.799130	0.141202
594.009706	0.141213
594.220263	0.140914
594.430803	0.141476
594.641324	0.141579
594.851827	0.141549
595.062312	0.141841
595.272778	0.141742
595.483227	0.141964
595.693657	0.141896
595.904069	0.141819
596.114462	0.141838
596.324838	0.141724
596.535195	0.141657
596.745534	0.141936
596.955855	0.141935
597.166157	0.142291
597.376441	0.142084
597.586707	0.142268
597.796955	0.142518
598.007185	0.142837
598.217396	0.143135
598.427589	0.143254
598.637764	0.143212
598.847921	0.142969
599.058060	0.143006
599.268180	0.143083
599.478282	0.142941
599.688366	0.142944
599.898431	0.143413
600.108479	0.143498
600.318508	0.143854
600.528519	0.143710
600.738511	0.144460
600.948486	0.144546
601.158442	0.144617
601.368380	0.144549
601.578300	0.144639
601.788202	0.144260
601.998085	0.144356
602.207950	0.144413
602.417797	0.144773
602.627626	0.144637
602.837436	0.144491
603.047228	0.144727
603.257002	0.145053
603.466758	0.145060
603.676496	0.145146
603.886215	0.144939
604.095916	0.144942
604.305599	0.145040
604.515264	0.145018
604.724910	0.145153
604.934538	0.145332
605.144148	0.145232
605.353740	0.145186
605.563314	0.145321
605.772869	0.145428
605.982406	0.145351
606.191925	0.145266
606.401425	0.145237
606.610908	0.145472
606.820372	0.145269
607.029818	0.145408
607.239246	0.145779
607.448655	0.145786
607.658047	0.146174
607.867420	0.146378
608.076775	0.146689
608.286111	0.147016
608.495430	0.147146
608.704730	0.147313
608.914012	0.147233
609.123275	0.147141
609.332521	0.147298
609.541748	0.147100
609.750957	0.146961
609.960148	0.146863
610.169321	0.146870
610.378475	0.146699
610.587611	0.146791
610.796729	0.147172
611.005829	0.147377
611.214910	0.147408
611.423974	0.147681
611.633019	0.147642
611.842045	0.147706
612.051054	0.147901
612.260044	0.148444
612.469017	0.148655
612.677970	0.148553
612.886906	0.148608
613.095824	0.148583
613.304723	0.148506
613.513604	0.148902
613.722467	0.148965
613.931311	0.148965
614.140138	0.148659
614.348946	0.148502
614.557736	0.148537
614.766507	0.148903
614.975261	0.149279
615.183996	0.149360
615.392713	0.149580
615.601412	0.149522
615.810092	0.149449
616.018754	0.149731
616.227399	0.150145
616.436024	0.150338
616.644632	0.150147
616.853222	0.149985
617.061793	0.150073
617.270346	0.150029
617.478880	0.150193
617.687397	0.150260
617.895895	0.150088
618.104375	0.149976
618.312837	0.150009
618.521281	0.150145
618.729706	0.150220
618.938113	0.150210
619.146502	0.150245
619.354873	0.150490
619.563226	0.150437
619.771560	0.150636
619.979876	0.150459
620.188174	0.150477
620.396453	0.150555
620.604715	0.150851
620.812958	0.150905
621.021183	0.151102
621.229390	0.151010
621.437578	0.151104
621.645748	0.151325
621.853900	0.151703
622.062034	0.151834
622.270150	0.151696
622.478247	0.151527
622.686326	0.151812
622.894387	0.151890
623.102430	0.152103
623.310454	0.152428
623.518461	0.152290
623.726449	0.152558
623.934418	0.152724
624.142370	0.152874
624.350303	0.153021
624.558218	0.153126
624.766115	0.152874
624.973994	0.152983
625.181855	0.153031
625.389697	0.152869
625.597521	0.152746
625.805327	0.152608
626.013114	0.152886
626.220883	0.152676
626.428634	0.152572
626.636367	0.152677
626.844082	0.152554
627.051778	0.152570
627.259457	0.152848
627.467117	0.152806
627.674758	0.152886
627.882382	0.152655
628.089987	0.152703
628.297574	0.152749
628.505143	0.153015
628.712694	0.153118
628.920226	0.153274
629.127740	0.153641
629.335236	0.153740
629.542714	0.154024
629.750174	0.154295
629.957615	0.154912
630.165038	0.155132
630.372443	0.155152
630.579829	0.155584
630.787198	0.155603
630.994548	0.155464
631.201880	0.155429
631.409194	0.155590
631.616489	0.155479
631.823766	0.155253
632.031025	0.155223
632.238266	0.155030
632.445489	0.154735
632.652693	0.154664
632.859879	0.154771
633.067047	0.154910
633.274197	0.154822
633.481329	0.154947
633.688442	0.154952
633.895537	0.155039
634.102614	0.155175
634.309672	0.155371
634.516713	0.155569
634.723735	0.155478
634.930739	0.155578
635.137724	0.155597
635.344692	0.155817
635.551641	0.156095
635.758572	0.156139
635.965485	0.156641
636.172379	0.156747
636.379256	0.156817
636.586114	0.157206
636.792954	0.157106
636.999775	0.157162
637.206579	0.157088
637.413364	0.157263
637.620131	0.157175
637.826880	0.156818
638.033610	0.156633
638.240323	0.156596
638.447017	0.156310
638.653692	0.156596
638.860350	0.156906
639.066990	0.157087
639.273611	0.156912
639.480214	0.157321
639.686798	0.157614
639.893365	0.157961
640.099913	0.158080
640.306443	0.158376
640.512955	0.158400
640.719449	0.158197
640.925924	0.158238
641.132381	0.158359
641.338820	0.158182
641.545241	0.158230
641.751644	0.158217
641.958028	0.158335
642.164394	0.158390
642.370742	0.158303
642.577071	0.158544
642.783383	0.158713
642.989676	0.158868
643.195951	0.159059
643.402207	0.159264
643.608446	0.159438
643.814666	0.159428
644.020868	0.159462
644.227052	0.159903
644.433218	0.160007
644.639365	0.159898
644.845494	0.160006
645.051605	0.160020
645.257698	0.159860
645.463772	0.160052
645.669828	0.160499
645.875866	0.160462
646.081886	0.160220
646.287888	0.160283
646.493871	0.160400
646.699836	0.160436
646.905783	0.160601
647.111712	0.160770
647.317622	0.160627
647.523514	0.160341
647.729388	0.160687
647.935244	0.161020
648.141082	0.161067
648.346901	0.161239
648.552702	0.161317
648.758485	0.161342
648.964250	0.161500
649.169996	0.161558
649.375724	0.161837
649.581434	0.161809
649.787126	0.161726
649.992800	0.161770
650.198455	0.161823
650.404092	0.161796
650.609711	0.161879
650.815311	0.161926
651.020894	0.162137
651.226458	0.162091
651.432004	0.162294
651.637532	0.162488
651.843041	0.162485
652.048532	0.162499
652.254006	0.162693
652.459460	0.162609
652.664897	0.162603
652.870315	0.162624
653.075716	0.162872
653.281097	0.162856
653.486461	0.162755
653.691807	0.162847
653.897134	0.162929
654.102443	0.163028
654.307734	0.163399
654.513006	0.163568
654.718261	0.163606
654.923497	0.163598
655.128715	0.163623
655.333915	0.163990
655.539096	0.164160
655.744259	0.164320
655.949404	0.164326
656.154531	0.164457
656.359640	0.164593
656.564730	0.164687
656.769802	0.164888
656.974856	0.164888
657.179892	0.165010
657.384909	0.165151
657.589908	0.165273
657.794889	0.165473
657.999852	0.165599
658.204797	0.165679
658.409723	0.166004
658.614631	0.165976
658.819521	0.166340
659.024393	0.166297
659.229246	0.166444
659.434081	0.166471
659.638898	0.166836
659.843697	0.166510
660.048478	0.166673
660.253240	0.166455
660.457984	0.166571
660.662710	0.166723
660.867417	0.166741
661.072107	0.166929
661.276778	0.167056
661.481431	0.166957
661.686066	0.167475
661.890682	0.167552
662.095281	0.167727
662.299861	0.167986
662.504422	0.168000
662.708966	0.168203
662.913491	0.168118
663.117999	0.168180
663.322488	0.168245
663.526958	0.168188
663.731411	0.168174
663.935845	0.168289
664.140261	0.168284
664.344659	0.168182
664.549038	0.168084
664.753400	0.168349
664.957743	0.168335
665.162068	0.168387
665.366375	0.168537
665.570663	0.168655
665.774933	0.168794
665.979185	0.168787
666.183419	0.169081
666.387635	0.169317
666.591832	0.169461
666.796011	0.169616
667.000172	0.169851
667.204315	0.169901
667.408439	0.170123
667.612545	0.170075
667.816634	0.170359
668.020703	0.170426
668.224755	0.170554
668.428788	0.170566
668.632803	0.170766
668.836800	0.170909
669.040779	0.171109
669.244739	0.171108
669.448681	0.171415
669.652605	0.171493
669.856511	0.171490
670.060399	0.171636
670.264268	0.171620
670.468119	0.171691
670.671952	0.171505
670.875767	0.171607
671.079563	0.171816
671.283341	0.171990
671.487101	0.171878
671.690843	0.172015
671.894567	0.172020
672.098272	0.172342
672.301959	0.172621
672.505628	0.172755
672.709278	0.172761
672.912911	0.172764
673.116525	0.172678
673.320121	0.172753
673.523699	0.172909
673.727258	0.172991
673.930799	0.173002
674.134322	0.172924
674.337827	0.173076
674.541314	0.173197
674.744782	0.173379
674.948232	0.173586
675.151664	0.173744
675.355078	0.173690
675.558474	0.174023
675.761851	0.174093
675.965210	0.174283
676.168551	0.174439
676.371873	0.174500
676.575178	0.174447
676.778464	0.174500
676.981732	0.174718
677.184981	0.174829
677.388213	0.174939
677.591426	0.175069
677.794621	0.175170
677.997798	0.175215
678.200956	0.175069
678.404097	0.175327
678.607219	0.175658
678.810323	0.175895
679.013408	0.176221
679.216476	0.176411
679.419525	0.176646
679.622556	0.176790
679.825569	0.177060
680.028563	0.177479
680.231540	0.177572
680.434498	0.177460
680.637438	0.177587
680.840359	0.177646
681.043263	0.177538
681.246148	0.177589
681.449015	0.177610
681.651864	0.177565
681.854694	0.177762
682.057506	0.177929
682.260301	0.178073
682.463076	0.178032
682.665834	0.178040
682.868573	0.178176
683.071295	0.178198
683.273998	0.178373
683.476682	0.178492
683.679349	0.178324
683.881997	0.178416
684.084627	0.178559
684.287239	0.178790
684.489833	0.178929
684.692408	0.179050
684.894965	0.179032
685.097504	0.179091
685.300025	0.179150
685.502527	0.179477
685.705012	0.179429
685.907478	0.179444
686.109925	0.179379
686.312355	0.179531
686.514766	0.179691
686.717159	0.179851
686.919534	0.179982
687.121891	0.179998
687.324230	0.179962
687.526550	0.180027
687.728852	0.179998
687.931136	0.180042
688.133401	0.180002
688.335649	0.179929
688.537878	0.179996
688.740089	0.179888
688.942281	0.180151
689.144456	0.180371
689.346612	0.180356
689.548750	0.180505
689.750870	0.180634
689.952971	0.180723
690.155055	0.180701
690.357120	0.180663
690.559167	0.180851
690.761195	0.180798
690.963206	0.180751
691.165198	0.180939
691.367172	0.181071
691.569128	0.181088
691.771065	0.181321
691.972984	0.181399
692.174885	0.181536
692.376768	0.181660
692.578633	0.181771
692.780479	0.181834
692.982308	0.181971
693.184118	0.182006
693.385909	0.182049
