sample name	sample
index	1275
start time	 04-29-2021  02:26:04 PM


Wavelength (nm)	Absorbance
494.344910	NaN
494.563924	NaN
494.782919	NaN
495.001897	-0.507949
495.220856	-0.020720
495.439797	-0.029285
495.658719	-0.066550
495.877624	-0.074243
496.096510	0.075633
496.315378	0.108290
496.534227	0.127646
496.753059	0.200076
496.971872	0.156632
497.190667	0.068462
497.409444	0.063621
497.628203	0.056109
497.846943	0.057404
498.065665	0.057239
498.284369	0.058779
498.503055	0.060019
498.721723	0.059653
498.940372	0.058828
499.159003	0.057720
499.377616	0.055073
499.596210	0.056374
499.814787	0.055318
500.033345	0.054116
500.251885	0.053892
500.470406	0.054371
500.688910	0.055596
500.907395	0.056800
501.125862	0.057903
501.344311	0.059881
501.562742	0.059876
501.781154	0.059595
501.999548	0.061242
502.217924	0.061029
502.436282	0.059982
502.654621	0.059487
502.872942	0.058344
503.091245	0.058410
503.309530	0.057931
503.527797	0.057526
503.746045	0.057987
503.964275	0.057298
504.182487	0.056291
504.400681	0.055978
504.618856	0.056170
504.837013	0.057188
505.055152	0.056822
505.273273	0.057204
505.491376	0.057749
505.709460	0.057743
505.927526	0.057527
506.145574	0.058326
506.363604	0.058330
506.581615	0.057553
506.799608	0.057475
507.017583	0.057470
507.235540	0.057851
507.453478	0.057957
507.671399	0.058313
507.889301	0.058886
508.107185	0.058529
508.325050	0.058906
508.542898	0.059865
508.760727	0.059563
508.978538	0.060627
509.196330	0.060907
509.414105	0.060619
509.631861	0.061004
509.849599	0.061037
510.067319	0.060861
510.285021	0.060788
510.502704	0.060482
510.720369	0.060377
510.938016	0.059510
511.155645	0.059476
511.373255	0.060333
511.590848	0.060796
511.808422	0.061052
512.025977	0.061015
512.243515	0.061628
512.461034	0.062112
512.678536	0.062915
512.896018	0.063461
513.113483	0.062863
513.330930	0.062989
513.548358	0.062403
513.765768	0.061787
513.983160	0.062494
514.200533	0.062405
514.417889	0.061258
514.635226	0.060711
514.852545	0.060660
515.069845	0.060881
515.287128	0.060671
515.504392	0.060558
515.721638	0.060611
515.938866	0.061532
516.156075	0.061438
516.373267	0.062268
516.590440	0.062354
516.807594	0.062587
517.024731	0.063208
517.241850	0.063447
517.458950	0.063622
517.676032	0.064133
517.893095	0.064326
518.110141	0.065049
518.327168	0.065064
518.544177	0.065449
518.761168	0.065877
518.978141	0.065955
519.195095	0.065783
519.412031	0.065904
519.628949	0.065311
519.845849	0.064717
520.062731	0.064197
520.279594	0.064438
520.496439	0.064298
520.713266	0.064305
520.930074	0.064162
521.146865	0.064809
521.363637	0.064827
521.580391	0.065524
521.797127	0.066065
522.013844	0.066380
522.230543	0.066279
522.447224	0.066630
522.663887	0.066336
522.880532	0.066632
523.097158	0.067111
523.313766	0.067670
523.530356	0.067372
523.746928	0.066829
523.963481	0.067199
524.180017	0.067253
524.396534	0.067683
524.613032	0.068694
524.829513	0.069017
525.045975	0.068463
525.262420	0.068301
525.478845	0.069207
525.695253	0.069322
525.911643	0.069214
526.128014	0.069823
526.344367	0.069533
526.560702	0.069449
526.777018	0.069543
526.993316	0.069456
527.209597	0.069780
527.425858	0.069633
527.642102	0.069948
527.858328	0.070627
528.074535	0.071145
528.290724	0.071288
528.506894	0.070874
528.723047	0.070618
528.939181	0.070767
529.155297	0.070957
529.371395	0.070656
529.587475	0.070571
529.803536	0.070189
530.019579	0.069980
530.235604	0.069940
530.451611	0.070401
530.667600	0.070755
530.883570	0.070846
531.099522	0.070595
531.315456	0.071396
531.531372	0.072146
531.747269	0.072683
531.963148	0.073244
532.179009	0.073628
532.394852	0.073451
532.610676	0.073633
532.826482	0.073901
533.042271	0.074053
533.258040	0.074003
533.473792	0.073721
533.689525	0.073907
533.905240	0.073429
534.120937	0.073975
534.336616	0.074137
534.552277	0.074293
534.767919	0.074734
534.983543	0.075624
535.199149	0.075573
535.414736	0.076256
535.630306	0.075995
535.845857	0.076374
536.061390	0.076717
536.276904	0.077138
536.492401	0.077150
536.707879	0.077704
536.923339	0.077818
537.138781	0.078150
537.354204	0.078326
537.569610	0.078735
537.784997	0.079138
538.000366	0.078897
538.215716	0.078780
538.431049	0.079060
538.646363	0.078755
538.861659	0.078748
539.076937	0.079281
539.292196	0.079371
539.507438	0.079383
539.722661	0.079315
539.937866	0.079696
540.153052	0.080219
540.368221	0.080248
540.583371	0.080658
540.798503	0.080673
541.013617	0.080906
541.228712	0.080655
541.443789	0.080628
541.658848	0.080914
541.873889	0.081160
542.088912	0.081305
542.303916	0.081847
542.518902	0.081647
542.733870	0.081636
542.948820	0.081347
543.163752	0.081690
543.378665	0.082080
543.593560	0.082093
543.808437	0.082214
544.023295	0.082264
544.238136	0.082476
544.452958	0.082860
544.667762	0.083380
544.882548	0.084227
545.097315	0.084750
545.312064	0.085489
545.526795	0.085889
545.741508	0.085777
545.956203	0.086078
546.170879	0.086136
546.385537	0.086517
546.600177	0.086580
546.814799	0.086664
547.029402	0.086649
547.243988	0.086436
547.458555	0.086604
547.673103	0.086731
547.887634	0.087097
548.102146	0.087329
548.316640	0.087125
548.531116	0.087349
548.745574	0.087452
548.960013	0.087852
549.174435	0.087935
549.388838	0.088100
549.603222	0.088430
549.817589	0.088046
550.031937	0.087915
550.246267	0.088177
550.460579	0.088185
550.674873	0.088082
550.889148	0.087968
551.103405	0.088345
551.317644	0.088289
551.531865	0.088628
551.746068	0.089128
551.960252	0.089448
552.174418	0.089568
552.388566	0.089777
552.602696	0.090136
552.816807	0.090063
553.030900	0.090313
553.244975	0.090702
553.459032	0.090996
553.673070	0.091038
553.887091	0.091299
554.101093	0.091619
554.315077	0.091704
554.529042	0.091717
554.742990	0.092095
554.956919	0.091890
555.170830	0.091837
555.384722	0.092020
555.598597	0.092292
555.812453	0.092668
556.026291	0.092726
556.240111	0.093157
556.453913	0.093386
556.667696	0.093544
556.881461	0.093841
557.095208	0.094374
557.308937	0.094373
557.522647	0.094510
557.736339	0.094525
557.950013	0.094738
558.163669	0.094707
558.377307	0.095079
558.590926	0.095406
558.804527	0.095463
559.018110	0.095451
559.231675	0.095643
559.445221	0.095691
559.658749	0.095648
559.872259	0.095833
560.085751	0.095724
560.299225	0.095298
560.512680	0.095468
560.726117	0.095309
560.939536	0.095193
561.152937	0.095522
561.366319	0.096025
561.579683	0.095911
561.793029	0.095884
562.006357	0.096422
562.219667	0.096813
562.432958	0.096598
562.646231	0.097048
562.859486	0.097209
563.072723	0.097119
563.285941	0.096790
563.499141	0.097196
563.712323	0.097795
563.925487	0.098206
564.138632	0.098662
564.351760	0.099176
564.564869	0.099572
564.777960	0.099815
564.991032	0.099780
565.204087	0.100078
565.417123	0.100441
565.630141	0.100361
565.843140	0.100031
566.056122	0.099810
566.269085	0.099937
566.482030	0.099824
566.694957	0.100074
566.907866	0.100315
567.120756	0.100613
567.333628	0.100452
567.546482	0.100157
567.759318	0.100391
567.972135	0.100279
568.184935	0.100294
568.397716	0.100420
568.610478	0.100536
568.823223	0.100576
569.035949	0.100733
569.248657	0.100712
569.461347	0.101454
569.674019	0.101760
569.886672	0.102307
570.099308	0.102532
570.311925	0.102679
570.524523	0.102568
570.737104	0.102634
570.949666	0.102880
571.162210	0.103492
571.374736	0.103152
571.587244	0.103063
571.799733	0.102865
572.012205	0.102704
572.224658	0.102703
572.437092	0.102994
572.649509	0.103168
572.861907	0.103020
573.074287	0.102996
573.286649	0.103073
573.498993	0.103212
573.711318	0.103698
573.923625	0.103826
574.135914	0.104674
574.348185	0.105016
574.560438	0.105344
574.772672	0.105638
574.984888	0.106031
575.197086	0.106557
575.409266	0.106581
575.621427	0.106592
575.833570	0.107189
576.045695	0.106858
576.257802	0.106378
576.469890	0.106257
576.681961	0.106102
576.894013	0.105673
577.106046	0.105340
577.318062	0.105484
577.530059	0.105361
577.742039	0.105299
577.954000	0.105184
578.165942	0.105767
578.377867	0.105993
578.589773	0.106204
578.801661	0.106565
579.013531	0.107007
579.225382	0.107220
579.437216	0.107588
579.649031	0.107795
579.860828	0.108021
580.072606	0.107957
580.284367	0.108033
580.496109	0.108155
580.707833	0.108289
580.919539	0.108294
581.131227	0.108337
581.342896	0.108411
581.554547	0.108063
581.766180	0.108126
581.977795	0.108293
582.189391	0.108110
582.400969	0.108226
582.612529	0.107839
582.824071	0.107752
583.035595	0.107944
583.247100	0.107672
583.458587	0.107822
583.670056	0.107788
583.881506	0.107607
584.092939	0.107487
584.304353	0.107326
584.515749	0.107348
584.727127	0.107563
584.938486	0.107337
585.149828	0.107408
585.361151	0.107228
585.572456	0.107423
585.783742	0.107592
585.995011	0.107995
586.206261	0.108289
586.417493	0.108655
586.628706	0.108620
586.839902	0.108716
587.051079	0.109115
587.262238	0.109275
587.473379	0.109600
587.684502	0.109640
587.895606	0.109932
588.106692	0.109912
588.317760	0.110091
588.528810	0.110507
588.739841	0.110630
588.950855	0.110483
589.161850	0.110849
589.372827	0.110872
589.583785	0.110931
589.794726	0.110772
590.005648	0.110724
590.216552	0.110483
590.427437	0.110377
590.638305	0.110688
590.849154	0.110563
591.059985	0.110437
591.270798	0.110021
591.481592	0.110404
591.692369	0.110459
591.903127	0.110889
592.113867	0.111350
592.324588	0.111425
592.535292	0.111774
592.745977	0.112278
592.956644	0.112400
593.167293	0.112723
593.377923	0.112652
593.588536	0.112694
593.799130	0.112987
594.009706	0.113106
594.220263	0.112988
594.430803	0.112566
594.641324	0.112453
594.851827	0.112503
595.062312	0.112504
595.272778	0.112103
595.483227	0.112087
595.693657	0.111606
595.904069	0.111685
596.114462	0.111788
596.324838	0.112035
596.535195	0.112198
596.745534	0.111701
596.955855	0.112038
597.166157	0.112332
597.376441	0.112558
597.586707	0.112491
597.796955	0.112312
598.007185	0.112349
598.217396	0.112350
598.427589	0.112400
598.637764	0.112726
598.847921	0.112560
599.058060	0.112692
599.268180	0.112808
599.478282	0.113092
599.688366	0.113239
599.898431	0.113336
600.108479	0.113157
600.318508	0.113147
600.528519	0.113483
600.738511	0.113373
600.948486	0.113478
601.158442	0.113426
601.368380	0.113478
601.578300	0.113522
601.788202	0.113488
601.998085	0.113861
602.207950	0.113845
602.417797	0.113925
602.627626	0.114215
602.837436	0.114403
603.047228	0.114799
603.257002	0.115092
603.466758	0.115262
603.676496	0.115643
603.886215	0.115508
604.095916	0.115672
604.305599	0.115722
604.515264	0.115752
604.724910	0.115743
604.934538	0.115796
605.144148	0.115792
605.353740	0.115784
605.563314	0.115839
605.772869	0.115815
605.982406	0.115774
606.191925	0.115567
606.401425	0.115394
606.610908	0.115477
606.820372	0.114895
607.029818	0.114438
607.239246	0.114168
607.448655	0.113737
607.658047	0.113640
607.867420	0.113537
608.076775	0.113735
608.286111	0.114011
608.495430	0.113898
608.704730	0.114013
608.914012	0.114433
609.123275	0.114669
609.332521	0.114941
609.541748	0.115300
609.750957	0.115539
609.960148	0.115754
610.169321	0.115661
610.378475	0.115783
610.587611	0.116015
610.796729	0.115919
611.005829	0.116056
611.214910	0.116353
611.423974	0.116313
611.633019	0.116387
611.842045	0.116347
612.051054	0.116511
612.260044	0.116475
612.469017	0.116572
612.677970	0.116582
612.886906	0.116649
613.095824	0.116452
613.304723	0.116454
613.513604	0.116299
613.722467	0.116277
613.931311	0.116298
614.140138	0.116119
614.348946	0.116251
614.557736	0.116073
614.766507	0.115859
614.975261	0.115828
615.183996	0.115781
615.392713	0.116164
615.601412	0.116477
615.810092	0.116469
616.018754	0.116618
616.227399	0.116467
616.436024	0.116769
616.644632	0.116901
616.853222	0.117037
617.061793	0.117079
617.270346	0.116855
617.478880	0.116581
617.687397	0.116364
617.895895	0.116433
618.104375	0.116839
618.312837	0.117019
618.521281	0.117281
618.729706	0.117286
618.938113	0.117329
619.146502	0.117407
619.354873	0.117459
619.563226	0.117863
619.771560	0.117964
619.979876	0.117710
620.188174	0.117841
620.396453	0.117986
620.604715	0.118243
620.812958	0.118610
621.021183	0.118755
621.229390	0.119403
621.437578	0.119644
621.645748	0.120033
621.853900	0.120337
622.062034	0.120268
622.270150	0.120169
622.478247	0.120356
622.686326	0.120362
622.894387	0.120398
623.102430	0.120009
623.310454	0.119822
623.518461	0.119587
623.726449	0.119617
623.934418	0.119689
624.142370	0.119692
624.350303	0.119500
624.558218	0.119579
624.766115	0.119732
624.973994	0.119630
625.181855	0.119631
625.389697	0.119974
625.597521	0.119849
625.805327	0.119853
626.013114	0.119944
626.220883	0.120046
626.428634	0.119893
626.636367	0.119887
626.844082	0.120166
627.051778	0.120197
627.259457	0.120181
627.467117	0.120309
627.674758	0.120312
627.882382	0.120399
628.089987	0.120592
628.297574	0.120816
628.505143	0.121222
628.712694	0.121566
628.920226	0.121680
629.127740	0.121641
629.335236	0.121923
629.542714	0.122142
629.750174	0.122313
629.957615	0.122396
630.165038	0.122419
630.372443	0.122340
630.579829	0.122250
630.787198	0.122547
630.994548	0.122586
631.201880	0.122476
631.409194	0.122649
631.616489	0.122642
631.823766	0.122606
632.031025	0.122621
632.238266	0.122734
632.445489	0.122775
632.652693	0.122842
632.859879	0.122926
633.067047	0.123305
633.274197	0.123470
633.481329	0.123349
633.688442	0.123540
633.895537	0.123831
634.102614	0.123696
634.309672	0.123897
634.516713	0.123787
634.723735	0.123956
634.930739	0.123810
635.137724	0.123763
635.344692	0.124328
635.551641	0.124402
635.758572	0.124440
635.965485	0.124647
636.172379	0.124644
636.379256	0.124882
636.586114	0.124887
636.792954	0.124827
636.999775	0.124740
637.206579	0.124615
637.413364	0.124626
637.620131	0.124619
637.826880	0.124589
638.033610	0.124666
638.240323	0.124733
638.447017	0.124652
638.653692	0.124863
638.860350	0.125159
639.066990	0.125221
639.273611	0.125363
639.480214	0.125394
639.686798	0.125579
639.893365	0.125819
640.099913	0.125920
640.306443	0.126218
640.512955	0.126524
640.719449	0.126433
640.925924	0.126466
641.132381	0.126581
641.338820	0.126869
641.545241	0.127138
641.751644	0.126975
641.958028	0.126924
642.164394	0.126943
642.370742	0.126964
642.577071	0.127099
642.783383	0.127273
642.989676	0.127342
643.195951	0.127310
643.402207	0.126988
643.608446	0.127259
643.814666	0.127511
644.020868	0.127716
644.227052	0.127628
644.433218	0.127882
644.639365	0.128103
644.845494	0.128318
645.051605	0.128595
645.257698	0.128958
645.463772	0.128932
645.669828	0.128945
645.875866	0.128926
646.081886	0.129023
646.287888	0.128816
646.493871	0.128349
646.699836	0.127995
646.905783	0.127848
647.111712	0.127631
647.317622	0.127652
647.523514	0.127644
647.729388	0.127892
647.935244	0.127939
648.141082	0.128193
648.346901	0.128675
648.552702	0.129142
648.758485	0.129406
648.964250	0.130005
649.169996	0.130193
649.375724	0.130525
649.581434	0.130724
649.787126	0.131054
649.992800	0.131338
650.198455	0.131556
650.404092	0.131616
650.609711	0.131721
650.815311	0.131640
651.020894	0.131719
651.226458	0.131888
651.432004	0.131978
651.637532	0.131934
651.843041	0.132011
652.048532	0.132057
652.254006	0.132157
652.459460	0.132097
652.664897	0.132082
652.870315	0.132312
653.075716	0.132259
653.281097	0.132459
653.486461	0.132622
653.691807	0.132673
653.897134	0.132918
654.102443	0.132835
654.307734	0.133257
654.513006	0.133586
654.718261	0.133556
654.923497	0.134071
655.128715	0.133956
655.333915	0.134052
655.539096	0.134318
655.744259	0.134351
655.949404	0.134790
656.154531	0.134630
656.359640	0.134567
656.564730	0.134756
656.769802	0.134436
656.974856	0.134567
657.179892	0.134545
657.384909	0.134447
657.589908	0.134457
657.794889	0.134324
657.999852	0.134405
658.204797	0.134575
658.409723	0.134776
658.614631	0.134777
658.819521	0.134776
659.024393	0.135014
659.229246	0.134963
659.434081	0.135039
659.638898	0.134944
659.843697	0.135081
660.048478	0.135026
660.253240	0.134870
660.457984	0.135137
660.662710	0.135166
660.867417	0.135112
661.072107	0.135127
661.276778	0.135085
661.481431	0.135198
661.686066	0.135267
661.890682	0.135077
662.095281	0.135333
662.299861	0.135336
662.504422	0.135608
662.708966	0.135585
662.913491	0.135695
663.117999	0.135726
663.322488	0.135841
663.526958	0.135833
663.731411	0.136309
663.935845	0.136204
664.140261	0.136113
664.344659	0.135916
664.549038	0.136038
664.753400	0.136165
664.957743	0.136247
665.162068	0.136384
665.366375	0.136465
665.570663	0.136520
665.774933	0.136785
665.979185	0.137025
666.183419	0.137577
666.387635	0.137891
666.591832	0.138210
666.796011	0.138463
667.000172	0.138748
667.204315	0.138794
667.408439	0.138937
667.612545	0.138800
667.816634	0.138778
668.020703	0.138483
668.224755	0.138347
668.428788	0.138137
668.632803	0.138280
668.836800	0.138166
669.040779	0.138499
669.244739	0.138312
669.448681	0.138497
669.652605	0.138798
669.856511	0.138985
670.060399	0.139210
670.264268	0.139577
670.468119	0.139615
670.671952	0.139892
670.875767	0.139938
671.079563	0.140429
671.283341	0.140649
671.487101	0.140648
671.690843	0.140805
671.894567	0.141053
672.098272	0.141244
672.301959	0.141271
672.505628	0.141178
672.709278	0.141380
672.912911	0.141282
673.116525	0.141410
673.320121	0.141551
673.523699	0.141663
673.727258	0.141928
673.930799	0.141876
674.134322	0.142132
674.337827	0.142334
674.541314	0.142210
674.744782	0.142358
674.948232	0.142337
675.151664	0.142216
675.355078	0.142373
675.558474	0.142092
675.761851	0.142349
675.965210	0.142356
676.168551	0.142273
676.371873	0.142421
676.575178	0.142464
676.778464	0.142642
676.981732	0.143018
677.184981	0.142935
677.388213	0.143111
677.591426	0.143188
677.794621	0.143340
677.997798	0.143664
678.200956	0.143818
678.404097	0.143990
678.607219	0.143843
678.810323	0.143944
679.013408	0.144102
679.216476	0.144263
679.419525	0.144392
679.622556	0.144375
679.825569	0.144464
680.028563	0.144563
680.231540	0.144552
680.434498	0.144811
680.637438	0.144921
680.840359	0.144993
681.043263	0.144962
681.246148	0.144846
681.449015	0.144978
681.651864	0.145070
681.854694	0.145139
682.057506	0.145324
682.260301	0.145573
682.463076	0.145559
682.665834	0.145386
682.868573	0.145509
683.071295	0.145464
683.273998	0.145615
683.476682	0.145720
683.679349	0.145690
683.881997	0.145716
684.084627	0.145804
684.287239	0.145759
684.489833	0.146180
684.692408	0.146068
684.894965	0.146098
685.097504	0.146069
685.300025	0.146116
685.502527	0.146482
685.705012	0.146510
685.907478	0.146370
686.109925	0.146532
686.312355	0.146635
686.514766	0.146842
686.717159	0.146952
686.919534	0.147060
687.121891	0.147235
687.324230	0.147405
687.526550	0.147533
687.728852	0.147792
687.931136	0.148009
688.133401	0.148078
688.335649	0.148203
688.537878	0.148477
688.740089	0.148741
688.942281	0.148885
689.144456	0.148895
689.346612	0.149008
689.548750	0.149062
689.750870	0.149171
689.952971	0.149348
690.155055	0.149738
690.357120	0.149836
690.559167	0.149822
690.761195	0.149866
690.963206	0.150051
691.165198	0.150394
691.367172	0.150645
691.569128	0.150895
691.771065	0.151106
691.972984	0.151220
692.174885	0.151516
692.376768	0.151998
692.578633	0.152408
692.780479	0.152499
692.982308	0.152630
693.184118	0.152773
693.385909	0.152623
693.587683	0.152698
