sample name	sample
index	652
start time	 03-19-2021  04:16:43 PM


Wavelength (nm)	Absorbance
494.344910	-1.436009
494.563924	-1.436009
494.782919	-1.436009
495.001897	0.667001
495.220856	-0.729779
495.439797	-0.640815
495.658719	-0.525462
495.877624	-0.563976
496.096510	-0.567929
496.315378	-0.517009
496.534227	-0.262441
496.753059	-0.234931
496.971872	-0.093848
497.190667	0.084969
497.409444	0.094504
497.628203	0.093274
497.846943	0.097459
498.065665	0.096756
498.284369	0.098630
498.503055	0.097290
498.721723	0.097096
498.940372	0.096799
499.159003	0.096883
499.377616	0.097440
499.596210	0.097722
499.814787	0.096321
500.033345	0.096290
500.251885	0.094208
500.470406	0.094581
500.688910	0.094761
500.907395	0.094589
501.125862	0.094015
501.344311	0.093724
501.562742	0.094204
501.781154	0.094836
501.999548	0.095069
502.217924	0.096849
502.436282	0.096860
502.654621	0.096911
502.872942	0.097148
503.091245	0.098434
503.309530	0.098405
503.527797	0.098311
503.746045	0.098175
503.964275	0.098918
504.182487	0.098921
504.400681	0.099356
504.618856	0.099517
504.837013	0.099815
505.055152	0.099478
505.273273	0.099286
505.491376	0.099865
505.709460	0.100294
505.927526	0.099400
506.145574	0.098741
506.363604	0.098578
506.581615	0.098101
506.799608	0.097316
507.017583	0.096727
507.235540	0.097336
507.453478	0.097663
507.671399	0.097477
507.889301	0.097897
508.107185	0.097918
508.325050	0.098040
508.542898	0.098793
508.760727	0.099644
508.978538	0.099731
509.196330	0.099590
509.414105	0.099039
509.631861	0.099455
509.849599	0.099947
510.067319	0.101015
510.285021	0.101000
510.502704	0.101035
510.720369	0.101252
510.938016	0.101323
511.155645	0.102085
511.373255	0.102956
511.590848	0.102597
511.808422	0.102112
512.025977	0.101351
512.243515	0.101528
512.461034	0.101742
512.678536	0.102592
512.896018	0.103426
513.113483	0.102322
513.330930	0.102189
513.548358	0.103009
513.765768	0.103639
513.983160	0.103932
514.200533	0.104420
514.417889	0.104072
514.635226	0.103411
514.852545	0.103908
515.069845	0.104215
515.287128	0.103584
515.504392	0.103645
515.721638	0.103615
515.938866	0.103852
516.156075	0.103512
516.373267	0.104395
516.590440	0.104482
516.807594	0.104244
517.024731	0.105232
517.241850	0.105506
517.458950	0.105448
517.676032	0.105337
517.893095	0.105710
518.110141	0.105713
518.327168	0.104940
518.544177	0.104819
518.761168	0.104675
518.978141	0.104231
519.195095	0.104627
519.412031	0.104479
519.628949	0.104656
519.845849	0.104216
520.062731	0.104476
520.279594	0.105055
520.496439	0.105800
520.713266	0.106659
520.930074	0.106556
521.146865	0.106694
521.363637	0.106499
521.580391	0.106649
521.797127	0.106581
522.013844	0.106863
522.230543	0.106504
522.447224	0.106213
522.663887	0.105310
522.880532	0.105832
523.097158	0.105580
523.313766	0.106346
523.530356	0.106563
523.746928	0.106946
523.963481	0.106123
524.180017	0.106761
524.396534	0.107488
524.613032	0.107607
524.829513	0.107337
525.045975	0.107796
525.262420	0.108175
525.478845	0.108264
525.695253	0.109237
525.911643	0.110608
526.128014	0.111163
526.344367	0.110873
526.560702	0.112133
526.777018	0.112335
526.993316	0.112628
527.209597	0.112352
527.425858	0.112751
527.642102	0.112300
527.858328	0.112195
528.074535	0.112317
528.290724	0.112755
528.506894	0.112130
528.723047	0.112408
528.939181	0.112495
529.155297	0.112974
529.371395	0.112601
529.587475	0.112714
529.803536	0.112797
530.019579	0.112639
530.235604	0.112488
530.451611	0.112981
530.667600	0.113155
530.883570	0.113483
531.099522	0.113311
531.315456	0.114521
531.531372	0.115356
531.747269	0.115787
531.963148	0.116503
532.179009	0.116700
532.394852	0.116855
532.610676	0.116878
532.826482	0.117249
533.042271	0.117315
533.258040	0.116554
533.473792	0.116480
533.689525	0.116660
533.905240	0.116473
534.120937	0.116639
534.336616	0.116873
534.552277	0.117444
534.767919	0.117565
534.983543	0.118324
535.199149	0.119381
535.414736	0.119416
535.630306	0.119440
535.845857	0.119484
536.061390	0.119578
536.276904	0.119387
536.492401	0.119750
536.707879	0.120179
536.923339	0.120098
537.138781	0.119779
537.354204	0.119867
537.569610	0.120224
537.784997	0.120936
538.000366	0.121243
538.215716	0.121915
538.431049	0.122032
538.646363	0.122043
538.861659	0.122447
539.076937	0.122800
539.292196	0.122820
539.507438	0.122396
539.722661	0.121800
539.937866	0.121845
540.153052	0.121380
540.368221	0.121333
540.583371	0.121534
540.798503	0.121654
541.013617	0.122151
541.228712	0.122370
541.443789	0.123047
541.658848	0.123785
541.873889	0.123878
542.088912	0.124332
542.303916	0.124940
542.518902	0.125075
542.733870	0.125224
542.948820	0.125219
543.163752	0.125514
543.378665	0.125313
543.593560	0.125420
543.808437	0.126108
544.023295	0.126091
544.238136	0.126055
544.452958	0.126032
544.667762	0.125724
544.882548	0.125519
545.097315	0.125719
545.312064	0.126064
545.526795	0.126221
545.741508	0.125897
545.956203	0.125944
546.170879	0.125731
546.385537	0.125792
546.600177	0.126148
546.814799	0.126431
547.029402	0.126473
547.243988	0.126751
547.458555	0.126675
547.673103	0.126698
547.887634	0.127432
548.102146	0.127836
548.316640	0.128154
548.531116	0.128384
548.745574	0.128671
548.960013	0.128846
549.174435	0.129056
549.388838	0.129676
549.603222	0.130436
549.817589	0.130398
550.031937	0.130748
550.246267	0.130928
550.460579	0.131052
550.674873	0.131254
550.889148	0.131716
551.103405	0.131548
551.317644	0.131474
551.531865	0.131534
551.746068	0.131447
551.960252	0.131361
552.174418	0.131127
552.388566	0.131044
552.602696	0.131345
552.816807	0.131264
553.030900	0.131759
553.244975	0.131855
553.459032	0.131928
553.673070	0.132177
553.887091	0.132250
554.101093	0.132695
554.315077	0.133494
554.529042	0.133436
554.742990	0.133476
554.956919	0.133665
555.170830	0.133782
555.384722	0.133831
555.598597	0.134091
555.812453	0.134742
556.026291	0.134804
556.240111	0.134602
556.453913	0.134492
556.667696	0.134690
556.881461	0.134858
557.095208	0.134858
557.308937	0.134935
557.522647	0.134861
557.736339	0.135071
557.950013	0.135393
558.163669	0.135542
558.377307	0.135574
558.590926	0.135368
558.804527	0.135508
559.018110	0.135765
559.231675	0.136302
559.445221	0.136372
559.658749	0.135768
559.872259	0.135884
560.085751	0.136132
560.299225	0.136672
560.512680	0.137329
560.726117	0.137310
560.939536	0.137399
561.152937	0.137568
561.366319	0.138127
561.579683	0.138373
561.793029	0.138148
562.006357	0.137804
562.219667	0.137536
562.432958	0.137543
562.646231	0.137758
562.859486	0.138144
563.072723	0.138104
563.285941	0.138302
563.499141	0.138621
563.712323	0.138876
563.925487	0.139337
564.138632	0.139704
564.351760	0.139705
564.564869	0.139872
564.777960	0.140096
564.991032	0.139813
565.204087	0.139670
565.417123	0.139878
565.630141	0.140042
565.843140	0.139989
566.056122	0.140347
566.269085	0.140639
566.482030	0.140670
566.694957	0.140590
566.907866	0.141062
567.120756	0.141316
567.333628	0.141529
567.546482	0.141957
567.759318	0.142461
567.972135	0.142485
568.184935	0.142748
568.397716	0.142942
568.610478	0.143037
568.823223	0.143017
569.035949	0.143176
569.248657	0.143095
569.461347	0.143225
569.674019	0.143088
569.886672	0.142959
570.099308	0.142906
570.311925	0.142998
570.524523	0.143139
570.737104	0.143190
570.949666	0.143100
571.162210	0.143619
571.374736	0.143490
571.587244	0.143468
571.799733	0.143863
572.012205	0.144059
572.224658	0.144039
572.437092	0.143987
572.649509	0.144297
572.861907	0.144753
573.074287	0.144760
573.286649	0.145205
573.498993	0.145632
573.711318	0.145452
573.923625	0.145495
574.135914	0.145785
574.348185	0.145881
574.560438	0.146148
574.772672	0.146142
574.984888	0.146288
575.197086	0.145787
575.409266	0.146288
575.621427	0.146600
575.833570	0.146987
576.045695	0.146934
576.257802	0.146891
576.469890	0.146830
576.681961	0.146782
576.894013	0.146718
577.106046	0.147269
577.318062	0.146764
577.530059	0.146977
577.742039	0.146835
577.954000	0.146813
578.165942	0.147212
578.377867	0.147162
578.589773	0.147137
578.801661	0.147168
579.013531	0.146923
579.225382	0.146943
579.437216	0.146860
579.649031	0.146697
579.860828	0.146717
580.072606	0.146903
580.284367	0.147403
580.496109	0.147533
580.707833	0.147790
580.919539	0.148159
581.131227	0.148433
581.342896	0.148765
581.554547	0.148958
581.766180	0.149243
581.977795	0.149332
582.189391	0.149279
582.400969	0.149363
582.612529	0.149195
582.824071	0.149250
583.035595	0.149340
583.247100	0.149221
583.458587	0.149643
583.670056	0.149930
583.881506	0.150218
584.092939	0.150331
584.304353	0.150672
584.515749	0.150853
584.727127	0.150715
584.938486	0.150839
585.149828	0.151310
585.361151	0.151409
585.572456	0.151382
585.783742	0.151201
585.995011	0.151075
586.206261	0.151122
586.417493	0.151378
586.628706	0.151834
586.839902	0.152005
587.051079	0.151742
587.262238	0.151569
587.473379	0.151714
587.684502	0.151849
587.895606	0.152149
588.106692	0.152114
588.317760	0.151827
588.528810	0.151607
588.739841	0.151708
588.950855	0.151862
589.161850	0.152227
589.372827	0.152354
589.583785	0.152776
589.794726	0.152723
590.005648	0.153121
590.216552	0.153309
590.427437	0.153871
590.638305	0.154001
590.849154	0.154341
591.059985	0.154450
591.270798	0.154711
591.481592	0.154626
591.692369	0.154965
591.903127	0.155117
592.113867	0.155471
592.324588	0.155549
592.535292	0.155684
592.745977	0.155607
592.956644	0.155586
593.167293	0.155421
593.377923	0.155691
593.588536	0.155866
593.799130	0.156083
594.009706	0.156088
594.220263	0.156156
594.430803	0.156466
594.641324	0.156624
594.851827	0.156458
595.062312	0.156688
595.272778	0.156589
595.483227	0.156681
595.693657	0.156690
595.904069	0.157050
596.114462	0.157283
596.324838	0.157370
596.535195	0.157587
596.745534	0.158022
596.955855	0.158401
597.166157	0.159031
597.376441	0.159130
597.586707	0.158811
597.796955	0.159176
598.007185	0.159228
598.217396	0.159500
598.427589	0.159427
598.637764	0.159237
598.847921	0.159321
599.058060	0.158926
599.268180	0.158812
599.478282	0.159326
599.688366	0.158894
599.898431	0.159076
600.108479	0.158982
600.318508	0.159373
600.528519	0.159732
600.738511	0.159709
600.948486	0.160061
601.158442	0.160292
601.368380	0.160350
601.578300	0.160721
601.788202	0.160832
601.998085	0.160907
602.207950	0.161132
602.417797	0.161298
602.627626	0.161945
602.837436	0.161881
603.047228	0.162196
603.257002	0.162276
603.466758	0.162263
603.676496	0.162480
603.886215	0.162559
604.095916	0.162254
604.305599	0.162428
604.515264	0.162002
604.724910	0.161952
604.934538	0.161855
605.144148	0.161892
605.353740	0.161913
605.563314	0.161608
605.772869	0.161781
605.982406	0.162076
606.191925	0.161978
606.401425	0.162104
606.610908	0.162300
606.820372	0.162366
607.029818	0.162581
607.239246	0.162897
607.448655	0.163377
607.658047	0.163391
607.867420	0.163644
608.076775	0.163647
608.286111	0.163716
608.495430	0.163865
608.704730	0.163580
608.914012	0.163679
609.123275	0.163790
609.332521	0.163631
609.541748	0.163722
609.750957	0.163571
609.960148	0.164122
610.169321	0.164531
610.378475	0.164588
610.587611	0.165352
610.796729	0.165371
611.005829	0.165586
611.214910	0.165892
611.423974	0.166011
611.633019	0.166019
611.842045	0.166118
612.051054	0.165756
612.260044	0.166056
612.469017	0.165951
612.677970	0.166152
612.886906	0.166160
613.095824	0.166028
613.304723	0.166357
613.513604	0.166639
613.722467	0.166686
613.931311	0.167069
614.140138	0.167162
614.348946	0.167157
614.557736	0.167359
614.766507	0.167366
614.975261	0.167773
615.183996	0.167591
615.392713	0.167639
615.601412	0.167722
615.810092	0.167836
616.018754	0.167735
616.227399	0.167952
616.436024	0.167857
616.644632	0.167893
616.853222	0.167623
617.061793	0.167612
617.270346	0.167811
617.478880	0.167757
617.687397	0.167795
617.895895	0.167951
618.104375	0.167772
618.312837	0.167475
618.521281	0.167397
618.729706	0.167592
618.938113	0.167860
619.146502	0.167705
619.354873	0.167863
619.563226	0.168022
619.771560	0.168219
619.979876	0.168549
620.188174	0.168947
620.396453	0.169176
620.604715	0.169491
620.812958	0.169675
621.021183	0.169872
621.229390	0.169978
621.437578	0.169950
621.645748	0.169831
621.853900	0.169869
622.062034	0.170254
622.270150	0.170350
622.478247	0.170071
622.686326	0.170158
622.894387	0.170316
623.102430	0.170438
623.310454	0.170560
623.518461	0.170916
623.726449	0.171094
623.934418	0.170800
624.142370	0.171018
624.350303	0.171459
624.558218	0.171397
624.766115	0.171639
624.973994	0.171494
625.181855	0.171646
625.389697	0.171311
625.597521	0.171385
625.805327	0.171575
626.013114	0.171513
626.220883	0.171430
626.428634	0.171600
626.636367	0.171587
626.844082	0.171693
627.051778	0.171634
627.259457	0.171952
627.467117	0.171991
627.674758	0.172212
627.882382	0.172254
628.089987	0.172241
628.297574	0.172264
628.505143	0.172163
628.712694	0.172419
628.920226	0.172593
629.127740	0.172781
629.335236	0.172796
629.542714	0.172890
629.750174	0.173286
629.957615	0.173432
630.165038	0.173457
630.372443	0.173488
630.579829	0.173673
630.787198	0.173637
630.994548	0.173699
631.201880	0.173931
631.409194	0.173906
631.616489	0.173768
631.823766	0.173636
632.031025	0.173774
632.238266	0.173922
632.445489	0.174015
632.652693	0.174344
632.859879	0.174384
633.067047	0.174480
633.274197	0.174335
633.481329	0.174477
633.688442	0.174812
633.895537	0.174804
634.102614	0.175189
634.309672	0.175235
634.516713	0.175080
634.723735	0.175085
634.930739	0.175047
635.137724	0.175589
635.344692	0.175694
635.551641	0.175950
635.758572	0.176209
635.965485	0.176103
636.172379	0.176177
636.379256	0.176387
636.586114	0.176925
636.792954	0.177334
636.999775	0.177094
637.206579	0.177384
637.413364	0.177312
637.620131	0.177676
637.826880	0.177926
638.033610	0.177968
638.240323	0.178328
638.447017	0.178208
638.653692	0.178237
638.860350	0.178581
639.066990	0.178675
639.273611	0.179061
639.480214	0.178998
639.686798	0.178894
639.893365	0.179247
640.099913	0.178998
640.306443	0.178832
640.512955	0.178950
640.719449	0.178835
640.925924	0.178826
641.132381	0.178671
641.338820	0.178344
641.545241	0.178290
641.751644	0.178122
641.958028	0.178218
642.164394	0.178483
642.370742	0.178353
642.577071	0.178450
642.783383	0.178649
642.989676	0.178768
643.195951	0.179447
643.402207	0.179729
643.608446	0.179962
643.814666	0.180182
644.020868	0.180408
644.227052	0.180813
644.433218	0.181163
644.639365	0.181129
644.845494	0.181403
645.051605	0.181374
645.257698	0.181490
645.463772	0.181468
645.669828	0.181702
645.875866	0.181878
646.081886	0.181752
646.287888	0.181885
646.493871	0.181925
646.699836	0.181799
646.905783	0.181965
647.111712	0.182075
647.317622	0.182288
647.523514	0.182181
647.729388	0.182226
647.935244	0.182448
648.141082	0.182386
648.346901	0.182437
648.552702	0.182829
648.758485	0.182788
648.964250	0.182911
649.169996	0.183066
649.375724	0.183302
649.581434	0.183255
649.787126	0.183572
649.992800	0.183806
650.198455	0.183997
650.404092	0.184223
650.609711	0.184389
650.815311	0.184771
651.020894	0.184689
651.226458	0.184841
651.432004	0.185157
651.637532	0.184899
651.843041	0.184941
652.048532	0.185088
652.254006	0.184840
652.459460	0.185055
652.664897	0.184839
652.870315	0.185199
653.075716	0.185372
653.281097	0.185345
653.486461	0.185297
653.691807	0.185429
653.897134	0.185488
654.102443	0.185716
654.307734	0.185763
654.513006	0.185718
654.718261	0.185673
654.923497	0.185684
655.128715	0.185866
655.333915	0.186253
655.539096	0.186509
655.744259	0.186874
655.949404	0.187096
656.154531	0.187092
656.359640	0.187518
656.564730	0.187674
656.769802	0.187758
656.974856	0.187709
657.179892	0.187906
657.384909	0.187790
657.589908	0.187813
657.794889	0.187773
657.999852	0.188174
658.204797	0.188333
658.409723	0.188523
658.614631	0.188672
658.819521	0.189057
659.024393	0.189195
659.229246	0.189278
659.434081	0.189316
659.638898	0.189536
659.843697	0.189222
660.048478	0.189250
660.253240	0.189322
660.457984	0.189269
660.662710	0.189149
660.867417	0.189239
661.072107	0.189506
661.276778	0.189666
661.481431	0.189515
661.686066	0.189777
661.890682	0.189985
662.095281	0.190260
662.299861	0.190573
662.504422	0.190771
662.708966	0.190823
662.913491	0.190870
663.117999	0.190930
663.322488	0.191003
663.526958	0.191152
663.731411	0.191166
663.935845	0.191117
664.140261	0.191148
664.344659	0.191030
664.549038	0.191021
664.753400	0.191311
664.957743	0.191660
665.162068	0.191923
665.366375	0.192051
665.570663	0.192051
665.774933	0.192061
665.979185	0.192291
666.183419	0.192588
666.387635	0.192804
666.591832	0.192991
666.796011	0.192915
667.000172	0.193081
667.204315	0.193525
667.408439	0.193800
667.612545	0.194030
667.816634	0.194141
668.020703	0.194385
668.224755	0.194616
668.428788	0.194793
668.632803	0.194914
668.836800	0.195060
669.040779	0.194915
669.244739	0.195080
669.448681	0.195309
669.652605	0.195418
669.856511	0.195558
670.060399	0.195763
670.264268	0.195900
670.468119	0.196020
670.671952	0.196202
670.875767	0.196404
671.079563	0.196416
671.283341	0.196504
671.487101	0.196676
671.690843	0.196928
671.894567	0.196918
672.098272	0.197062
672.301959	0.197257
672.505628	0.197178
672.709278	0.197291
672.912911	0.197314
673.116525	0.197203
673.320121	0.197284
673.523699	0.197258
673.727258	0.197241
673.930799	0.197142
674.134322	0.197261
674.337827	0.197658
674.541314	0.197721
674.744782	0.198109
674.948232	0.198363
675.151664	0.198478
675.355078	0.198765
675.558474	0.198976
675.761851	0.199042
675.965210	0.199024
676.168551	0.198941
676.371873	0.199001
676.575178	0.199133
676.778464	0.199200
676.981732	0.199314
677.184981	0.199286
677.388213	0.199548
677.591426	0.199731
677.794621	0.199838
677.997798	0.200109
678.200956	0.200381
678.404097	0.200684
678.607219	0.201044
678.810323	0.201122
679.013408	0.201256
679.216476	0.201572
679.419525	0.201869
679.622556	0.202179
679.825569	0.202338
680.028563	0.202502
680.231540	0.202425
680.434498	0.202427
680.637438	0.202471
680.840359	0.202402
681.043263	0.202200
681.246148	0.202133
681.449015	0.202147
681.651864	0.202037
681.854694	0.202306
682.057506	0.202325
682.260301	0.202413
682.463076	0.202639
682.665834	0.202881
682.868573	0.203187
683.071295	0.203265
683.273998	0.203468
683.476682	0.203723
683.679349	0.203516
683.881997	0.203693
684.084627	0.203634
684.287239	0.203843
684.489833	0.204145
684.692408	0.204189
684.894965	0.204324
685.097504	0.204372
685.300025	0.204434
685.502527	0.204762
685.705012	0.204887
685.907478	0.205098
686.109925	0.205246
686.312355	0.205073
686.514766	0.205155
686.717159	0.205422
686.919534	0.205650
687.121891	0.205669
687.324230	0.205604
687.526550	0.205681
687.728852	0.205753
687.931136	0.205646
688.133401	0.205832
688.335649	0.205736
688.537878	0.205666
688.740089	0.205708
688.942281	0.205978
689.144456	0.206111
689.346612	0.206162
689.548750	0.206295
689.750870	0.206530
689.952971	0.206532
690.155055	0.206732
690.357120	0.206877
690.559167	0.207091
690.761195	0.207159
690.963206	0.207217
691.165198	0.207334
691.367172	0.207520
691.569128	0.207382
691.771065	0.207565
691.972984	0.207710
692.174885	0.208042
692.376768	0.208020
692.578633	0.208175
692.780479	0.208291
692.982308	0.208358
693.184118	0.208275
693.385909	0.208548
