sample name	sample
index	973
start time	 04-14-2021  02:39:07 PM


Wavelength (nm)	Absorbance
494.344910	0.201066
494.563924	0.201066
494.782919	0.201066
495.001897	-0.010425
495.220856	0.065472
495.439797	0.049824
495.658719	0.019808
495.877624	0.003360
496.096510	0.005830
496.315378	0.002685
496.534227	0.000312
496.753059	0.007469
496.971872	0.007076
497.190667	0.127739
497.409444	0.161684
497.628203	0.177112
497.846943	0.182480
498.065665	0.187088
498.284369	0.187774
498.503055	0.189310
498.721723	0.190841
498.940372	0.193710
499.159003	0.194463
499.377616	0.195588
499.596210	0.196294
499.814787	0.196467
500.033345	0.197619
500.251885	0.201274
500.470406	0.203310
500.688910	0.203311
500.907395	0.203024
501.125862	0.202950
501.344311	0.202910
501.562742	0.204620
501.781154	0.204952
501.999548	0.203869
502.217924	0.201994
502.436282	0.200463
502.654621	0.201666
502.872942	0.199540
503.091245	0.198301
503.309530	0.197879
503.527797	0.196210
503.746045	0.198138
503.964275	0.198971
504.182487	0.199906
504.400681	0.200973
504.618856	0.201861
504.837013	0.204465
505.055152	0.205093
505.273273	0.206278
505.491376	0.206969
505.709460	0.206499
505.927526	0.206654
506.145574	0.207395
506.363604	0.206749
506.581615	0.206376
506.799608	0.206196
507.017583	0.208029
507.235540	0.207479
507.453478	0.207174
507.671399	0.207189
507.889301	0.207125
508.107185	0.206087
508.325050	0.208097
508.542898	0.207305
508.760727	0.208095
508.978538	0.207004
509.196330	0.207362
509.414105	0.207000
509.631861	0.205891
509.849599	0.206493
510.067319	0.207353
510.285021	0.207416
510.502704	0.207703
510.720369	0.207977
510.938016	0.208005
511.155645	0.208230
511.373255	0.209083
511.590848	0.209544
511.808422	0.209366
512.025977	0.209516
512.243515	0.208386
512.461034	0.209180
512.678536	0.209057
512.896018	0.209154
513.113483	0.209138
513.330930	0.209244
513.548358	0.210467
513.765768	0.210656
513.983160	0.210953
514.200533	0.210955
514.417889	0.211265
514.635226	0.211384
514.852545	0.211643
515.069845	0.212905
515.287128	0.213688
515.504392	0.214042
515.721638	0.214865
515.938866	0.214732
516.156075	0.215029
516.373267	0.213916
516.590440	0.213961
516.807594	0.216192
517.024731	0.215539
517.241850	0.215503
517.458950	0.215199
517.676032	0.214406
517.893095	0.214341
518.110141	0.215038
518.327168	0.215434
518.544177	0.214716
518.761168	0.213594
518.978141	0.214582
519.195095	0.214662
519.412031	0.215625
519.628949	0.216390
519.845849	0.216319
520.062731	0.216341
520.279594	0.217044
520.496439	0.217581
520.713266	0.218445
520.930074	0.218547
521.146865	0.218573
521.363637	0.218253
521.580391	0.218540
521.797127	0.219325
522.013844	0.219822
522.230543	0.220445
522.447224	0.221357
522.663887	0.220835
522.880532	0.221257
523.097158	0.222307
523.313766	0.222815
523.530356	0.223056
523.746928	0.223309
523.963481	0.223360
524.180017	0.224224
524.396534	0.225307
524.613032	0.225996
524.829513	0.226586
525.045975	0.226946
525.262420	0.227537
525.478845	0.227368
525.695253	0.228324
525.911643	0.229007
526.128014	0.228818
526.344367	0.227960
526.560702	0.228025
526.777018	0.227839
526.993316	0.227845
527.209597	0.227652
527.425858	0.228867
527.642102	0.228739
527.858328	0.229106
528.074535	0.229511
528.290724	0.230108
528.506894	0.230204
528.723047	0.230360
528.939181	0.230463
529.155297	0.230532
529.371395	0.230571
529.587475	0.230624
529.803536	0.231001
530.019579	0.230953
530.235604	0.231995
530.451611	0.232740
530.667600	0.233323
530.883570	0.234432
531.099522	0.234756
531.315456	0.234980
531.531372	0.235868
531.747269	0.235615
531.963148	0.236276
532.179009	0.236043
532.394852	0.236632
532.610676	0.236946
532.826482	0.236918
533.042271	0.237984
533.258040	0.238703
533.473792	0.238913
533.689525	0.239469
533.905240	0.240133
534.120937	0.240698
534.336616	0.240840
534.552277	0.240819
534.767919	0.240969
534.983543	0.240646
535.199149	0.241078
535.414736	0.240963
535.630306	0.242062
535.845857	0.242203
536.061390	0.242323
536.276904	0.242114
536.492401	0.242800
536.707879	0.242749
536.923339	0.243413
537.138781	0.243865
537.354204	0.244203
537.569610	0.244128
537.784997	0.244097
538.000366	0.244602
538.215716	0.245390
538.431049	0.245199
538.646363	0.246174
538.861659	0.246867
539.076937	0.246504
539.292196	0.247332
539.507438	0.247131
539.722661	0.247701
539.937866	0.248273
540.153052	0.249116
540.368221	0.250032
540.583371	0.249950
540.798503	0.250117
541.013617	0.251318
541.228712	0.251620
541.443789	0.252028
541.658848	0.252399
541.873889	0.252604
542.088912	0.253470
542.303916	0.254078
542.518902	0.254913
542.733870	0.255746
542.948820	0.255950
543.163752	0.256128
543.378665	0.256838
543.593560	0.257361
543.808437	0.257736
544.023295	0.257579
544.238136	0.257668
544.452958	0.257668
544.667762	0.257644
544.882548	0.258107
545.097315	0.258406
545.312064	0.258697
545.526795	0.258747
545.741508	0.259121
545.956203	0.259149
546.170879	0.259512
546.385537	0.259914
546.600177	0.260039
546.814799	0.259734
547.029402	0.259971
547.243988	0.260332
547.458555	0.260990
547.673103	0.260731
547.887634	0.260864
548.102146	0.261255
548.316640	0.261507
548.531116	0.262107
548.745574	0.262575
548.960013	0.262824
549.174435	0.263388
549.388838	0.263561
549.603222	0.264395
549.817589	0.265332
550.031937	0.265306
550.246267	0.265887
550.460579	0.265655
550.674873	0.265658
550.889148	0.265872
551.103405	0.265815
551.317644	0.266148
551.531865	0.266007
551.746068	0.265568
551.960252	0.265877
552.174418	0.266134
552.388566	0.266715
552.602696	0.267207
552.816807	0.267694
553.030900	0.267994
553.244975	0.268013
553.459032	0.267911
553.673070	0.268135
553.887091	0.268687
554.101093	0.269260
554.315077	0.269249
554.529042	0.269485
554.742990	0.269978
554.956919	0.270320
555.170830	0.270070
555.384722	0.270405
555.598597	0.270672
555.812453	0.270177
556.026291	0.269996
556.240111	0.270701
556.453913	0.270967
556.667696	0.270977
556.881461	0.270978
557.095208	0.271777
557.308937	0.272112
557.522647	0.272067
557.736339	0.272531
557.950013	0.272238
558.163669	0.272303
558.377307	0.272576
558.590926	0.272681
558.804527	0.273226
559.018110	0.273440
559.231675	0.273658
559.445221	0.274310
559.658749	0.274750
559.872259	0.275132
560.085751	0.275105
560.299225	0.275093
560.512680	0.275342
560.726117	0.275288
560.939536	0.275427
561.152937	0.275803
561.366319	0.276380
561.579683	0.276958
561.793029	0.277153
562.006357	0.277223
562.219667	0.277547
562.432958	0.278076
562.646231	0.278570
562.859486	0.278869
563.072723	0.279155
563.285941	0.278947
563.499141	0.279074
563.712323	0.279744
563.925487	0.279729
564.138632	0.279670
564.351760	0.279051
564.564869	0.278763
564.777960	0.278557
564.991032	0.278831
565.204087	0.278755
565.417123	0.278332
565.630141	0.278765
565.843140	0.279745
566.056122	0.280105
566.269085	0.280648
566.482030	0.281151
566.694957	0.281653
566.907866	0.281732
567.120756	0.281726
567.333628	0.282043
567.546482	0.281452
567.759318	0.281251
567.972135	0.281635
568.184935	0.281959
568.397716	0.282581
568.610478	0.282599
568.823223	0.282695
569.035949	0.283668
569.248657	0.283758
569.461347	0.284515
569.674019	0.284286
569.886672	0.284049
570.099308	0.284200
570.311925	0.284286
570.524523	0.284753
570.737104	0.285069
570.949666	0.284756
571.162210	0.285659
571.374736	0.285460
571.587244	0.285829
571.799733	0.286253
572.012205	0.286248
572.224658	0.285821
572.437092	0.285659
572.649509	0.286096
572.861907	0.286452
573.074287	0.286167
573.286649	0.286264
573.498993	0.286502
573.711318	0.286487
573.923625	0.286811
574.135914	0.287233
574.348185	0.287339
574.560438	0.287482
574.772672	0.287713
574.984888	0.288027
575.197086	0.288182
575.409266	0.288442
575.621427	0.288915
575.833570	0.289210
576.045695	0.289653
576.257802	0.290031
576.469890	0.289906
576.681961	0.289573
576.894013	0.289687
577.106046	0.290029
577.318062	0.290060
577.530059	0.290122
577.742039	0.290281
577.954000	0.289958
578.165942	0.289871
578.377867	0.289515
578.589773	0.290475
578.801661	0.290372
579.013531	0.290358
579.225382	0.290474
579.437216	0.290493
579.649031	0.290708
579.860828	0.290859
580.072606	0.291216
580.284367	0.292283
580.496109	0.291851
580.707833	0.292040
580.919539	0.292389
581.131227	0.292740
581.342896	0.293604
581.554547	0.293610
581.766180	0.294109
581.977795	0.294493
582.189391	0.294755
582.400969	0.295289
582.612529	0.295562
582.824071	0.295975
583.035595	0.296376
583.247100	0.295748
583.458587	0.296377
583.670056	0.296340
583.881506	0.296684
584.092939	0.296430
584.304353	0.296302
584.515749	0.296684
584.727127	0.296632
584.938486	0.296754
585.149828	0.297271
585.361151	0.297416
585.572456	0.297233
585.783742	0.297437
585.995011	0.297746
586.206261	0.298426
586.417493	0.298289
586.628706	0.298324
586.839902	0.298586
587.051079	0.299306
587.262238	0.299293
587.473379	0.300154
587.684502	0.300482
587.895606	0.301061
588.106692	0.301435
588.317760	0.302150
588.528810	0.302708
588.739841	0.302781
588.950855	0.302665
589.161850	0.302794
589.372827	0.303039
589.583785	0.303165
589.794726	0.302705
590.005648	0.302634
590.216552	0.302524
590.427437	0.302663
590.638305	0.302932
590.849154	0.303001
591.059985	0.303249
591.270798	0.303022
591.481592	0.302698
591.692369	0.303070
591.903127	0.302654
592.113867	0.303010
592.324588	0.303299
592.535292	0.303786
592.745977	0.303468
592.956644	0.303427
593.167293	0.303713
593.377923	0.304251
593.588536	0.304593
593.799130	0.305429
594.009706	0.305613
594.220263	0.305784
594.430803	0.305758
594.641324	0.306132
594.851827	0.306703
595.062312	0.307090
595.272778	0.307183
595.483227	0.307549
595.693657	0.307395
595.904069	0.307363
596.114462	0.307644
596.324838	0.307327
596.535195	0.307547
596.745534	0.307728
596.955855	0.307995
597.166157	0.308180
597.376441	0.308169
597.586707	0.308682
597.796955	0.308702
598.007185	0.308460
598.217396	0.309058
598.427589	0.309237
598.637764	0.309047
598.847921	0.308884
599.058060	0.309209
599.268180	0.308960
599.478282	0.308735
599.688366	0.308601
599.898431	0.308607
600.108479	0.308557
600.318508	0.308730
600.528519	0.309182
600.738511	0.309719
600.948486	0.309315
601.158442	0.309780
601.368380	0.310131
601.578300	0.310613
601.788202	0.311325
601.998085	0.311841
602.207950	0.312266
602.417797	0.312396
602.627626	0.312350
602.837436	0.312970
603.047228	0.312992
603.257002	0.313267
603.466758	0.313752
603.676496	0.313628
603.886215	0.313504
604.095916	0.313298
604.305599	0.313703
604.515264	0.314013
604.724910	0.314381
604.934538	0.314500
605.144148	0.314618
605.353740	0.314885
605.563314	0.314858
605.772869	0.315133
605.982406	0.315413
606.191925	0.315434
606.401425	0.315487
606.610908	0.315218
606.820372	0.315636
607.029818	0.315501
607.239246	0.315453
607.448655	0.316015
607.658047	0.316100
607.867420	0.316487
608.076775	0.316602
608.286111	0.316906
608.495430	0.317234
608.704730	0.317271
608.914012	0.318024
609.123275	0.318296
609.332521	0.318551
609.541748	0.318915
609.750957	0.319242
609.960148	0.319531
610.169321	0.319824
610.378475	0.319964
610.587611	0.320277
610.796729	0.319544
611.005829	0.319569
611.214910	0.319417
611.423974	0.319494
611.633019	0.319726
611.842045	0.319902
612.051054	0.319543
612.260044	0.319563
612.469017	0.319800
612.677970	0.320385
612.886906	0.320472
613.095824	0.320725
613.304723	0.321017
613.513604	0.320882
613.722467	0.320547
613.931311	0.320865
614.140138	0.320776
614.348946	0.320562
614.557736	0.320530
614.766507	0.320340
614.975261	0.320515
615.183996	0.320442
615.392713	0.320697
615.601412	0.321295
615.810092	0.321434
616.018754	0.322043
616.227399	0.322337
616.436024	0.322805
616.644632	0.323536
616.853222	0.323473
617.061793	0.323708
617.270346	0.323929
617.478880	0.323756
617.687397	0.323823
617.895895	0.323854
618.104375	0.324152
618.312837	0.324274
618.521281	0.324330
618.729706	0.324558
618.938113	0.324516
619.146502	0.324462
619.354873	0.324716
619.563226	0.325067
619.771560	0.325182
619.979876	0.325028
620.188174	0.325166
620.396453	0.325160
620.604715	0.325381
620.812958	0.325569
621.021183	0.325758
621.229390	0.325870
621.437578	0.325915
621.645748	0.326459
621.853900	0.326733
622.062034	0.326798
622.270150	0.327310
622.478247	0.327530
622.686326	0.327834
622.894387	0.328201
623.102430	0.328373
623.310454	0.328324
623.518461	0.328311
623.726449	0.328564
623.934418	0.328891
624.142370	0.328571
624.350303	0.328647
624.558218	0.328677
624.766115	0.328631
624.973994	0.328895
625.181855	0.329583
625.389697	0.329550
625.597521	0.329573
625.805327	0.329720
626.013114	0.330018
626.220883	0.330454
626.428634	0.330464
626.636367	0.330718
626.844082	0.330350
627.051778	0.330580
627.259457	0.331149
627.467117	0.331528
627.674758	0.331646
627.882382	0.331921
628.089987	0.331903
628.297574	0.332236
628.505143	0.332365
628.712694	0.333301
628.920226	0.333047
629.127740	0.332764
629.335236	0.333100
629.542714	0.333300
629.750174	0.333471
629.957615	0.333808
630.165038	0.334169
630.372443	0.334148
630.579829	0.334010
630.787198	0.334226
630.994548	0.334656
631.201880	0.334659
631.409194	0.335085
631.616489	0.335398
631.823766	0.335384
632.031025	0.335494
632.238266	0.335631
632.445489	0.335703
632.652693	0.335899
632.859879	0.335977
633.067047	0.335812
633.274197	0.335634
633.481329	0.335623
633.688442	0.335629
633.895537	0.335970
634.102614	0.336409
634.309672	0.336746
634.516713	0.337085
634.723735	0.337229
634.930739	0.337574
635.137724	0.337796
635.344692	0.337871
635.551641	0.338088
635.758572	0.337961
635.965485	0.338009
636.172379	0.338395
636.379256	0.338374
636.586114	0.338716
636.792954	0.339132
636.999775	0.339209
637.206579	0.339484
637.413364	0.339695
637.620131	0.339789
637.826880	0.339980
638.033610	0.339809
638.240323	0.339788
638.447017	0.339864
638.653692	0.340127
638.860350	0.340385
639.066990	0.340501
639.273611	0.341204
639.480214	0.341499
639.686798	0.341940
639.893365	0.342541
640.099913	0.343140
640.306443	0.343311
640.512955	0.343414
640.719449	0.344101
640.925924	0.344308
641.132381	0.344018
641.338820	0.344334
641.545241	0.344207
641.751644	0.344269
641.958028	0.344350
642.164394	0.344693
642.370742	0.345031
642.577071	0.344862
642.783383	0.344959
642.989676	0.345385
643.195951	0.345637
643.402207	0.345824
643.608446	0.345732
643.814666	0.346128
644.020868	0.345977
644.227052	0.346171
644.433218	0.346382
644.639365	0.346846
644.845494	0.346768
645.051605	0.346817
645.257698	0.347116
645.463772	0.347621
645.669828	0.347473
645.875866	0.348069
646.081886	0.347835
646.287888	0.348075
646.493871	0.348393
646.699836	0.348725
646.905783	0.349065
647.111712	0.349651
647.317622	0.349881
647.523514	0.350062
647.729388	0.350157
647.935244	0.350279
648.141082	0.350307
648.346901	0.350489
648.552702	0.350686
648.758485	0.350484
648.964250	0.350428
649.169996	0.350460
649.375724	0.350934
649.581434	0.351085
649.787126	0.351494
649.992800	0.352031
650.198455	0.352340
650.404092	0.352493
650.609711	0.353208
650.815311	0.353425
651.020894	0.353767
651.226458	0.353793
651.432004	0.354346
651.637532	0.354693
651.843041	0.354927
652.048532	0.355093
652.254006	0.355529
652.459460	0.355907
652.664897	0.356364
652.870315	0.356650
653.075716	0.357257
653.281097	0.357304
653.486461	0.357711
653.691807	0.357772
653.897134	0.358120
654.102443	0.358157
654.307734	0.358135
654.513006	0.357995
654.718261	0.358366
654.923497	0.358319
655.128715	0.358105
655.333915	0.358135
655.539096	0.358399
655.744259	0.358059
655.949404	0.358190
656.154531	0.358463
656.359640	0.358861
656.564730	0.359129
656.769802	0.359399
656.974856	0.359972
657.179892	0.360241
657.384909	0.360252
657.589908	0.360628
657.794889	0.360984
657.999852	0.361167
658.204797	0.361538
658.409723	0.361563
658.614631	0.361901
658.819521	0.362064
659.024393	0.362238
659.229246	0.362652
659.434081	0.362884
659.638898	0.363050
659.843697	0.363086
660.048478	0.362947
660.253240	0.362936
660.457984	0.362933
660.662710	0.363252
660.867417	0.363425
661.072107	0.363477
661.276778	0.363668
661.481431	0.364127
661.686066	0.364605
661.890682	0.365095
662.095281	0.365367
662.299861	0.365733
662.504422	0.365747
662.708966	0.366177
662.913491	0.366572
663.117999	0.366956
663.322488	0.366699
663.526958	0.366808
663.731411	0.367037
663.935845	0.367367
664.140261	0.367395
664.344659	0.367828
664.549038	0.367871
664.753400	0.368127
664.957743	0.368216
665.162068	0.368721
665.366375	0.368921
665.570663	0.369048
665.774933	0.369388
665.979185	0.369690
666.183419	0.369858
666.387635	0.370203
666.591832	0.370267
666.796011	0.370539
667.000172	0.371119
667.204315	0.371405
667.408439	0.371508
667.612545	0.371226
667.816634	0.371541
668.020703	0.371878
668.224755	0.371770
668.428788	0.371993
668.632803	0.372272
668.836800	0.372175
669.040779	0.372529
669.244739	0.373281
669.448681	0.373858
669.652605	0.374135
669.856511	0.374323
670.060399	0.374945
670.264268	0.375331
670.468119	0.375726
670.671952	0.375963
670.875767	0.376145
671.079563	0.375807
671.283341	0.376411
671.487101	0.376684
671.690843	0.376879
671.894567	0.376927
672.098272	0.377168
672.301959	0.377278
672.505628	0.377612
672.709278	0.377859
672.912911	0.378444
673.116525	0.378553
673.320121	0.378700
673.523699	0.379041
673.727258	0.379518
673.930799	0.379725
674.134322	0.380123
674.337827	0.380512
674.541314	0.380695
674.744782	0.380800
674.948232	0.380819
675.151664	0.381269
675.355078	0.381365
675.558474	0.381720
675.761851	0.381774
675.965210	0.382018
676.168551	0.382071
676.371873	0.382256
676.575178	0.382354
676.778464	0.382638
676.981732	0.382671
677.184981	0.383077
677.388213	0.383202
677.591426	0.383772
677.794621	0.384026
677.997798	0.384448
678.200956	0.384772
678.404097	0.384936
678.607219	0.385132
678.810323	0.385480
679.013408	0.385753
679.216476	0.386059
679.419525	0.386334
679.622556	0.386561
679.825569	0.386687
680.028563	0.386764
680.231540	0.387373
680.434498	0.387731
680.637438	0.387973
680.840359	0.388220
681.043263	0.388464
681.246148	0.388365
681.449015	0.388819
681.651864	0.388934
681.854694	0.389443
682.057506	0.389584
682.260301	0.389795
682.463076	0.389843
682.665834	0.389845
682.868573	0.389800
683.071295	0.390258
683.273998	0.390176
683.476682	0.390478
683.679349	0.390759
683.881997	0.391124
684.084627	0.391375
684.287239	0.391697
684.489833	0.391826
684.692408	0.392342
684.894965	0.392247
685.097504	0.392517
685.300025	0.392844
685.502527	0.392888
685.705012	0.392915
685.907478	0.393276
686.109925	0.393532
686.312355	0.393992
686.514766	0.394134
686.717159	0.394524
686.919534	0.394504
687.121891	0.394586
687.324230	0.394947
687.526550	0.395170
687.728852	0.395290
687.931136	0.395437
688.133401	0.395684
688.335649	0.395494
688.537878	0.395948
688.740089	0.396236
688.942281	0.396553
689.144456	0.396477
689.346612	0.396699
689.548750	0.396852
689.750870	0.397149
689.952971	0.397249
690.155055	0.397564
690.357120	0.397634
690.559167	0.397904
690.761195	0.398302
690.963206	0.398722
691.165198	0.398843
691.367172	0.399065
691.569128	0.399248
691.771065	0.399456
691.972984	0.399861
692.174885	0.400281
692.376768	0.400625
692.578633	0.400644
692.780479	0.400852
692.982308	0.401230
693.184118	0.401303
693.385909	0.401501
