sample name	sample
index	1500
start time	 05-18-2021  02:27:28 PM
880	0.292804
Peak Time (s)	91.037
Peak Height 	0.2928
calc peak height	90,93
Baseline Time (s)	11.535
Baseline Value 	-0.006232
subtract baseline	10,4
Abs	0.198640
Peak Time (s)	91.037
Peak Height 	0.1986
calc peak height	90,93
Baseline Time (s)	9.037
Baseline Value 	0.005332
subtract baseline	10,3
PK_550	0.123139
Peak Time (s)	91.037
Peak Height 	0.1231
calc peak height	90,93
Baseline Time (s)	9.537
Baseline Value 	5.5503E-4
subtract baseline	10,2
PK_880	0.198639
Peak Time (s)	90.036
Peak Height 	0.1986
calc peak height	90,93
Baseline Time (s)	11.037
Baseline Value 	0.002747
subtract baseline	10,1


Time (s)	A880-A510	A880-A775	A880-A975	A880	I510	I775	I975	I880	
0.037000	0.000046	-0.000010	-0.003410	0.004178	6580.064721	44040.968409	3976.626814	22793.646991
0.537000	-0.001876	-0.000614	-0.002091	0.004582	6560.814793	43945.778351	3978.792426	22775.205913
1.037500	-0.001067	-0.000129	-0.001742	0.004827	6565.476777	43968.432085	3979.039771	22764.051777
1.537500	-0.003861	-0.000901	-0.006313	0.006783	6526.412330	43711.855644	3963.682300	22675.084378
2.037500	-0.000260	-0.001017	-0.008594	0.002356	6592.677365	44118.001634	3968.706793	22876.981759
2.535500	-0.001536	-0.000266	-0.003746	0.002422	6581.513624	44182.905976	3979.992226	22873.973639
3.035000	0.003637	-0.000044	-0.005726	-0.001005	6653.648284	44530.348298	3983.431796	23031.648260
3.535500	-0.003099	-0.000419	-0.004683	0.005175	6545.850505	43908.324170	3971.273624	22748.209542
4.036000	0.000716	0.000429	-0.001807	0.000902	6612.974357	44393.436004	3988.230065	22943.739398
4.536500	0.001886	-0.000179	-0.000021	0.000120	6629.362795	44410.022806	3994.391458	22979.741369
5.039000	-0.001687	-0.000547	-0.002136	0.003681	6569.828723	44037.213383	3980.826044	22816.359850
5.537000	0.000864	0.000963	0.003771	0.000352	6618.829111	44496.880534	4002.991888	22969.064701
6.034000	0.000049	0.000686	-0.001491	0.000452	6611.156522	44460.875954	3990.064055	22964.454573
6.535000	-0.000071	0.000114	-0.000963	0.000081	6613.250699	44441.647362	3992.219150	22981.510498
7.037500	0.002174	0.000284	-0.004205	0.000303	6630.240882	44436.680279	3983.935935	22971.295868
7.535000	0.000959	-0.000725	-0.004629	-0.000414	6626.056431	44408.913051	3984.636467	23004.354601
8.035000	0.001410	-0.000682	0.001011	-0.000567	6631.141302	44427.586061	3998.535174	23011.429714
8.536000	0.000576	-0.000080	-0.004130	-0.000110	6620.284881	44441.348769	3985.099517	22990.310409
9.036500	-0.000415	-0.000903	0.000000	0.003725	6580.002319	43999.382368	3985.803354	22814.325948
9.536500	0.001693	0.000000	-0.001078	-0.000142	6629.949174	44452.140809	3992.481143	22991.825326
10.037000	-0.000200	0.000538	0.002168	0.000271	6610.589856	44464.089369	3999.305060	22972.781250
10.533500	0.000326	0.000161	0.000312	-0.000422	6620.802534	44494.153378	3996.496978	23004.695805
11.037500	0.000000	-0.000089	-0.003352	0.003657	6584.016360	44082.764968	3977.998958	22817.454635
11.535000	-0.000263	0.000411	0.001317	0.000000	6612.326069	44477.822322	3997.904961	22985.261102
12.035000	0.001339	-0.000848	0.003684	-0.000747	6632.051405	44428.917320	4005.446313	23019.697046
12.535500	0.001803	-0.000154	-0.000468	-0.000434	6633.329207	44465.235416	3994.648184	23005.276089
13.038500	-0.000782	-0.000561	-0.001707	0.003195	6581.350972	44081.717029	3982.999558	22838.550271
13.536500	-0.000397	-0.000862	-0.003870	0.000700	6605.351621	44289.785388	3983.789050	22953.031998
14.035500	-0.001466	-0.000127	-0.005529	0.002118	6584.620576	44224.875004	3976.487520	22887.881538
14.537000	-0.000238	0.000222	0.000083	0.002770	6589.404648	44196.109038	3988.283256	22857.990901
15.037000	-0.001361	-0.000919	-0.009584	0.005137	6560.480150	43864.775646	3959.896217	22749.906479
15.540000	0.000079	0.000456	0.001143	0.001260	6604.655209	44361.969030	3994.449761	22927.300456
16.035000	-0.001275	0.000210	0.002672	0.000981	6595.674531	44365.138865	3998.808804	22940.122621
16.535000	-0.001017	-0.000660	-0.000514	0.000377	6602.870675	44339.691801	3992.588437	22967.892157
17.035500	-0.000174	0.000086	0.002327	0.003590	6583.121820	44105.577198	3991.694043	22820.490945
17.536000	0.000135	0.000678	0.003555	0.001756	6600.968993	44335.858827	3999.068164	22904.502377
18.036000	0.000907	0.000138	-0.003142	0.001851	6606.630164	44275.499085	3982.782200	22900.152838
18.537000	-0.000901	-0.000359	-0.002604	0.001552	6594.037679	44256.632824	3984.775916	22913.884376
19.039500	-0.000963	0.000147	-0.002225	0.002373	6586.687332	44226.811156	3983.723001	22876.219668
19.536500	0.000044	0.000699	-0.001861	0.001991	6598.253109	44315.442878	3985.501631	22893.720668
20.037000	0.001397	0.000244	-0.001503	0.002191	6607.884150	44253.176043	3985.877958	22884.529954
20.537500	-0.000827	0.000104	-0.001302	0.001689	6593.508366	44287.653549	3987.556576	22907.586392
21.035000	0.000049	-0.000250	-0.000936	0.002314	6595.598245	44194.688184	3986.938154	22878.898286
21.535500	0.000392	0.000883	-0.002009	0.001812	6602.646113	44349.968468	3985.572620	22901.908554
22.035500	-0.000505	0.000228	-0.002963	0.001503	6597.746771	44317.181129	3984.039098	22916.137653
22.536000	0.000702	-0.000360	-0.001366	0.001392	6608.750873	44271.772002	3988.114354	22921.214662
23.036000	-0.000732	0.000526	-0.000470	0.002212	6589.940384	44277.979248	3988.296183	22883.581781
23.536000	0.000888	0.001051	-0.001107	0.002004	6605.191093	44347.822035	3987.271826	22893.142729
24.036500	0.000419	0.000141	-0.004454	0.001962	6601.627360	44265.208448	3979.404015	22895.055826
24.536500	0.000903	-0.000104	0.000653	0.001555	6609.070941	44280.600312	3992.560929	22913.743148
25.037000	0.001380	0.000076	-0.002333	0.001741	6611.501491	44279.971798	3984.970586	22905.166195
25.534500	-0.001018	-0.000768	-0.001682	0.001117	6596.680339	44259.038573	3988.015186	22933.838422
26.035000	0.000756	-0.000067	-0.000535	0.001429	6608.890057	44296.060165	3990.013257	22919.497058
26.535500	-0.000233	0.000508	-0.003906	0.001807	6597.481991	44314.870596	3981.072631	22902.175550
27.035500	-0.000138	0.000469	0.000777	0.002541	6592.148991	44241.289959	3990.491782	22868.484855
27.536000	-0.001966	-0.000598	0.001443	-0.001113	6607.385669	44487.680608	4000.897868	23036.608642
28.036500	0.000686	-0.000241	0.002910	0.000266	6618.054584	44390.230867	4001.110939	22972.997739
28.539500	-0.000701	0.000087	0.003863	0.000892	6601.208624	44361.840929	4001.904718	22944.210128
29.036000	-0.002097	0.000095	0.001418	0.000476	6593.028511	44402.168294	3996.999689	22963.323211
29.537000	0.000694	0.000141	-0.000144	0.003647	6589.867309	44105.417328	3985.645727	22817.881419
30.037500	-0.000652	0.000715	-0.002534	0.001208	6598.973089	44391.550957	3985.761886	22929.656972
30.534500	-0.000633	-0.000077	-0.000310	0.002210	6590.785417	44221.025018	3988.684233	22883.691816
31.035500	-0.002361	-0.000933	-0.001662	0.001548	6581.919910	44202.552291	3987.034999	22914.067985
31.535500	-0.000656	-0.000219	-0.002838	0.001522	6596.320547	44272.741571	3984.289282	22915.232318
32.036000	0.001789	0.000222	-0.000346	0.000828	6622.591317	44380.782831	3991.908562	22947.142451
32.536000	0.000675	0.000205	-0.001346	0.000311	6617.584314	44428.476491	3990.750695	22970.941038
33.037000	0.001085	0.000173	-0.003451	0.000316	6620.979465	44424.894080	3985.703359	22970.703432
33.537000	-0.002479	-0.000531	-0.001039	0.001318	6582.845676	44262.527325	3989.071698	22924.600630
34.037000	0.001293	0.001126	-0.002754	-0.000011	6625.475684	44547.121667	3988.149746	22985.754905
34.534500	0.001392	-0.000056	0.000729	0.001478	6613.803678	44292.416394	3992.927049	22917.242818
35.037500	0.000600	0.000487	-0.001061	0.002587	6597.919503	44238.780517	3985.988333	22866.415912
35.535000	0.000157	0.000579	-0.000567	0.002236	6597.150757	44280.739236	3988.006097	22882.487690
36.035000	-0.001488	0.000455	-0.003923	0.002085	6584.707782	44283.323037	3980.369174	22889.395073
36.535500	-0.001928	-0.000162	-0.001296	0.001781	6583.583493	44253.628079	3987.350115	22903.352035
37.036000	-0.000740	-0.000342	-0.002585	0.001841	6592.965367	44230.776920	3984.132414	22900.595354
37.536500	0.000305	-0.000593	-0.004102	0.001248	6606.634413	44263.265849	3981.933578	22927.826628
38.039500	0.002272	0.000290	-0.002122	0.001481	6621.159757	44325.003652	3986.093061	22917.107365
38.537000	0.001557	0.000511	0.001078	0.002240	6608.816389	44273.961831	3991.937549	22882.298726
39.037000	-0.003682	-0.000299	-0.000876	0.001408	6572.127254	44276.016948	3989.248036	22920.495586
39.537500	-0.000665	0.000889	-0.003071	0.002583	6587.414970	44277.222358	3981.211925	22866.580121
40.034500	0.000613	-0.000238	0.000349	0.001737	6605.125528	44250.532878	3991.396005	22905.379498
40.535000	-0.000228	-0.000429	-0.000407	0.001477	6600.274112	44257.098465	3990.205604	22917.309808
41.035500	-0.001732	0.000308	-0.002820	0.001470	6587.791956	44327.884124	3984.456308	22917.629382
41.535500	0.000961	-0.000506	-0.001558	0.001649	6608.768661	44233.436765	3987.039509	22909.400016
42.036000	0.001288	0.000026	-0.001375	0.001605	6611.878231	44288.150281	3987.582569	22911.435093
42.539000	-0.000639	-0.000184	0.000608	0.001592	6595.876908	44269.405310	3992.363108	22912.013148
43.036500	-0.000560	0.000337	-0.001623	0.002289	6590.736453	44252.743014	3985.357362	22880.059251
43.537000	-0.000131	0.000170	0.002034	0.002208	6594.987902	44244.580553	3994.310915	22883.774959
44.037000	0.004038	0.000515	0.002076	-0.000579	6653.430344	44543.022272	4001.138224	23011.968488
44.535000	-0.000003	-0.000760	-0.001281	0.000032	6614.243660	44363.134816	3991.576095	22983.805140
45.035000	-0.001027	0.000062	-0.001938	0.004558	6568.022992	44011.800066	3979.212580	22776.303975
45.538000	0.000547	0.000272	-0.001804	0.001303	6608.201353	44340.358219	3987.279263	22925.318262
46.035500	0.003440	0.000522	-0.001904	0.001252	6632.914719	44368.929029	3987.161830	22927.635795
46.535500	0.001818	0.001161	0.004740	0.001542	6616.841409	44402.209713	4002.453562	22914.319491
47.036500	-0.002214	0.000207	-0.000848	0.005418	6551.134640	43944.400930	3979.759238	22737.141315
47.536500	0.000679	0.000206	0.001369	0.002644	6598.097719	44206.571832	3991.665951	22863.783075
48.037000	0.001369	0.000205	-0.004866	0.002785	6602.686925	44193.121888	3976.477829	22857.331621
48.537500	-0.000767	0.000395	-0.002568	0.001279	6597.426604	44354.321173	3985.513267	22926.404715
49.037500	0.000853	0.000303	-0.001335	0.003063	6596.060905	44176.119837	3984.199358	22844.612688
49.535000	-0.000914	-0.000510	0.001375	0.000770	6600.448969	44316.629612	3996.187578	22949.824803
50.035500	0.003614	0.000382	0.003466	-0.001990	6661.801321	44665.485041	4007.941845	23077.177666
50.538500	0.000207	0.000001	0.000518	-0.000220	6618.113133	44459.673657	3996.507340	22995.407207
51.035500	-0.002088	-0.000774	0.001712	0.004833	6556.989739	43907.108542	3987.246797	22763.780688
51.535500	0.001235	-0.023851	0.064749	0.568944	3959.779467	13587.077028	3276.891656	8370.973346
52.042000	-0.002937	-0.014536	-0.005776	0.110036	5780.904305	34106.482587	3750.083311	18505.701202
52.536500	-0.011694	-0.044405	-0.030440	-0.189646	8457.732691	60893.454345	4457.532631	33944.181555
53.037000	-0.020329	-0.096171	-0.026670	-0.274320	9506.837027	65450.194569	4798.133693	40611.891871
53.537500	-0.014321	-0.090715	-0.015134	-0.267377	9492.790847	65236.767041	4817.788686	40014.915551
54.037500	-0.011562	-0.051067	-0.010380	-0.206845	8680.956174	62315.196254	4592.618756	35195.443357
54.534500	-0.004253	-0.029269	-0.002760	-0.154469	8118.527808	58282.912751	4431.724594	31534.358897
55.035500	-0.008362	-0.023683	-0.011377	-0.142483	7931.405500	57474.231783	4363.053496	30756.826351
55.538500	-0.004381	-0.032153	-0.003893	-0.182203	8456.089465	61537.946957	4525.344521	33417.867551
56.036000	0.008908	-0.032432	0.012449	-0.183237	8639.870427	61639.926193	4589.673324	33490.490274
56.536000	0.018063	-0.013192	0.025323	-0.123028	8011.578717	56361.442252	4420.307148	29539.529098
57.036500	0.035509	0.001804	0.037679	-0.058645	7495.633575	50626.210450	4254.259562	25878.862163
57.536000	0.051828	0.013335	0.052623	-0.013583	7206.128407	47087.834994	4166.845975	23621.106164
58.034500	0.066857	0.025752	0.069677	0.033399	6905.998297	43715.337255	4085.785886	21503.763050
58.537000	0.085566	0.037781	0.081846	0.082236	6642.547687	40407.235279	3993.792350	19532.637321
59.035000	0.094667	0.042171	0.095330	0.102809	6546.929190	39039.139135	3976.884969	18766.372582
59.534500	0.116734	0.056071	0.107049	0.097772	6776.958836	40645.231783	4017.297805	18950.666122
60.035500	0.120853	0.062536	0.125608	0.130057	6538.215812	38472.612256	3984.077416	17805.822034
60.535500	0.137920	0.074133	0.133398	0.170627	6350.501047	36183.646368	3908.866101	16482.748511
61.036000	0.150139	0.083675	0.153120	0.199496	6223.540002	34739.528205	3888.871808	15613.770881
61.539000	0.154187	0.086963	0.156764	0.234376	6000.911100	32513.087076	3823.686946	14638.082493
62.036500	0.155309	0.091547	0.155181	0.261297	5826.395556	31033.811935	3768.157580	13936.822954
62.536500	0.158627	0.095459	0.163843	0.252385	5907.834272	31873.766297	3801.960999	14164.170444
63.037500	0.155100	0.098281	0.156134	0.246120	5926.383441	32484.109164	3799.131056	14326.809303
63.534500	0.163388	0.100007	0.165464	0.243070	6004.448251	32810.108510	3823.697532	14406.842782
64.034500	0.165928	0.101991	0.167021	0.242638	6025.248024	32976.353081	3827.710888	14418.223274
64.538500	0.170446	0.103742	0.171827	0.244636	6043.003149	32959.367163	3833.407441	14365.693535
65.035500	0.169049	0.104692	0.170498	0.252093	5981.085662	32513.896335	3815.706504	14171.707809
65.536000	0.171371	0.105819	0.169674	0.251397	6002.049224	32638.013291	3815.451586	14189.675391
66.036500	0.175119	0.108302	0.171556	0.256559	5992.213483	32455.859504	3808.937964	14057.128260
66.536000	0.173180	0.108067	0.171003	0.259992	5955.123448	32208.164384	3801.086230	13969.835091
67.036500	0.174025	0.110509	0.172026	0.267499	5909.750381	31869.508680	3788.465766	13781.338806
67.537000	0.179166	0.112603	0.174484	0.270482	5924.375283	31810.490708	3787.454181	13707.349185
68.037000	0.177089	0.111894	0.177208	0.272180	5898.847221	31651.301424	3789.434901	13665.448525
68.537500	0.179112	0.112310	0.178385	0.272977	5907.109697	31626.141837	3790.168793	13645.833520
69.035000	0.178576	0.114860	0.178505	0.273826	5897.777034	31738.496655	3788.759157	13624.992126
69.535500	0.183135	0.114848	0.173900	0.276441	5910.887665	31565.205950	3774.923573	13561.035298
70.035000	0.181689	0.115779	0.180752	0.279375	5881.428716	31433.793471	3782.402714	13489.722101
70.539000	0.183569	0.116428	0.180424	0.281853	5877.428756	31314.329917	3777.040505	13429.888846
71.039000	0.183456	0.117443	0.182835	0.284820	5856.914021	31187.377205	3775.981514	13358.666881
71.536500	0.184588	0.118433	0.190730	0.286628	5852.432624	31134.330455	3787.644566	13315.506958
72.037000	0.186973	0.119318	0.183054	0.288655	5854.813420	31060.477941	3769.129796	13267.360235
72.537000	0.185997	0.117896	0.184019	0.288437	5849.791150	30982.776797	3771.365211	13272.521258
73.037500	0.185118	0.119222	0.182075	0.290678	5829.209466	30923.936878	3763.483887	13219.507492
73.535000	0.188513	0.119793	0.185610	0.291812	5844.110611	30887.748807	3767.996270	13192.776101
74.034500	0.187513	0.120156	0.184662	0.292523	5832.823102	30865.409578	3764.875637	13176.052322
74.535500	0.189760	0.122104	0.188798	0.294760	5832.896918	30846.882815	3768.449095	13123.631504
75.036000	0.189830	0.121625	0.184135	0.299272	5803.809767	30528.756805	3751.329692	13018.698275
75.539000	0.191534	0.121965	0.185859	0.296243	5834.810902	30743.142220	3760.153556	13089.020344
76.036000	0.192183	0.121532	0.189308	0.297318	5832.006676	30646.930445	3764.595844	13063.999821
76.535500	0.191720	0.122218	0.185892	0.298324	5822.354735	30626.586329	3756.339828	13040.650243
77.036500	0.189427	0.123143	0.189856	0.303896	5771.255180	30332.610200	3753.356010	12912.269883
77.537000	0.195303	0.123907	0.188188	0.300367	5832.473883	30604.127073	3756.808800	12993.393006
78.037000	0.196367	0.124566	0.197108	0.300464	5838.834875	30639.805449	3773.375986	12991.139363
78.538000	0.194357	0.123882	0.192261	0.300705	5824.032449	30581.000979	3763.781254	12985.580014
79.035000	0.193240	0.124826	0.191815	0.304639	5791.090006	30391.805199	3755.610136	12895.279443
79.535500	0.195961	0.127052	0.194821	0.302990	5819.568197	30637.272514	3764.296290	12933.035474
80.035500	0.197624	0.127953	0.197215	0.304158	5822.819125	30620.291246	3766.600680	12906.288532
80.536000	0.198066	0.125902	0.191397	0.302431	5837.074847	30599.701913	3758.939933	12945.877556
81.036500	0.196697	0.126203	0.192591	0.307263	5796.493314	30313.281576	3752.187023	12835.493442
81.537000	0.197414	0.124724	0.195149	0.301493	5838.957951	30584.459555	3767.728268	12967.439920
82.037500	0.199705	0.126098	0.194375	0.302020	5850.616815	30638.333032	3765.282261	12955.321969
82.534000	0.199722	0.125973	0.193476	0.301024	5857.326285	30693.743763	3765.461749	12978.230985
83.035000	0.198395	0.126125	0.200187	0.303127	5834.654722	30569.650519	3774.164652	12929.885401
83.535000	0.201423	0.125841	0.198434	0.299538	5878.560012	30780.235644	3777.658840	13012.533821
84.035000	0.199519	0.125279	0.193902	0.299031	5869.234858	30776.681212	3770.018991	13024.258739
84.535500	0.198985	0.123194	0.196048	0.296788	5880.646827	30786.832762	3778.353743	13076.332786
85.039000	0.198302	0.124367	0.202724	0.296494	5878.043891	30880.776449	3791.762650	13083.160127
85.536000	0.199057	0.125190	0.195643	0.296260	5884.660523	30948.733858	3778.587782	13088.616902
86.036500	0.201551	0.124730	0.195127	0.295841	5904.244452	30946.045649	3778.403405	13098.373854
86.536500	0.200761	0.123993	0.196647	0.295211	5903.167545	30939.212928	3782.517065	13113.079038
87.037000	0.197048	0.123097	0.197195	0.298102	5858.977565	30696.686949	3778.035633	13045.798664
87.537500	0.197936	0.124226	0.199262	0.294999	5885.599086	30967.846800	3787.954861	13118.027063
88.035000	0.197556	0.123187	0.198994	0.294143	5888.793836	30956.113281	3789.094103	13138.067621
88.538000	0.198054	0.123056	0.200094	0.293643	5895.495401	30979.847106	3792.191514	13149.764983
89.035500	0.194138	0.122150	0.195140	0.296074	5853.126121	30765.712164	3777.982890	13092.952846
89.537000	0.196295	0.124028	0.202636	0.293782	5882.760323	31033.529859	3796.866257	13146.516454
90.036000	0.198639	0.122320	0.193172	0.292727	5905.611979	30991.433408	3780.619144	13171.267521
90.536000	0.197898	0.122134	0.197584	0.291893	5906.233686	31033.191002	3790.717189	13190.861316
91.037000	0.197474	0.123139	0.198640	0.292804	5897.238482	31039.339416	3790.998789	13169.461176
91.537000	0.198586	0.122833	0.192835	0.292603	5906.087585	31032.498638	3780.210644	13174.171983
92.037000	0.198416	0.122167	0.191209	0.290942	5916.167947	31096.824143	3780.277520	13213.275719
92.534500	0.195820	0.122186	0.197439	0.291433	5895.333736	31066.259043	3791.328312	13201.691547
93.035000	0.195706	0.122534	0.195744	0.296649	5859.710737	30753.477041	3778.039093	13079.551895
93.535000	0.195043	0.121265	0.199946	0.290744	5894.742367	31051.259503	3797.545840	13217.936890
94.035500	0.196385	0.120116	0.190731	0.289129	5914.691622	31081.402817	3782.834350	13256.117962
94.539000	0.196205	0.120327	0.194757	0.289634	5910.057504	31062.412263	3789.618899	13244.164190
95.036500	0.193689	0.121436	0.192697	0.295754	5852.270170	30740.555049	3773.942783	13100.407786
95.537000	0.193680	0.119558	0.197917	0.289899	5891.265988	30995.708549	3795.237542	13237.897161
96.037000	0.198603	0.120581	0.192893	0.290482	5920.554676	31024.101526	3784.388994	13224.135905
96.537500	0.197486	0.120308	0.197246	0.290873	5910.338688	30981.257761	3792.039895	13214.893125
