sample name	sample
index	185
start time	 02-18-2021  11:30:05 AM


Wavelength (nm)	Absorbance
494.344910	-0.475045
494.563924	-0.475045
494.782919	-0.475045
495.001897	0.006434
495.220856	-0.214090
495.439797	-0.143572
495.658719	-0.084105
495.877624	-0.032745
496.096510	-0.018628
496.315378	0.014446
496.534227	-0.019668
496.753059	0.045510
496.971872	0.078251
497.190667	0.138499
497.409444	0.136930
497.628203	0.140253
497.846943	0.140895
498.065665	0.142351
498.284369	0.143881
498.503055	0.144960
498.721723	0.145374
498.940372	0.145716
499.159003	0.146189
499.377616	0.146924
499.596210	0.145817
499.814787	0.145544
500.033345	0.144894
500.251885	0.144633
500.470406	0.144705
500.688910	0.143541
500.907395	0.143176
501.125862	0.143572
501.344311	0.144308
501.562742	0.145070
501.781154	0.145927
501.999548	0.146347
502.217924	0.146507
502.436282	0.146714
502.654621	0.147289
502.872942	0.147532
503.091245	0.147267
503.309530	0.147363
503.527797	0.147795
503.746045	0.146986
503.964275	0.146652
504.182487	0.146580
504.400681	0.146271
504.618856	0.145938
504.837013	0.147234
505.055152	0.146854
505.273273	0.146986
505.491376	0.146605
505.709460	0.148041
505.927526	0.148707
506.145574	0.148819
506.363604	0.149518
506.581615	0.150012
506.799608	0.148798
507.017583	0.148807
507.235540	0.147680
507.453478	0.147357
507.671399	0.146609
507.889301	0.146362
508.107185	0.146610
508.325050	0.146764
508.542898	0.146572
508.760727	0.146670
508.978538	0.146996
509.196330	0.147957
509.414105	0.148382
509.631861	0.149435
509.849599	0.149789
510.067319	0.149489
510.285021	0.148681
510.502704	0.149590
510.720369	0.150117
510.938016	0.150489
511.155645	0.150590
511.373255	0.150512
511.590848	0.150362
511.808422	0.151412
512.025977	0.153154
512.243515	0.154211
512.461034	0.154675
512.678536	0.154543
512.896018	0.155227
513.113483	0.154972
513.330930	0.156189
513.548358	0.157190
513.765768	0.157036
513.983160	0.157094
514.200533	0.157000
514.417889	0.156491
514.635226	0.157186
514.852545	0.157733
515.069845	0.158233
515.287128	0.157894
515.504392	0.157373
515.721638	0.157144
515.938866	0.156368
516.156075	0.156395
516.373267	0.157222
516.590440	0.156966
516.807594	0.157107
517.024731	0.157558
517.241850	0.157665
517.458950	0.158071
517.676032	0.158160
517.893095	0.158040
518.110141	0.157925
518.327168	0.158452
518.544177	0.158621
518.761168	0.158389
518.978141	0.158181
519.195095	0.158473
519.412031	0.158055
519.628949	0.157789
519.845849	0.158215
520.062731	0.158212
520.279594	0.158335
520.496439	0.158709
520.713266	0.159505
520.930074	0.159694
521.146865	0.159679
521.363637	0.160088
521.580391	0.161280
521.797127	0.161914
522.013844	0.162197
522.230543	0.161824
522.447224	0.162447
522.663887	0.162127
522.880532	0.162085
523.097158	0.162652
523.313766	0.162397
523.530356	0.162099
523.746928	0.162484
523.963481	0.163651
524.180017	0.163887
524.396534	0.163752
524.613032	0.164561
524.829513	0.166167
525.045975	0.166963
525.262420	0.168127
525.478845	0.168723
525.695253	0.168562
525.911643	0.168255
526.128014	0.168846
526.344367	0.168763
526.560702	0.168734
526.777018	0.168543
526.993316	0.168170
527.209597	0.168241
527.425858	0.168272
527.642102	0.168558
527.858328	0.168708
528.074535	0.169343
528.290724	0.169667
528.506894	0.169891
528.723047	0.170156
528.939181	0.170695
529.155297	0.171069
529.371395	0.171723
529.587475	0.171805
529.803536	0.172944
530.019579	0.172366
530.235604	0.172403
530.451611	0.172996
530.667600	0.173422
530.883570	0.174277
531.099522	0.174655
531.315456	0.174616
531.531372	0.175372
531.747269	0.175395
531.963148	0.176417
532.179009	0.177099
532.394852	0.177707
532.610676	0.177588
532.826482	0.177373
533.042271	0.177710
533.258040	0.178415
533.473792	0.178614
533.689525	0.178867
533.905240	0.178727
534.120937	0.179359
534.336616	0.178922
534.552277	0.179700
534.767919	0.179504
534.983543	0.179735
535.199149	0.180232
535.414736	0.180852
535.630306	0.181101
535.845857	0.182009
536.061390	0.181407
536.276904	0.181797
536.492401	0.181791
536.707879	0.183181
536.923339	0.183001
537.138781	0.183154
537.354204	0.183350
537.569610	0.183299
537.784997	0.182838
538.000366	0.183766
538.215716	0.184173
538.431049	0.185014
538.646363	0.185047
538.861659	0.185673
539.076937	0.185339
539.292196	0.185533
539.507438	0.186712
539.722661	0.187104
539.937866	0.187117
540.153052	0.187332
540.368221	0.187149
540.583371	0.187338
540.798503	0.187650
541.013617	0.188570
541.228712	0.188359
541.443789	0.187867
541.658848	0.188919
541.873889	0.189279
542.088912	0.189488
542.303916	0.190053
542.518902	0.190338
542.733870	0.190283
542.948820	0.190594
543.163752	0.190686
543.378665	0.191629
543.593560	0.191493
543.808437	0.192138
544.023295	0.192258
544.238136	0.192223
544.452958	0.192223
544.667762	0.192353
544.882548	0.192230
545.097315	0.193352
545.312064	0.193161
545.526795	0.193571
545.741508	0.193824
545.956203	0.194392
546.170879	0.194659
546.385537	0.195008
546.600177	0.195752
546.814799	0.196264
547.029402	0.196251
547.243988	0.196313
547.458555	0.195812
547.673103	0.195794
547.887634	0.196006
548.102146	0.196006
548.316640	0.196308
548.531116	0.196884
548.745574	0.196725
548.960013	0.196970
549.174435	0.197611
549.388838	0.198647
549.603222	0.199087
549.817589	0.199718
550.031937	0.200301
550.246267	0.200765
550.460579	0.200407
550.674873	0.200934
550.889148	0.201161
551.103405	0.201213
551.317644	0.201034
551.531865	0.201547
551.746068	0.201405
551.960252	0.201579
552.174418	0.201760
552.388566	0.201752
552.602696	0.201565
552.816807	0.202225
553.030900	0.202532
553.244975	0.202759
553.459032	0.202509
553.673070	0.202672
553.887091	0.202877
554.101093	0.202956
554.315077	0.203465
554.529042	0.204256
554.742990	0.203880
554.956919	0.204224
555.170830	0.204132
555.384722	0.204490
555.598597	0.205088
555.812453	0.205376
556.026291	0.205576
556.240111	0.205851
556.453913	0.206401
556.667696	0.206863
556.881461	0.206929
557.095208	0.207374
557.308937	0.207417
557.522647	0.207457
557.736339	0.207708
557.950013	0.207643
558.163669	0.208343
558.377307	0.208016
558.590926	0.208072
558.804527	0.208247
559.018110	0.208341
559.231675	0.208702
559.445221	0.208706
559.658749	0.208700
559.872259	0.208971
560.085751	0.208861
560.299225	0.209671
560.512680	0.209835
560.726117	0.210117
560.939536	0.210620
561.152937	0.211367
561.366319	0.211508
561.579683	0.211864
561.793029	0.212024
562.006357	0.212194
562.219667	0.211499
562.432958	0.211889
562.646231	0.212302
562.859486	0.212576
563.072723	0.212384
563.285941	0.213073
563.499141	0.212880
563.712323	0.213073
563.925487	0.213663
564.138632	0.214249
564.351760	0.214539
564.564869	0.214361
564.777960	0.214570
564.991032	0.214565
565.204087	0.214637
565.417123	0.215149
565.630141	0.215379
565.843140	0.215358
566.056122	0.215801
566.269085	0.215818
566.482030	0.216170
566.694957	0.216002
566.907866	0.216353
567.120756	0.216309
567.333628	0.216761
567.546482	0.216995
567.759318	0.216845
567.972135	0.216777
568.184935	0.216834
568.397716	0.217177
568.610478	0.217913
568.823223	0.218012
569.035949	0.218134
569.248657	0.218025
569.461347	0.218505
569.674019	0.218996
569.886672	0.218969
570.099308	0.219072
570.311925	0.219357
570.524523	0.219372
570.737104	0.219687
570.949666	0.219891
571.162210	0.220162
571.374736	0.220320
571.587244	0.220201
571.799733	0.220693
572.012205	0.221249
572.224658	0.220922
572.437092	0.220783
572.649509	0.220781
572.861907	0.220569
573.074287	0.220834
573.286649	0.220564
573.498993	0.220643
573.711318	0.220796
573.923625	0.220711
574.135914	0.220466
574.348185	0.220641
574.560438	0.220668
574.772672	0.220975
574.984888	0.221105
575.197086	0.221502
575.409266	0.221871
575.621427	0.221767
575.833570	0.221798
576.045695	0.222482
576.257802	0.222935
576.469890	0.223178
576.681961	0.223665
576.894013	0.224020
577.106046	0.224236
577.318062	0.224701
577.530059	0.224882
577.742039	0.225554
577.954000	0.225793
578.165942	0.226020
578.377867	0.226568
578.589773	0.226752
578.801661	0.226823
579.013531	0.227064
579.225382	0.227068
579.437216	0.227564
579.649031	0.227665
579.860828	0.228006
580.072606	0.227909
580.284367	0.227734
580.496109	0.227948
580.707833	0.228185
580.919539	0.228530
581.131227	0.228516
581.342896	0.228396
581.554547	0.228393
581.766180	0.228405
581.977795	0.228653
582.189391	0.229264
582.400969	0.229193
582.612529	0.229154
582.824071	0.229509
583.035595	0.229810
583.247100	0.230260
583.458587	0.230458
583.670056	0.230359
583.881506	0.230779
584.092939	0.230665
584.304353	0.231213
584.515749	0.231805
584.727127	0.231687
584.938486	0.231730
585.149828	0.231839
585.361151	0.232080
585.572456	0.232870
585.783742	0.232651
585.995011	0.232999
586.206261	0.232966
586.417493	0.232751
586.628706	0.232656
586.839902	0.232838
587.051079	0.233368
587.262238	0.233781
587.473379	0.233886
587.684502	0.234606
587.895606	0.234511
588.106692	0.234921
588.317760	0.235066
588.528810	0.235913
588.739841	0.236253
588.950855	0.236002
589.161850	0.236382
589.372827	0.236768
589.583785	0.236792
589.794726	0.237246
590.005648	0.237457
590.216552	0.237895
590.427437	0.238065
590.638305	0.238600
590.849154	0.238865
591.059985	0.239086
591.270798	0.238865
591.481592	0.238889
591.692369	0.238729
591.903127	0.239062
592.113867	0.238932
592.324588	0.238683
592.535292	0.238541
592.745977	0.238828
592.956644	0.238823
593.167293	0.239028
593.377923	0.239568
593.588536	0.239934
593.799130	0.239846
594.009706	0.240578
594.220263	0.240965
594.430803	0.241469
594.641324	0.241795
594.851827	0.241912
595.062312	0.242353
595.272778	0.242424
595.483227	0.243104
595.693657	0.243558
595.904069	0.243751
596.114462	0.244078
596.324838	0.244304
596.535195	0.244308
596.745534	0.244703
596.955855	0.244983
597.166157	0.245178
597.376441	0.245094
597.586707	0.245133
597.796955	0.245386
598.007185	0.245677
598.217396	0.245597
598.427589	0.245774
598.637764	0.245830
598.847921	0.245950
599.058060	0.246239
599.268180	0.246194
599.478282	0.246460
599.688366	0.246526
599.898431	0.246561
600.108479	0.246849
600.318508	0.247569
600.528519	0.247876
600.738511	0.247835
600.948486	0.248289
601.158442	0.248411
601.368380	0.248766
601.578300	0.248704
601.788202	0.248832
601.998085	0.249128
602.207950	0.248802
602.417797	0.248977
602.627626	0.249379
602.837436	0.249517
603.047228	0.250011
603.257002	0.250203
603.466758	0.250713
603.676496	0.251156
603.886215	0.251298
604.095916	0.251667
604.305599	0.251697
604.515264	0.252055
604.724910	0.252329
604.934538	0.252667
605.144148	0.252645
605.353740	0.252884
605.563314	0.252835
605.772869	0.252960
605.982406	0.253017
606.191925	0.253149
606.401425	0.253170
606.610908	0.253170
606.820372	0.253113
607.029818	0.253274
607.239246	0.253235
607.448655	0.253568
607.658047	0.253717
607.867420	0.254216
608.076775	0.254495
608.286111	0.254396
608.495430	0.254389
608.704730	0.254530
608.914012	0.254796
609.123275	0.255025
609.332521	0.255152
609.541748	0.255346
609.750957	0.255145
609.960148	0.255265
610.169321	0.255724
610.378475	0.255794
610.587611	0.256064
610.796729	0.256145
611.005829	0.256162
611.214910	0.256148
611.423974	0.256324
611.633019	0.256396
611.842045	0.256561
612.051054	0.256673
612.260044	0.256924
612.469017	0.256948
612.677970	0.257101
612.886906	0.257358
613.095824	0.257829
613.304723	0.258317
613.513604	0.258593
613.722467	0.258903
613.931311	0.259202
614.140138	0.259351
614.348946	0.259871
614.557736	0.260030
614.766507	0.260203
614.975261	0.260525
615.183996	0.260508
615.392713	0.260956
615.601412	0.261009
615.810092	0.261337
616.018754	0.261565
616.227399	0.261615
616.436024	0.262106
616.644632	0.262144
616.853222	0.262200
617.061793	0.262353
617.270346	0.262406
617.478880	0.262346
617.687397	0.262407
617.895895	0.262594
618.104375	0.262900
618.312837	0.262701
618.521281	0.262700
618.729706	0.262422
618.938113	0.262272
619.146502	0.262402
619.354873	0.262999
619.563226	0.262963
619.771560	0.262939
619.979876	0.262982
620.188174	0.263103
620.396453	0.263351
620.604715	0.263729
620.812958	0.263900
621.021183	0.264088
621.229390	0.263763
621.437578	0.263854
621.645748	0.263961
621.853900	0.264269
622.062034	0.264581
622.270150	0.265001
622.478247	0.265170
622.686326	0.265510
622.894387	0.265852
623.102430	0.266110
623.310454	0.266341
623.518461	0.266758
623.726449	0.266702
623.934418	0.266807
624.142370	0.266718
624.350303	0.266810
624.558218	0.267037
624.766115	0.267065
624.973994	0.267538
625.181855	0.267830
625.389697	0.267968
625.597521	0.268174
625.805327	0.268572
626.013114	0.269078
626.220883	0.269788
626.428634	0.270017
626.636367	0.270290
626.844082	0.270322
627.051778	0.270486
627.259457	0.270840
627.467117	0.270981
627.674758	0.270938
627.882382	0.271085
628.089987	0.270713
628.297574	0.270814
628.505143	0.271097
628.712694	0.271288
628.920226	0.271236
629.127740	0.271299
629.335236	0.271481
629.542714	0.271692
629.750174	0.271636
629.957615	0.271938
630.165038	0.272040
630.372443	0.271799
630.579829	0.272243
630.787198	0.272650
630.994548	0.272712
631.201880	0.273099
631.409194	0.273445
631.616489	0.273645
631.823766	0.273846
632.031025	0.274095
632.238266	0.274539
632.445489	0.274374
632.652693	0.273949
632.859879	0.274127
633.067047	0.273667
633.274197	0.273584
633.481329	0.273930
633.688442	0.274010
633.895537	0.274196
634.102614	0.274282
634.309672	0.274396
634.516713	0.275185
634.723735	0.275523
634.930739	0.276367
635.137724	0.276835
635.344692	0.276985
635.551641	0.277344
635.758572	0.277477
635.965485	0.277791
636.172379	0.278100
636.379256	0.277946
636.586114	0.278201
636.792954	0.278446
636.999775	0.278634
637.206579	0.278657
637.413364	0.278611
637.620131	0.278706
637.826880	0.278525
638.033610	0.278675
638.240323	0.278915
638.447017	0.279004
638.653692	0.278800
638.860350	0.278653
639.066990	0.278932
639.273611	0.279076
639.480214	0.279391
639.686798	0.279748
639.893365	0.280049
640.099913	0.280465
640.306443	0.280660
640.512955	0.280748
640.719449	0.281220
640.925924	0.281476
641.132381	0.281934
641.338820	0.282118
641.545241	0.282168
641.751644	0.282314
641.958028	0.282476
642.164394	0.282468
642.370742	0.282869
642.577071	0.283119
642.783383	0.283320
642.989676	0.283555
643.195951	0.283506
643.402207	0.283845
643.608446	0.284274
643.814666	0.284722
644.020868	0.284962
644.227052	0.285167
644.433218	0.285369
644.639365	0.285582
644.845494	0.285550
645.051605	0.286042
645.257698	0.286116
645.463772	0.286207
645.669828	0.286120
645.875866	0.286370
646.081886	0.286543
646.287888	0.286443
646.493871	0.286559
646.699836	0.287003
646.905783	0.286923
647.111712	0.287102
647.317622	0.287198
647.523514	0.287434
647.729388	0.287548
647.935244	0.287777
648.141082	0.287926
648.346901	0.288129
648.552702	0.288091
648.758485	0.288493
648.964250	0.288707
649.169996	0.288888
649.375724	0.289018
649.581434	0.289098
649.787126	0.289292
649.992800	0.289533
650.198455	0.289859
650.404092	0.290160
650.609711	0.290336
650.815311	0.290689
651.020894	0.290814
651.226458	0.291296
651.432004	0.291906
651.637532	0.292019
651.843041	0.292398
652.048532	0.292686
652.254006	0.292797
652.459460	0.292996
652.664897	0.293314
652.870315	0.293551
653.075716	0.293721
653.281097	0.293737
653.486461	0.293739
653.691807	0.293752
653.897134	0.293762
654.102443	0.294229
654.307734	0.294657
654.513006	0.295145
654.718261	0.295437
654.923497	0.295338
655.128715	0.295714
655.333915	0.296330
655.539096	0.296673
655.744259	0.296775
655.949404	0.296846
656.154531	0.296812
656.359640	0.296774
656.564730	0.296987
656.769802	0.297389
656.974856	0.297403
657.179892	0.297583
657.384909	0.297812
657.589908	0.298094
657.794889	0.298487
657.999852	0.298918
658.204797	0.299012
658.409723	0.299450
658.614631	0.299877
658.819521	0.300011
659.024393	0.300107
659.229246	0.300531
659.434081	0.300771
659.638898	0.301006
659.843697	0.301276
660.048478	0.301556
660.253240	0.301466
660.457984	0.301464
660.662710	0.301936
660.867417	0.302087
661.072107	0.302150
661.276778	0.302521
661.481431	0.302500
661.686066	0.302551
661.890682	0.302791
662.095281	0.303140
662.299861	0.303352
662.504422	0.303356
662.708966	0.303514
662.913491	0.303711
663.117999	0.303805
663.322488	0.303982
663.526958	0.304404
663.731411	0.304719
663.935845	0.304752
664.140261	0.304886
664.344659	0.305165
664.549038	0.305471
664.753400	0.305824
664.957743	0.305955
665.162068	0.306348
665.366375	0.306408
665.570663	0.306578
665.774933	0.307057
665.979185	0.307186
666.183419	0.307266
666.387635	0.307473
666.591832	0.307428
666.796011	0.307622
667.000172	0.307647
667.204315	0.307833
667.408439	0.308030
667.612545	0.308116
667.816634	0.308749
668.020703	0.309067
668.224755	0.309521
668.428788	0.309719
668.632803	0.310202
668.836800	0.310381
669.040779	0.310496
669.244739	0.310683
669.448681	0.310967
669.652605	0.311056
669.856511	0.311275
670.060399	0.311405
670.264268	0.311860
670.468119	0.311874
670.671952	0.312183
670.875767	0.312449
671.079563	0.312755
671.283341	0.312932
671.487101	0.313377
671.690843	0.313990
671.894567	0.314266
672.098272	0.314587
672.301959	0.314862
672.505628	0.315194
672.709278	0.315485
672.912911	0.315830
673.116525	0.316050
673.320121	0.316109
673.523699	0.316051
673.727258	0.316039
673.930799	0.316219
674.134322	0.316474
674.337827	0.316688
674.541314	0.316902
674.744782	0.317017
674.948232	0.317397
675.151664	0.317464
675.355078	0.317618
675.558474	0.318169
675.761851	0.318260
675.965210	0.318442
676.168551	0.318952
676.371873	0.319171
676.575178	0.319415
676.778464	0.319710
676.981732	0.319678
677.184981	0.319846
677.388213	0.320099
677.591426	0.320360
677.794621	0.320881
677.997798	0.320899
678.200956	0.321194
678.404097	0.321567
678.607219	0.321722
678.810323	0.322396
679.013408	0.323200
679.216476	0.323410
679.419525	0.323753
679.622556	0.323708
679.825569	0.323987
680.028563	0.324513
680.231540	0.324690
680.434498	0.324944
680.637438	0.325174
680.840359	0.325066
681.043263	0.325102
681.246148	0.325170
681.449015	0.325368
681.651864	0.325488
681.854694	0.325426
682.057506	0.325648
682.260301	0.325700
682.463076	0.326018
682.665834	0.326340
682.868573	0.326659
683.071295	0.327216
683.273998	0.327513
683.476682	0.327800
683.679349	0.327961
683.881997	0.328251
684.084627	0.328515
684.287239	0.328514
684.489833	0.328754
684.692408	0.329019
684.894965	0.329093
685.097504	0.329562
685.300025	0.329764
685.502527	0.329813
685.705012	0.329879
685.907478	0.330186
686.109925	0.330155
686.312355	0.330437
686.514766	0.330402
686.717159	0.330469
686.919534	0.330433
687.121891	0.330765
687.324230	0.331373
687.526550	0.331592
687.728852	0.331726
687.931136	0.332458
688.133401	0.332150
688.335649	0.332576
688.537878	0.332910
688.740089	0.333127
688.942281	0.333196
689.144456	0.333311
689.346612	0.333422
689.548750	0.333572
689.750870	0.333597
689.952971	0.334040
690.155055	0.334153
690.357120	0.334198
690.559167	0.334407
690.761195	0.334609
690.963206	0.334844
691.165198	0.334894
691.367172	0.335289
691.569128	0.335390
691.771065	0.335480
691.972984	0.335637
692.174885	0.336079
692.376768	0.336337
692.578633	0.336416
692.780479	0.336481
692.982308	0.336816
693.184118	0.336740
693.385909	0.336906
