sample name	sample
index	332
start time	 03-01-2021  10:27:11 AM


Wavelength (nm)	Absorbance
494.344910	-0.027545
494.563924	-0.027545
494.782919	-0.027545
495.001897	0.063117
495.220856	-0.031163
495.439797	-0.046078
495.658719	-0.048170
495.877624	-0.025462
496.096510	-0.048638
496.315378	-0.075289
496.534227	-0.041079
496.753059	-0.038790
496.971872	-0.058026
497.190667	0.123672
497.409444	0.145730
497.628203	0.152304
497.846943	0.154397
498.065665	0.156353
498.284369	0.157657
498.503055	0.156926
498.721723	0.158251
498.940372	0.159357
499.159003	0.157946
499.377616	0.158070
499.596210	0.158050
499.814787	0.157141
500.033345	0.156048
500.251885	0.156092
500.470406	0.155897
500.688910	0.155262
500.907395	0.155807
501.125862	0.155655
501.344311	0.155496
501.562742	0.156368
501.781154	0.156831
501.999548	0.157707
502.217924	0.157942
502.436282	0.157393
502.654621	0.157571
502.872942	0.156425
503.091245	0.157486
503.309530	0.156918
503.527797	0.155531
503.746045	0.155217
503.964275	0.154904
504.182487	0.154071
504.400681	0.154711
504.618856	0.153481
504.837013	0.153863
505.055152	0.152380
505.273273	0.152989
505.491376	0.153688
505.709460	0.152935
505.927526	0.152818
506.145574	0.152392
506.363604	0.152047
506.581615	0.153410
506.799608	0.152702
507.017583	0.152981
507.235540	0.153002
507.453478	0.151771
507.671399	0.151939
507.889301	0.151949
508.107185	0.151904
508.325050	0.152404
508.542898	0.151937
508.760727	0.152085
508.978538	0.151854
509.196330	0.152004
509.414105	0.152323
509.631861	0.152374
509.849599	0.152784
510.067319	0.153254
510.285021	0.152770
510.502704	0.152147
510.720369	0.152013
510.938016	0.151973
511.155645	0.152421
511.373255	0.152378
511.590848	0.151543
511.808422	0.150244
512.025977	0.149409
512.243515	0.149864
512.461034	0.150050
512.678536	0.150396
512.896018	0.151099
513.113483	0.150137
513.330930	0.150182
513.548358	0.151080
513.765768	0.151587
513.983160	0.151792
514.200533	0.151731
514.417889	0.152096
514.635226	0.151437
514.852545	0.151777
515.069845	0.151661
515.287128	0.151962
515.504392	0.152116
515.721638	0.152628
515.938866	0.153941
516.156075	0.154372
516.373267	0.154205
516.590440	0.154146
516.807594	0.153702
517.024731	0.154344
517.241850	0.154594
517.458950	0.153953
517.676032	0.153671
517.893095	0.153126
518.110141	0.152395
518.327168	0.152682
518.544177	0.152752
518.761168	0.152349
518.978141	0.151444
519.195095	0.150588
519.412031	0.151204
519.628949	0.151068
519.845849	0.150882
520.062731	0.151320
520.279594	0.151159
520.496439	0.151438
520.713266	0.152231
520.930074	0.153193
521.146865	0.153004
521.363637	0.152855
521.580391	0.152883
521.797127	0.152905
522.013844	0.152933
522.230543	0.153599
522.447224	0.153837
522.663887	0.153683
522.880532	0.152749
523.097158	0.153433
523.313766	0.153966
523.530356	0.154831
523.746928	0.155003
523.963481	0.154902
524.180017	0.154392
524.396534	0.154993
524.613032	0.154877
524.829513	0.155810
525.045975	0.155961
525.262420	0.155824
525.478845	0.155540
525.695253	0.155410
525.911643	0.155471
526.128014	0.155957
526.344367	0.155500
526.560702	0.155805
526.777018	0.155562
526.993316	0.156019
527.209597	0.156692
527.425858	0.157461
527.642102	0.158081
527.858328	0.158654
528.074535	0.158947
528.290724	0.159509
528.506894	0.159488
528.723047	0.159892
528.939181	0.159503
529.155297	0.160004
529.371395	0.159831
529.587475	0.159647
529.803536	0.159502
530.019579	0.159394
530.235604	0.159447
530.451611	0.159881
530.667600	0.160399
530.883570	0.161034
531.099522	0.160059
531.315456	0.160545
531.531372	0.160792
531.747269	0.161098
531.963148	0.161342
532.179009	0.161286
532.394852	0.161439
532.610676	0.161460
532.826482	0.161811
533.042271	0.162500
533.258040	0.162324
533.473792	0.162640
533.689525	0.162895
533.905240	0.162966
534.120937	0.163129
534.336616	0.162924
534.552277	0.163248
534.767919	0.163276
534.983543	0.163933
535.199149	0.163827
535.414736	0.164109
535.630306	0.164842
535.845857	0.165356
536.061390	0.166105
536.276904	0.166191
536.492401	0.166247
536.707879	0.166530
536.923339	0.166029
537.138781	0.166367
537.354204	0.166723
537.569610	0.166376
537.784997	0.166402
538.000366	0.166384
538.215716	0.166962
538.431049	0.167187
538.646363	0.167424
538.861659	0.167876
539.076937	0.168014
539.292196	0.167721
539.507438	0.168262
539.722661	0.168672
539.937866	0.169129
540.153052	0.169253
540.368221	0.169426
540.583371	0.169651
540.798503	0.169483
541.013617	0.169840
541.228712	0.170562
541.443789	0.170580
541.658848	0.170523
541.873889	0.170437
542.088912	0.170711
542.303916	0.170816
542.518902	0.170653
542.733870	0.171471
542.948820	0.171340
543.163752	0.171213
543.378665	0.171260
543.593560	0.171525
543.808437	0.171768
544.023295	0.171902
544.238136	0.172391
544.452958	0.172975
544.667762	0.172791
544.882548	0.173586
545.097315	0.173677
545.312064	0.173861
545.526795	0.174021
545.741508	0.173851
545.956203	0.173687
546.170879	0.173373
546.385537	0.173682
546.600177	0.173922
546.814799	0.173943
547.029402	0.174333
547.243988	0.174378
547.458555	0.174889
547.673103	0.175259
547.887634	0.175789
548.102146	0.176535
548.316640	0.176077
548.531116	0.176094
548.745574	0.175923
548.960013	0.175774
549.174435	0.175634
549.388838	0.175123
549.603222	0.175471
549.817589	0.175594
550.031937	0.175431
550.246267	0.175669
550.460579	0.175710
550.674873	0.175724
550.889148	0.176466
551.103405	0.176648
551.317644	0.176369
551.531865	0.176513
551.746068	0.176409
551.960252	0.176270
552.174418	0.176527
552.388566	0.176748
552.602696	0.177230
552.816807	0.176842
553.030900	0.177129
553.244975	0.178128
553.459032	0.178326
553.673070	0.178680
553.887091	0.178907
554.101093	0.178824
554.315077	0.179394
554.529042	0.179487
554.742990	0.179699
554.956919	0.180283
555.170830	0.180341
555.384722	0.180661
555.598597	0.181019
555.812453	0.181465
556.026291	0.182046
556.240111	0.182060
556.453913	0.182115
556.667696	0.182385
556.881461	0.182312
557.095208	0.182508
557.308937	0.182359
557.522647	0.182889
557.736339	0.183037
557.950013	0.183019
558.163669	0.182775
558.377307	0.183125
558.590926	0.182742
558.804527	0.182785
559.018110	0.182960
559.231675	0.182723
559.445221	0.182592
559.658749	0.182423
559.872259	0.182708
560.085751	0.183223
560.299225	0.183204
560.512680	0.183706
560.726117	0.183980
560.939536	0.183953
561.152937	0.185029
561.366319	0.185266
561.579683	0.185748
561.793029	0.185856
562.006357	0.185691
562.219667	0.185696
562.432958	0.186208
562.646231	0.186200
562.859486	0.186255
563.072723	0.185930
563.285941	0.185816
563.499141	0.185845
563.712323	0.186109
563.925487	0.186695
564.138632	0.187077
564.351760	0.186923
564.564869	0.187300
564.777960	0.187885
564.991032	0.187754
565.204087	0.187870
565.417123	0.187851
565.630141	0.187638
565.843140	0.187717
566.056122	0.188179
566.269085	0.188292
566.482030	0.188129
566.694957	0.187950
566.907866	0.188366
567.120756	0.188709
567.333628	0.189001
567.546482	0.189350
567.759318	0.189353
567.972135	0.189170
568.184935	0.189436
568.397716	0.189398
568.610478	0.189694
568.823223	0.189545
569.035949	0.189584
569.248657	0.189678
569.461347	0.189814
569.674019	0.189957
569.886672	0.189982
570.099308	0.190074
570.311925	0.190214
570.524523	0.190226
570.737104	0.190646
570.949666	0.190870
571.162210	0.191022
571.374736	0.191178
571.587244	0.191231
571.799733	0.191297
572.012205	0.191592
572.224658	0.192040
572.437092	0.192437
572.649509	0.192516
572.861907	0.192326
573.074287	0.192814
573.286649	0.192694
573.498993	0.193042
573.711318	0.193363
573.923625	0.193551
574.135914	0.193645
574.348185	0.193604
574.560438	0.193929
574.772672	0.194194
574.984888	0.193989
575.197086	0.194343
575.409266	0.194544
575.621427	0.194496
575.833570	0.194531
576.045695	0.194658
576.257802	0.194765
576.469890	0.194562
576.681961	0.194603
576.894013	0.194648
577.106046	0.194602
577.318062	0.194422
577.530059	0.194600
577.742039	0.194853
577.954000	0.195182
578.165942	0.195365
578.377867	0.195215
578.589773	0.195730
578.801661	0.195922
579.013531	0.196511
579.225382	0.196699
579.437216	0.197211
579.649031	0.197453
579.860828	0.197444
580.072606	0.197407
580.284367	0.197885
580.496109	0.197702
580.707833	0.198063
580.919539	0.198184
581.131227	0.198688
581.342896	0.198933
581.554547	0.198767
581.766180	0.198966
581.977795	0.199115
582.189391	0.199341
582.400969	0.199332
582.612529	0.199552
582.824071	0.199516
583.035595	0.199406
583.247100	0.199421
583.458587	0.199600
583.670056	0.199697
583.881506	0.199928
584.092939	0.200081
584.304353	0.200310
584.515749	0.200239
584.727127	0.200499
584.938486	0.200403
585.149828	0.200521
585.361151	0.200653
585.572456	0.200862
585.783742	0.200957
585.995011	0.200706
586.206261	0.200797
586.417493	0.200569
586.628706	0.200576
586.839902	0.200862
587.051079	0.200630
587.262238	0.201060
587.473379	0.201052
587.684502	0.201128
587.895606	0.201587
588.106692	0.201984
588.317760	0.202326
588.528810	0.202485
588.739841	0.202677
588.950855	0.203388
589.161850	0.203263
589.372827	0.203715
589.583785	0.204371
589.794726	0.204635
590.005648	0.204423
590.216552	0.204501
590.427437	0.204458
590.638305	0.204707
590.849154	0.204438
591.059985	0.205168
591.270798	0.205212
591.481592	0.205007
591.692369	0.205075
591.903127	0.205362
592.113867	0.205871
592.324588	0.205889
592.535292	0.205806
592.745977	0.206126
592.956644	0.205809
593.167293	0.205681
593.377923	0.206107
593.588536	0.206453
593.799130	0.206669
594.009706	0.206673
594.220263	0.207244
594.430803	0.207218
594.641324	0.207304
594.851827	0.207086
595.062312	0.207163
595.272778	0.206979
595.483227	0.206807
595.693657	0.207022
595.904069	0.207083
596.114462	0.206926
596.324838	0.207387
596.535195	0.207547
596.745534	0.207959
596.955855	0.208330
597.166157	0.208500
597.376441	0.208872
597.586707	0.209017
597.796955	0.209485
598.007185	0.209755
598.217396	0.210108
598.427589	0.210380
598.637764	0.210746
598.847921	0.211094
599.058060	0.211541
599.268180	0.211528
599.478282	0.211615
599.688366	0.211680
599.898431	0.211925
600.108479	0.211903
600.318508	0.211817
600.528519	0.212076
600.738511	0.212163
600.948486	0.212216
601.158442	0.212562
601.368380	0.212883
601.578300	0.212829
601.788202	0.213107
601.998085	0.213082
602.207950	0.213567
602.417797	0.213460
602.627626	0.213526
602.837436	0.213579
603.047228	0.213461
603.257002	0.213366
603.466758	0.213669
603.676496	0.213575
603.886215	0.213839
604.095916	0.213725
604.305599	0.213847
604.515264	0.213746
604.724910	0.213809
604.934538	0.214144
605.144148	0.214354
605.353740	0.214504
605.563314	0.214401
605.772869	0.214395
605.982406	0.214464
606.191925	0.214416
606.401425	0.214649
606.610908	0.214807
606.820372	0.214863
607.029818	0.215112
607.239246	0.214858
607.448655	0.215467
607.658047	0.216111
607.867420	0.216415
608.076775	0.216619
608.286111	0.216785
608.495430	0.216947
608.704730	0.217203
608.914012	0.217346
609.123275	0.217728
609.332521	0.217765
609.541748	0.217564
609.750957	0.217748
609.960148	0.218164
610.169321	0.218369
610.378475	0.218424
610.587611	0.218485
610.796729	0.218916
611.005829	0.218985
611.214910	0.218772
611.423974	0.218842
611.633019	0.218745
611.842045	0.218703
612.051054	0.219032
612.260044	0.219128
612.469017	0.219282
612.677970	0.218933
612.886906	0.219207
613.095824	0.219424
613.304723	0.219363
613.513604	0.219270
613.722467	0.219350
613.931311	0.219481
614.140138	0.219462
614.348946	0.219589
614.557736	0.220050
614.766507	0.220114
614.975261	0.220330
615.183996	0.220832
615.392713	0.221165
615.601412	0.221194
615.810092	0.221413
616.018754	0.221641
616.227399	0.221777
616.436024	0.221768
616.644632	0.221927
616.853222	0.222153
617.061793	0.222099
617.270346	0.222126
617.478880	0.222516
617.687397	0.222210
617.895895	0.222474
618.104375	0.222748
618.312837	0.222849
618.521281	0.222928
618.729706	0.222928
618.938113	0.223032
619.146502	0.223301
619.354873	0.223344
619.563226	0.223444
619.771560	0.223504
619.979876	0.223525
620.188174	0.223431
620.396453	0.223607
620.604715	0.223837
620.812958	0.224118
621.021183	0.224269
621.229390	0.224494
621.437578	0.224607
621.645748	0.224491
621.853900	0.224335
622.062034	0.224651
622.270150	0.224750
622.478247	0.224664
622.686326	0.224538
622.894387	0.224680
623.102430	0.224853
623.310454	0.225089
623.518461	0.225605
623.726449	0.226074
623.934418	0.226231
624.142370	0.226477
624.350303	0.226781
624.558218	0.227156
624.766115	0.227079
624.973994	0.227067
625.181855	0.227386
625.389697	0.227514
625.597521	0.227559
625.805327	0.227821
626.013114	0.227821
626.220883	0.227980
626.428634	0.227976
626.636367	0.228326
626.844082	0.228297
627.051778	0.228468
627.259457	0.228290
627.467117	0.228356
627.674758	0.228442
627.882382	0.228739
628.089987	0.228948
628.297574	0.229231
628.505143	0.229466
628.712694	0.229855
628.920226	0.230035
629.127740	0.230110
629.335236	0.230268
629.542714	0.230178
629.750174	0.230170
629.957615	0.230079
630.165038	0.230222
630.372443	0.230288
630.579829	0.230368
630.787198	0.230241
630.994548	0.230439
631.201880	0.230433
631.409194	0.230659
631.616489	0.230679
631.823766	0.230909
632.031025	0.230678
632.238266	0.230677
632.445489	0.230761
632.652693	0.230774
632.859879	0.230915
633.067047	0.231339
633.274197	0.231650
633.481329	0.231734
633.688442	0.231927
633.895537	0.232262
634.102614	0.232399
634.309672	0.232602
634.516713	0.232789
634.723735	0.232929
634.930739	0.233091
635.137724	0.233042
635.344692	0.233258
635.551641	0.233297
635.758572	0.233568
635.965485	0.233919
636.172379	0.233965
636.379256	0.234446
636.586114	0.234741
636.792954	0.234849
636.999775	0.235083
637.206579	0.235187
637.413364	0.235424
637.620131	0.235418
637.826880	0.235286
638.033610	0.235337
638.240323	0.235485
638.447017	0.235618
638.653692	0.235635
638.860350	0.235545
639.066990	0.236012
639.273611	0.236101
639.480214	0.236416
639.686798	0.236734
639.893365	0.237095
640.099913	0.236900
640.306443	0.236996
640.512955	0.237176
640.719449	0.237480
640.925924	0.237525
641.132381	0.237693
641.338820	0.237754
641.545241	0.238042
641.751644	0.238437
641.958028	0.239101
642.164394	0.239259
642.370742	0.239470
642.577071	0.239951
642.783383	0.240162
642.989676	0.240508
643.195951	0.240574
643.402207	0.240820
643.608446	0.240793
643.814666	0.240683
644.020868	0.240986
644.227052	0.240907
644.433218	0.240787
644.639365	0.240668
644.845494	0.240691
645.051605	0.241032
645.257698	0.241021
645.463772	0.241116
645.669828	0.241213
645.875866	0.241403
646.081886	0.241878
646.287888	0.242238
646.493871	0.242761
646.699836	0.242828
646.905783	0.242830
647.111712	0.242898
647.317622	0.242849
647.523514	0.243079
647.729388	0.243170
647.935244	0.243309
648.141082	0.243270
648.346901	0.243145
648.552702	0.243440
648.758485	0.243869
648.964250	0.244035
649.169996	0.244291
649.375724	0.244283
649.581434	0.244590
649.787126	0.244416
649.992800	0.244610
650.198455	0.244701
650.404092	0.244936
650.609711	0.244943
650.815311	0.245049
651.020894	0.245141
651.226458	0.245677
651.432004	0.245787
651.637532	0.246085
651.843041	0.246228
652.048532	0.246277
652.254006	0.246189
652.459460	0.246369
652.664897	0.246767
652.870315	0.246977
653.075716	0.246875
653.281097	0.246778
653.486461	0.246985
653.691807	0.247034
653.897134	0.247377
654.102443	0.247597
654.307734	0.247752
654.513006	0.247600
654.718261	0.247551
654.923497	0.247511
655.128715	0.247520
655.333915	0.247729
655.539096	0.248197
655.744259	0.248553
655.949404	0.248699
656.154531	0.248698
656.359640	0.248759
656.564730	0.249115
656.769802	0.249419
656.974856	0.249901
657.179892	0.249972
657.384909	0.249784
657.589908	0.249722
657.794889	0.249923
657.999852	0.250168
658.204797	0.250702
658.409723	0.251044
658.614631	0.251363
658.819521	0.251479
659.024393	0.251680
659.229246	0.252038
659.434081	0.252144
659.638898	0.252419
659.843697	0.252558
660.048478	0.252740
660.253240	0.252821
660.457984	0.252704
660.662710	0.252968
660.867417	0.253255
661.072107	0.253261
661.276778	0.253684
661.481431	0.254020
661.686066	0.254155
661.890682	0.254118
662.095281	0.254441
662.299861	0.254780
662.504422	0.255083
662.708966	0.255018
662.913491	0.255371
663.117999	0.255442
663.322488	0.255493
663.526958	0.256062
663.731411	0.256208
663.935845	0.256129
664.140261	0.256353
664.344659	0.256463
664.549038	0.256739
664.753400	0.256747
664.957743	0.256920
665.162068	0.256945
665.366375	0.256767
665.570663	0.257290
665.774933	0.257527
665.979185	0.257707
666.183419	0.257840
666.387635	0.258255
666.591832	0.258576
666.796011	0.258812
667.000172	0.259150
667.204315	0.259473
667.408439	0.259599
667.612545	0.259917
667.816634	0.260168
668.020703	0.260310
668.224755	0.260232
668.428788	0.260504
668.632803	0.260661
668.836800	0.260678
669.040779	0.260876
669.244739	0.260572
669.448681	0.260917
669.652605	0.261160
669.856511	0.261359
670.060399	0.261794
670.264268	0.262001
670.468119	0.262384
670.671952	0.262726
670.875767	0.263057
671.079563	0.263705
671.283341	0.263757
671.487101	0.263942
671.690843	0.263994
671.894567	0.263788
672.098272	0.263766
672.301959	0.263692
672.505628	0.263632
672.709278	0.263707
672.912911	0.263701
673.116525	0.263794
673.320121	0.263869
673.523699	0.264094
673.727258	0.264724
673.930799	0.265031
674.134322	0.265307
674.337827	0.265455
674.541314	0.265445
674.744782	0.265604
674.948232	0.265678
675.151664	0.265951
675.355078	0.266233
675.558474	0.266301
675.761851	0.266461
675.965210	0.266672
676.168551	0.266862
676.371873	0.267439
676.575178	0.267829
676.778464	0.268068
676.981732	0.268128
677.184981	0.268101
677.388213	0.268244
677.591426	0.268363
677.794621	0.268725
677.997798	0.269112
678.200956	0.268944
678.404097	0.269077
678.607219	0.269318
678.810323	0.269497
679.013408	0.269862
679.216476	0.270000
679.419525	0.270095
679.622556	0.270103
679.825569	0.270259
680.028563	0.270531
680.231540	0.270724
680.434498	0.270851
680.637438	0.271210
680.840359	0.271165
681.043263	0.271276
681.246148	0.271512
681.449015	0.271665
681.651864	0.271828
681.854694	0.271979
682.057506	0.272065
682.260301	0.272236
682.463076	0.272230
682.665834	0.272697
682.868573	0.273013
683.071295	0.273219
683.273998	0.273440
683.476682	0.273477
683.679349	0.273639
683.881997	0.273750
684.084627	0.274099
684.287239	0.274276
684.489833	0.274113
684.692408	0.274196
684.894965	0.274161
685.097504	0.274316
685.300025	0.274784
685.502527	0.274989
685.705012	0.275087
685.907478	0.275273
686.109925	0.275494
686.312355	0.275836
686.514766	0.275872
686.717159	0.276304
686.919534	0.276237
687.121891	0.276319
687.324230	0.276520
687.526550	0.276851
687.728852	0.276800
687.931136	0.276845
688.133401	0.277129
688.335649	0.277485
688.537878	0.277571
688.740089	0.277934
688.942281	0.277893
689.144456	0.277921
689.346612	0.277863
689.548750	0.277844
689.750870	0.278085
689.952971	0.278089
690.155055	0.278205
690.357120	0.278308
690.559167	0.278423
690.761195	0.278796
690.963206	0.278954
691.165198	0.279263
691.367172	0.279372
691.569128	0.279422
691.771065	0.279742
691.972984	0.279920
692.174885	0.279917
692.376768	0.280110
692.578633	0.279921
692.780479	0.279896
692.982308	0.280057
693.184118	0.280354
693.385909	0.280325
