sample name	sample
index	268
start time	 02-25-2021  11:24:26 AM
880	0.199324
Peak Time (s)	91.035
Peak Height 	0.1993
calc peak height	90,93
Baseline Time (s)	11.036
Baseline Value 	-0.005994
subtract baseline	10,4
Abs	0.133990
Peak Time (s)	90.04
Peak Height 	0.134
calc peak height	90,93
Baseline Time (s)	10.536
Baseline Value 	0.004587
subtract baseline	10,3
PK_550	0.062864
Peak Time (s)	90.04
Peak Height 	0.06286
calc peak height	90,93
Baseline Time (s)	10.536
Baseline Value 	-2.5629E-4
subtract baseline	10,2
PK_880	0.130034
Peak Time (s)	92.035
Peak Height 	0.13
calc peak height	90,93
Baseline Time (s)	10.536
Baseline Value 	0.001299
subtract baseline	10,1


Time (s)	A880-A510	A880-A775	A880-A975	A880	I510	I775	I975	I880	
0.035500	0.000155	0.000729	-0.000395	0.002301	6857.518032	45923.950100	3976.705705	24192.035547
0.538000	-0.001088	-0.000426	-0.000663	0.004482	6826.329836	45594.644194	3970.399818	24085.211089
1.035500	-0.000373	0.000514	-0.006780	0.004285	6834.607975	45706.593485	3955.302465	24094.826479
1.539000	0.001129	0.000439	-0.000998	0.001596	6872.903972	45965.039501	3976.969867	24226.676370
2.036000	0.001479	0.000660	-0.000974	0.001207	6879.694324	46025.609980	3978.035399	24245.799886
2.536500	0.000274	-0.000597	-0.003317	0.000801	6872.350202	45941.194017	3973.041633	24265.793580
3.036500	0.000938	-0.000300	0.000896	-0.000567	6891.046459	46106.408229	3987.496018	24333.266323
3.537000	0.000629	0.000656	-0.003431	0.001243	6871.553639	46021.629403	3971.611720	24244.039809
4.037000	-0.000404	0.000689	-0.000741	0.001393	6860.714610	46010.045958	3978.157634	24236.659016
4.535000	0.000041	0.000702	-0.001773	0.001153	6866.989583	46035.070173	3976.112828	24248.464641
5.038000	0.001525	0.000435	-0.000892	0.000958	6882.400178	46027.911394	3978.890786	24258.042881
5.534500	0.000292	0.000190	0.004293	0.000723	6873.225325	46026.859061	3992.999553	24269.606599
6.035500	0.001718	-0.000105	-0.001209	0.000114	6891.962591	46058.158346	3980.256923	24299.652607
6.536000	0.000324	0.000241	-0.003779	0.000440	6876.130591	46060.099516	3972.780173	24283.576706
7.036000	0.000960	0.000250	-0.002958	-0.000149	6887.404118	46119.622221	3976.415842	24312.648489
7.536000	0.002953	0.000260	0.000729	0.000190	6902.667080	46086.896663	3985.089068	24295.901820
8.036500	0.003259	-0.000184	-0.005079	-0.000541	6912.262745	46115.320164	3971.958302	24331.972523
8.534500	0.002247	0.000354	0.002026	0.000364	6894.530941	46078.862871	3988.013602	24287.324271
9.037000	0.000378	0.000122	-0.005235	-0.000157	6882.119587	46107.701640	3970.573006	24313.049251
9.535000	-0.000586	-0.000098	-0.001159	-0.000026	6872.051034	46072.763273	3980.749340	24306.572471
10.037500	-0.000594	-0.000749	-0.000747	0.000004	6871.703248	46005.146167	3981.738305	24305.089318
10.535500	0.000000	0.000000	0.000000	0.000223	6875.141681	46057.724969	3983.108573	24294.269826
11.036000	0.000519	-0.000164	0.002953	0.000000	6881.962864	46063.556316	3991.386158	24305.278647
11.536000	-0.000363	0.000408	0.000380	-0.000011	6873.962795	46121.613508	3984.705442	24305.828428
12.036500	0.000732	0.000447	-0.002400	0.000221	6881.891567	46102.404782	3976.899841	24294.371949
12.537000	0.002054	0.000776	-0.000339	0.000619	6890.404643	46095.505318	3981.204041	24274.769608
13.037000	0.000780	-0.000296	-0.002509	0.000551	6879.294610	45995.841871	3975.765867	24278.115868
13.534500	-0.000085	0.000663	-0.002542	0.000054	6875.911909	46140.427034	3976.962207	24302.603423
14.048500	0.000300	0.000066	-0.000646	-0.000300	6882.709475	46116.254375	3982.788810	24320.074795
14.538000	0.000475	0.000104	-0.000655	0.002542	6858.238358	45838.266727	3975.413191	24180.200265
15.034500	0.002788	0.000587	-0.003835	0.002949	6875.707803	45845.640822	3966.199762	24160.213522
15.541000	0.001299	-0.000150	-0.001798	-0.000528	6894.012300	46117.465864	3980.393806	24331.342213
16.036000	0.001080	0.000458	0.001657	-0.000584	6892.512458	46183.630475	3989.524902	24334.105393
16.536000	0.000265	0.000385	-0.001175	-0.000262	6882.045820	46144.279399	3981.319219	24318.234340
17.036500	0.000042	-0.000406	0.000371	0.000522	6872.781192	45987.677597	3983.296186	24279.521177
17.536500	0.003282	0.000906	0.002445	-0.002797	6933.449781	46449.572077	3997.388651	24443.742692
18.036500	0.000334	0.001341	0.002431	0.000805	6872.861185	46133.171043	3987.920217	24265.581781
18.537000	-0.001409	0.000138	-0.001766	0.002116	6844.920655	45883.654028	3973.645475	24201.082475
19.037500	0.000826	0.000266	0.000672	0.001454	6871.424782	45961.934559	3981.657762	24233.622018
19.535000	0.000286	0.000286	0.000947	0.001399	6866.980887	45969.385614	3982.514353	24236.365761
20.035500	-0.000542	0.000688	-0.000837	0.001518	6858.306541	45997.462127	3977.587687	24230.495889
20.536000	-0.001910	-0.000327	0.002002	0.001140	6849.264548	45934.349650	3985.930254	24249.093148
21.036000	0.000688	0.000095	0.004352	0.001518	6869.573941	45938.616477	3991.076000	24230.493812
21.536000	-0.000919	0.000657	-0.006089	0.001369	6856.214835	46009.129124	3964.477197	24237.801781
22.036500	0.000971	0.000466	-0.007468	0.001213	6874.975520	46005.701841	3961.360472	24245.520349
22.536500	-0.001735	0.000243	-0.000804	0.001079	6851.413223	45996.869282	3978.805956	24252.098619
23.037500	0.000325	0.000304	-0.002220	0.001575	6865.717612	45953.699533	3973.871406	24227.676641
23.537500	0.002415	-0.000231	-0.002727	0.000885	6891.282731	45969.095481	3974.344285	24261.659055
24.038000	0.001009	-0.000016	0.000743	0.001407	6873.531855	45938.644145	3981.964976	24235.944088
24.535000	0.000943	0.000150	0.000563	0.001463	6872.410332	45949.566391	3981.350324	24233.176163
25.035500	0.001726	0.000091	-0.002020	0.001564	6878.676757	45933.652782	3974.414311	24228.226634
25.535500	0.000654	0.000436	0.001356	0.001521	6869.228329	45972.121943	3983.259968	24230.337661
26.036000	-0.000715	0.000010	0.001705	0.000685	6864.341833	46012.796625	3986.340630	24271.483119
26.536500	-0.002373	0.000736	-0.000591	0.001561	6841.195456	45997.946811	3978.111277	24228.366662
27.036500	-0.000622	0.000616	-0.001979	0.001787	6855.111593	45963.593305	3973.946837	24217.264709
27.537500	0.003303	0.000989	-0.003511	0.000464	6903.373769	46132.128561	3973.408510	24282.400824
28.037500	0.002910	0.000814	-0.000333	-0.002034	6922.888823	46363.970223	3988.115938	24405.877107
28.538000	-0.003963	0.000468	-0.008185	0.004700	6798.361441	45661.241725	3950.705252	24074.572441
29.046000	-0.002543	-0.000096	-0.003759	0.002735	6828.972546	45799.361571	3966.942227	24170.704833
29.535000	0.002993	0.001689	0.001070	0.000576	6899.466154	46190.678622	3984.971189	24276.848480
30.035500	0.001712	0.001018	0.000548	0.000164	6891.440887	46164.871313	3984.684786	24297.173899
30.536000	-0.002634	0.000631	-0.005379	0.005273	6805.189985	45620.934996	3956.352659	24046.643209
31.052000	-0.002486	-0.000314	-0.001224	0.001199	6843.465527	45929.664662	3977.410143	24246.164437
31.539500	-0.000432	0.000271	-0.002318	0.002585	6849.557984	45850.454846	3971.019669	24178.065051
32.037000	0.001198	0.000302	0.000360	0.001328	6875.999016	45978.040650	3981.175191	24239.842029
32.552500	0.002455	0.000895	-0.005201	0.003920	6863.744337	45780.221346	3960.236792	24112.671813
33.040000	-0.000411	-0.000154	0.001982	0.001961	6855.449300	45870.152412	3983.741712	24208.718900
33.537500	0.001921	0.000379	-0.001860	-0.000260	6897.291342	46143.483214	3979.540003	24318.134593
34.035500	0.001780	0.000381	-0.002129	-0.000257	6895.954942	46143.400450	3978.835409	24317.953505
34.535500	-0.001200	0.000424	-0.002919	0.004100	6828.774122	45715.961869	3965.598554	24103.875545
35.036000	0.001137	0.000427	0.000418	0.001555	6873.354478	45967.894758	3980.739717	24228.685786
35.536000	-0.001615	0.000686	-0.001803	0.001780	6846.105124	45971.210621	3974.416256	24217.589765
36.036500	-0.000570	0.000666	-0.003659	0.002113	6852.607524	45936.275293	3968.792070	24201.257308
36.536500	0.000237	0.000144	-0.001605	0.002331	6857.989982	45863.045580	3973.508660	24190.543879
37.037000	0.001007	0.000196	-0.000708	0.001838	6869.557686	45916.904847	3977.090983	24214.742662
37.537500	0.000299	0.000308	-0.000068	0.001933	6862.202398	45918.584943	3978.500395	24210.080827
38.037500	0.000681	0.000183	-0.001217	0.001338	6871.163411	45965.281074	3977.070017	24239.365311
38.535000	0.000171	0.000759	-0.002908	0.001640	6863.708615	45992.432385	3971.934409	24224.486142
39.035500	-0.000861	0.000117	0.000565	0.001417	6856.316320	45950.849366	3981.477895	24235.473899
39.535500	-0.000767	0.000693	0.000547	0.001784	6853.822576	45971.625815	3980.479686	24217.426756
40.036000	0.001276	0.000368	-0.001982	0.001947	6871.024425	45923.214359	3973.524290	24209.384672
40.536000	-0.000826	0.000386	-0.001097	0.001375	6857.020785	45981.683376	3977.285722	24237.546638
41.036000	0.000112	-0.000147	-0.001470	0.001822	6861.514385	45884.653773	3975.167585	24215.565067
41.537000	0.000444	0.000040	0.000411	0.001029	6871.824496	45981.728494	3982.083837	24254.577717
42.037000	0.000340	0.000436	0.001096	0.002279	6859.409536	45897.097124	3980.618911	24193.110360
42.537500	-0.000874	0.000875	-0.003721	0.001634	6854.202725	46004.514210	3969.860374	24224.774791
43.037500	-0.000497	0.000490	0.000559	0.001952	6854.749133	45934.820619	3980.076298	24209.181687
43.535000	-0.000660	0.000679	0.004037	0.001918	6853.569951	45956.868452	3989.206258	24210.819279
44.035500	-0.001005	0.000387	-0.001153	0.001686	6852.537759	45950.947529	3976.336349	24222.211984
44.535500	-0.000716	-0.000021	0.002567	0.002825	6844.784585	45797.961134	3983.019009	24166.328974
45.036000	0.000304	0.000580	0.001065	0.000063	6879.406026	46131.364237	3986.295323	24302.166985
45.536500	0.002295	0.000428	-0.003537	0.000005	6898.288058	46121.951706	3974.523102	24305.022146
46.046000	0.000704	-0.000154	-0.000656	-0.001002	6892.901697	46164.295571	3984.586581	24354.792232
46.537000	-0.003743	0.000251	-0.007397	0.005226	6795.613244	45588.143922	3951.365366	24048.927984
47.037500	-0.001024	-0.000362	-0.000654	0.001507	6854.000644	45894.436381	3978.085887	24231.022931
47.537500	0.001870	0.000786	0.000238	0.000764	6887.373435	46082.124644	3982.322764	24267.624405
48.035000	-0.000343	-0.000073	0.001669	-0.000864	6881.982825	46158.602213	3990.288626	24347.959264
48.535000	-0.002621	-0.000206	0.001909	0.003745	6819.118327	45688.983666	3978.928278	24121.275896
49.035500	0.000356	-0.000014	-0.002570	0.002236	6859.950163	45856.771023	3971.271369	24195.216277
49.536000	-0.000736	-0.000065	-0.000254	-0.000174	6872.029887	46090.758568	3983.480184	24313.864378
50.039000	0.001978	0.000293	-0.000825	-0.000557	6900.559118	46164.549229	3982.993550	24332.793004
50.536500	-0.001971	-0.000212	-0.000208	0.004982	6813.802521	45566.606572	3970.284796	24060.821838
51.036500	-0.000899	0.000538	-0.002213	0.002307	6847.838076	45904.456058	3972.006087	24191.745241
51.537000	0.000541	-0.000186	0.001024	-0.001959	6900.236777	46256.545611	3991.465875	24402.188681
52.037000	0.003389	0.000164	-0.000403	0.000569	6903.191403	46039.595053	3981.164673	24277.199009
52.537500	-0.002680	-0.003470	0.000074	0.006473	6793.952428	45102.658037	3967.184751	23988.198987
53.035000	-0.037983	-0.018348	-0.008390	0.268216	4857.948937	25223.219753	3452.170469	14429.830007
53.535500	-0.017950	-0.017319	-0.015619	-0.043225	7116.375187	48733.827928	4057.739267	26548.288396
54.035500	-0.028900	-0.144478	-0.022256	-0.306027	10440.968983	65535.000000	5024.071857	46234.387360
54.536000	-0.027388	-0.191903	-0.008060	-0.353452	11342.091003	65535.000000	5354.683149	51237.713562
55.036000	-0.039622	-0.138499	-0.005362	-0.300048	10155.946445	65535.000000	5079.265743	45641.465187
55.536500	-0.028479	-0.128883	-0.002289	-0.290431	10181.559046	65535.000000	5046.012907	44704.877861
56.036500	-0.024281	-0.091620	-0.009929	-0.252883	9642.282442	65493.773727	4829.534157	41240.039270
56.537000	-0.015697	-0.094341	-0.008523	-0.255889	9825.008288	65535.000000	4849.692532	41506.532037
57.037500	-0.002789	-0.083685	-0.003991	-0.245234	9861.100371	65535.000000	4821.770781	40570.156925
57.535000	0.000133	-0.062168	0.003218	-0.217275	9470.359903	64612.975768	4730.032027	38219.767936
58.035000	0.003931	-0.038331	0.007884	-0.180132	8983.723658	62750.895826	4594.954991	35322.324107
58.535500	0.011731	-0.021714	0.002836	-0.151783	8701.917166	61155.823405	4466.197526	33271.750868
59.036000	0.014743	-0.007796	0.015366	-0.088520	7948.528295	54899.412620	4288.603495	29150.948026
59.536000	0.022304	-0.001134	0.016266	-0.045349	7549.987813	50707.129439	4155.677819	26664.363493
60.036500	0.021323	0.000197	0.026270	-0.021652	7292.349861	48307.636890	4115.320342	25400.943404
60.537000	0.027722	0.004349	0.028668	0.006637	7075.749038	45853.030353	4042.402229	23980.209689
61.037000	0.039942	0.010764	0.041348	0.030578	6964.181097	44154.274502	4012.017412	22848.101138
61.537500	0.044933	0.016675	0.048284	0.056849	6769.168506	42265.065294	3961.653795	21675.550746
62.035000	0.053909	0.022121	0.059668	0.077574	6665.525335	40904.447103	3938.114378	20799.321551
62.535000	0.058175	0.026916	0.060956	0.096732	6538.114129	39668.237264	3894.466937	20025.689010
63.035500	0.069614	0.031649	0.073130	0.105677	6559.148691	39313.395378	3902.219416	19675.988961
63.536000	0.078068	0.036879	0.074485	0.108210	6609.575896	39540.196677	3899.385634	19578.288738
64.070500	0.080326	0.040343	0.079642	0.112957	6588.302444	39432.228330	3900.373033	19396.693100
64.536000	0.083816	0.043192	0.083038	0.121637	6544.314198	38944.983081	3887.732652	19069.676788
65.036500	0.090115	0.045488	0.089539	0.123460	6582.211469	38984.291622	3898.913581	19001.841632
65.543000	0.091888	0.048242	0.094856	0.127201	6565.495108	38902.318523	3902.707255	18863.486448
66.037000	0.094318	0.050228	0.091227	0.129872	6563.461505	38845.652668	3887.625203	18765.453141
66.540000	0.092359	0.051112	0.094937	0.136623	6490.438531	38363.372964	3880.423220	18520.307303
67.038000	0.099446	0.053773	0.100179	0.137415	6543.072317	38516.320450	3890.981390	18491.810992
67.535500	0.102720	0.055632	0.101286	0.141975	6532.252755	38295.547978	3882.779769	18328.661847
68.035500	0.104561	0.056632	0.108228	0.144305	6528.149087	38187.208564	3893.745973	18245.936241
68.536000	0.104234	0.057661	0.108294	0.149251	6484.195624	37870.452468	3882.144288	18071.840636
69.036000	0.107074	0.059028	0.107785	0.153503	6472.516800	37638.991430	3870.950518	17923.768657
69.536500	0.109843	0.060133	0.107259	0.152437	6504.324578	37812.996196	3872.212218	17960.745176
70.036500	0.110506	0.061204	0.110004	0.155999	6480.254559	37613.329966	3870.300612	17837.502680
70.536500	0.111225	0.060850	0.114087	0.158176	6468.205715	37411.650990	3874.766501	17762.679343
71.039500	0.114755	0.062962	0.113390	0.161749	6467.855903	37295.814636	3864.792275	17640.678848
71.535000	0.112391	0.062439	0.113983	0.162529	6442.014937	37192.777299	3864.356508	17614.164908
72.035000	0.116513	0.063798	0.119997	0.164846	6456.829271	37117.247472	3872.984049	17535.753916
72.535500	0.116685	0.063411	0.120953	0.166371	6445.722251	36966.937328	3871.653528	17484.352110
73.035500	0.113963	0.063621	0.114284	0.170709	6388.313533	36644.694291	3846.218221	17339.097417
73.536000	0.117279	0.065069	0.119238	0.170956	6413.158919	36738.141465	3857.016350	17330.883785
74.036000	0.118855	0.064612	0.116669	0.171791	6419.183835	36637.632173	3849.196702	17303.125079
74.536500	0.118345	0.065678	0.114792	0.175333	6386.368125	36445.855942	3836.873313	17185.909745
75.036500	0.114135	0.065776	0.117852	0.179327	6320.859731	36146.307873	3834.763060	17054.858619
75.537000	0.119586	0.065942	0.121431	0.176850	6384.144596	36349.228496	3848.517430	17135.997713
76.037500	0.121229	0.065667	0.119707	0.177945	6388.559933	36243.821465	3842.090067	17100.055215
76.537500	0.121755	0.066713	0.114118	0.182009	6360.142958	36013.000476	3820.401164	16967.563525
77.035000	0.119210	0.065887	0.124373	0.183009	6331.902668	35874.097116	3841.188323	16935.140066
77.535000	0.122255	0.065713	0.121419	0.180823	6373.662148	36027.211302	3839.445928	17006.110226
78.035500	0.121958	0.065321	0.124462	0.181332	6367.188604	35958.556182	3845.203934	16989.536909
78.536000	0.123862	0.066361	0.129405	0.182878	6370.058148	35920.028300	3852.975728	16939.365220
79.036500	0.123049	0.066660	0.118227	0.183857	6355.711959	35868.336577	3825.437225	16907.689447
79.536500	0.122173	0.065485	0.122809	0.183623	6350.587957	35797.071307	3836.256612	16915.277228
80.037000	0.124766	0.066505	0.130144	0.185345	6357.543580	35743.938076	3849.016457	16859.708109
80.539500	0.125905	0.066312	0.124494	0.186069	6360.859628	35674.651494	3834.537215	16836.393305
81.037500	0.125999	0.065326	0.127320	0.185714	6364.455279	35627.055248	3841.735515	16847.798795
81.535000	0.123143	0.065989	0.124342	0.186879	6332.392652	35589.251809	3832.369864	16810.362285
82.035500	0.124098	0.065419	0.127497	0.187149	6337.837167	35526.110913	3838.883107	16801.699332
82.535500	0.126227	0.066222	0.123904	0.188717	6342.299046	35468.709774	3827.264225	16751.513116
83.035500	0.123041	0.064982	0.131058	0.188383	6319.676398	35400.843808	3844.166202	16762.182773
83.536000	0.125942	0.064820	0.127982	0.188911	6338.485406	35349.221135	3835.994034	16745.301315
84.036500	0.124919	0.064574	0.130459	0.189796	6323.359502	35264.867447	3839.598063	16717.074315
84.539500	0.126534	0.065694	0.126933	0.191978	6318.869114	35185.799795	3826.744008	16647.668801
85.037000	0.126072	0.063367	0.127564	0.190206	6329.240145	35144.548126	3832.134173	16703.999109
85.537000	0.127106	0.064987	0.127032	0.191967	6323.476551	35134.127482	3826.991577	16648.024775
86.035000	0.126262	0.065553	0.124811	0.192487	6312.701358	35137.479141	3820.877280	16631.534242
86.535000	0.127511	0.064777	0.128159	0.195124	6301.769590	34885.273204	3822.461532	16548.261920
87.035500	0.127022	0.064601	0.129386	0.193406	6311.447371	34998.959793	3829.041186	16602.454157
87.536000	0.128353	0.064895	0.132397	0.194028	6317.043521	34974.737439	3834.411210	16582.797940
88.036000	0.127526	0.064090	0.127277	0.194149	6309.564119	34906.478306	3822.668889	16579.003510
88.535500	0.127558	0.062265	0.127304	0.194918	6303.763221	34715.918856	3821.017400	16554.760001
89.036500	0.127308	0.062738	0.125831	0.198289	6275.383796	34504.269167	3810.307182	16448.951661
89.536500	0.127062	0.062585	0.125065	0.193974	6307.282832	34808.548604	3818.141410	16584.516269
90.039500	0.128796	0.062864	0.133990	0.196054	6304.559586	34676.570545	3833.436068	16519.008330
90.534500	0.127212	0.061647	0.127396	0.197020	6284.549262	34517.256052	3816.559412	16488.686335
91.035000	0.126495	0.062036	0.132658	0.199324	6260.993832	34378.162096	3823.126448	16416.640346
91.535500	0.127916	0.062011	0.132041	0.196836	6291.501525	34557.109024	3827.303369	16494.438412
92.035500	0.130034	0.061861	0.130338	0.196938	6307.347359	34538.751561	3823.273557	16491.237594
92.535500	0.127194	0.060984	0.124006	0.196221	6290.657728	34527.083027	3810.838967	16513.740128
93.036000	0.124791	0.060113	0.125888	0.199746	6244.509146	34208.668972	3807.234180	16403.485663
93.536500	0.130566	0.061265	0.130262	0.197447	6307.525674	34458.382167	3821.969631	16475.284934
94.036000	0.126927	0.060331	0.127790	0.196959	6282.792198	34425.974793	3817.565213	16490.583821
94.537500	0.128673	0.060358	0.128445	0.198158	6287.075714	34341.076600	3816.359784	16453.039345
95.037500	0.126840	0.060407	0.126007	0.202023	6242.745363	34066.050540	3802.515558	16332.718794
95.584500	0.126572	0.060120	0.127639	0.197787	6273.552324	34350.713254	3815.398154	16464.642138
96.046500	0.127104	0.059204	0.131042	0.197701	6278.383680	34290.686089	3823.142905	16467.353696
96.535500	0.128716	0.058612	0.133730	0.198083	6287.997725	34220.371931	3828.294590	16455.394813
97.035500	0.125907	0.058618	0.129556	0.201843	6236.927271	33950.833690	3810.681564	16338.305187
97.536000	0.128355	0.059275	0.129210	0.198571	6281.360144	34233.025818	3817.140498	16440.151842
