sample name	sample
index	1490
start time	 05-18-2021  01:01:12 PM


Wavelength (nm)	Absorbance
494.344910	0.227902
494.563924	0.227902
494.782919	0.227902
495.001897	-0.109309
495.220856	0.007336
495.439797	0.018836
495.658719	-0.000714
495.877624	-0.045753
496.096510	-0.088043
496.315378	-0.057191
496.534227	-0.112412
496.753059	-0.044260
496.971872	0.040184
497.190667	0.049918
497.409444	0.052725
497.628203	0.061395
497.846943	0.061625
498.065665	0.062243
498.284369	0.060686
498.503055	0.060760
498.721723	0.060392
498.940372	0.060055
499.159003	0.060904
499.377616	0.062173
499.596210	0.060336
499.814787	0.061592
500.033345	0.061827
500.251885	0.063072
500.470406	0.063256
500.688910	0.062181
500.907395	0.063464
501.125862	0.062764
501.344311	0.062755
501.562742	0.062711
501.781154	0.062770
501.999548	0.063687
502.217924	0.063613
502.436282	0.063030
502.654621	0.064542
502.872942	0.063883
503.091245	0.064502
503.309530	0.063201
503.527797	0.063630
503.746045	0.062636
503.964275	0.061796
504.182487	0.060320
504.400681	0.061606
504.618856	0.060790
504.837013	0.061152
505.055152	0.060328
505.273273	0.060645
505.491376	0.060502
505.709460	0.060384
505.927526	0.060579
506.145574	0.061665
506.363604	0.061624
506.581615	0.062058
506.799608	0.061278
507.017583	0.061605
507.235540	0.061849
507.453478	0.061819
507.671399	0.062085
507.889301	0.061512
508.107185	0.062008
508.325050	0.061566
508.542898	0.061552
508.760727	0.061980
508.978538	0.061964
509.196330	0.061830
509.414105	0.061967
509.631861	0.061466
509.849599	0.061581
510.067319	0.060946
510.285021	0.061728
510.502704	0.061394
510.720369	0.061791
510.938016	0.062193
511.155645	0.062286
511.373255	0.062751
511.590848	0.063386
511.808422	0.063751
512.025977	0.063551
512.243515	0.063460
512.461034	0.063162
512.678536	0.062922
512.896018	0.062768
513.113483	0.062861
513.330930	0.062028
513.548358	0.061255
513.765768	0.061879
513.983160	0.062424
514.200533	0.061671
514.417889	0.062038
514.635226	0.061747
514.852545	0.061727
515.069845	0.060705
515.287128	0.060931
515.504392	0.061316
515.721638	0.060551
515.938866	0.059861
516.156075	0.060833
516.373267	0.061328
516.590440	0.062618
516.807594	0.062147
517.024731	0.062988
517.241850	0.062876
517.458950	0.063088
517.676032	0.063353
517.893095	0.063637
518.110141	0.063462
518.327168	0.063124
518.544177	0.062128
518.761168	0.062805
518.978141	0.062735
519.195095	0.062624
519.412031	0.062578
519.628949	0.062803
519.845849	0.062431
520.062731	0.062176
520.279594	0.062182
520.496439	0.062751
520.713266	0.062457
520.930074	0.063030
521.146865	0.062726
521.363637	0.062232
521.580391	0.062050
521.797127	0.062487
522.013844	0.062252
522.230543	0.062436
522.447224	0.061648
522.663887	0.062117
522.880532	0.061465
523.097158	0.062086
523.313766	0.062567
523.530356	0.062447
523.746928	0.062886
523.963481	0.062669
524.180017	0.062098
524.396534	0.062163
524.613032	0.061971
524.829513	0.062432
525.045975	0.062299
525.262420	0.063078
525.478845	0.063134
525.695253	0.063461
525.911643	0.064286
526.128014	0.065331
526.344367	0.065968
526.560702	0.065832
526.777018	0.065906
526.993316	0.065973
527.209597	0.065514
527.425858	0.065741
527.642102	0.065404
527.858328	0.065079
528.074535	0.064644
528.290724	0.064595
528.506894	0.064416
528.723047	0.064641
528.939181	0.065543
529.155297	0.065777
529.371395	0.066098
529.587475	0.066166
529.803536	0.066379
530.019579	0.066244
530.235604	0.065907
530.451611	0.066105
530.667600	0.065839
530.883570	0.065282
531.099522	0.065372
531.315456	0.065502
531.531372	0.065662
531.747269	0.065382
531.963148	0.065513
532.179009	0.066338
532.394852	0.066760
532.610676	0.066977
532.826482	0.067123
533.042271	0.067484
533.258040	0.067585
533.473792	0.067678
533.689525	0.068289
533.905240	0.068436
534.120937	0.068292
534.336616	0.068518
534.552277	0.068730
534.767919	0.069099
534.983543	0.068860
535.199149	0.069026
535.414736	0.068724
535.630306	0.069256
535.845857	0.069414
536.061390	0.069089
536.276904	0.068839
536.492401	0.069161
536.707879	0.068983
536.923339	0.068721
537.138781	0.068540
537.354204	0.068665
537.569610	0.067953
537.784997	0.068507
538.000366	0.068867
538.215716	0.069308
538.431049	0.068688
538.646363	0.068534
538.861659	0.069094
539.076937	0.068861
539.292196	0.069506
539.507438	0.069342
539.722661	0.069078
539.937866	0.068830
540.153052	0.068691
540.368221	0.069126
540.583371	0.069441
540.798503	0.069127
541.013617	0.069730
541.228712	0.069749
541.443789	0.070132
541.658848	0.070033
541.873889	0.070148
542.088912	0.070466
542.303916	0.070991
542.518902	0.071205
542.733870	0.071761
542.948820	0.071644
543.163752	0.071163
543.378665	0.071054
543.593560	0.071079
543.808437	0.071596
544.023295	0.071498
544.238136	0.071375
544.452958	0.071548
544.667762	0.071173
544.882548	0.071277
545.097315	0.071757
545.312064	0.072168
545.526795	0.072252
545.741508	0.072368
545.956203	0.072655
546.170879	0.072503
546.385537	0.072489
546.600177	0.072801
546.814799	0.072207
547.029402	0.072152
547.243988	0.072373
547.458555	0.072665
547.673103	0.072435
547.887634	0.072558
548.102146	0.072803
548.316640	0.072783
548.531116	0.072586
548.745574	0.073471
548.960013	0.073559
549.174435	0.073300
549.388838	0.073184
549.603222	0.073175
549.817589	0.072910
550.031937	0.073069
550.246267	0.073526
550.460579	0.073617
550.674873	0.073598
550.889148	0.073781
551.103405	0.073902
551.317644	0.074241
551.531865	0.074713
551.746068	0.074906
551.960252	0.074877
552.174418	0.074766
552.388566	0.075307
552.602696	0.075364
552.816807	0.075587
553.030900	0.076003
553.244975	0.076187
553.459032	0.076213
553.673070	0.076208
553.887091	0.076221
554.101093	0.076411
554.315077	0.076271
554.529042	0.076272
554.742990	0.076343
554.956919	0.076438
555.170830	0.076338
555.384722	0.076282
555.598597	0.076335
555.812453	0.076391
556.026291	0.076287
556.240111	0.076567
556.453913	0.076521
556.667696	0.076550
556.881461	0.076300
557.095208	0.076179
557.308937	0.076159
557.522647	0.076149
557.736339	0.076115
557.950013	0.075956
558.163669	0.075980
558.377307	0.076121
558.590926	0.076034
558.804527	0.076019
559.018110	0.076338
559.231675	0.076579
559.445221	0.076625
559.658749	0.076853
559.872259	0.077537
560.085751	0.077577
560.299225	0.077802
560.512680	0.077850
560.726117	0.078154
560.939536	0.077994
561.152937	0.078207
561.366319	0.078708
561.579683	0.079023
561.793029	0.078690
562.006357	0.078246
562.219667	0.078156
562.432958	0.078373
562.646231	0.078120
562.859486	0.078215
563.072723	0.078080
563.285941	0.077703
563.499141	0.077622
563.712323	0.077453
563.925487	0.077962
564.138632	0.077955
564.351760	0.078127
564.564869	0.078334
564.777960	0.078877
564.991032	0.078938
565.204087	0.079183
565.417123	0.079203
565.630141	0.079555
565.843140	0.079432
566.056122	0.079652
566.269085	0.079649
566.482030	0.080143
566.694957	0.080163
566.907866	0.080126
567.120756	0.080269
567.333628	0.080218
567.546482	0.080585
567.759318	0.081172
567.972135	0.081322
568.184935	0.081090
568.397716	0.081180
568.610478	0.081081
568.823223	0.081369
569.035949	0.081414
569.248657	0.081632
569.461347	0.081460
569.674019	0.081585
569.886672	0.081769
570.099308	0.082224
570.311925	0.082021
570.524523	0.082480
570.737104	0.082577
570.949666	0.082863
571.162210	0.083119
571.374736	0.083178
571.587244	0.082927
571.799733	0.083045
572.012205	0.083292
572.224658	0.083479
572.437092	0.082947
572.649509	0.082913
572.861907	0.083249
573.074287	0.083040
573.286649	0.083342
573.498993	0.083893
573.711318	0.084021
573.923625	0.084094
574.135914	0.084618
574.348185	0.085230
574.560438	0.085817
574.772672	0.085656
574.984888	0.085860
575.197086	0.086005
575.409266	0.085436
575.621427	0.085421
575.833570	0.085429
576.045695	0.085044
576.257802	0.084889
576.469890	0.084226
576.681961	0.084187
576.894013	0.084198
577.106046	0.083732
577.318062	0.083924
577.530059	0.083917
577.742039	0.084001
577.954000	0.084239
578.165942	0.084415
578.377867	0.084567
578.589773	0.084529
578.801661	0.084778
579.013531	0.085154
579.225382	0.085314
579.437216	0.085412
579.649031	0.085782
579.860828	0.085550
580.072606	0.085262
580.284367	0.085628
580.496109	0.085918
580.707833	0.085978
580.919539	0.085963
581.131227	0.086126
581.342896	0.086259
581.554547	0.086126
581.766180	0.086064
581.977795	0.086438
582.189391	0.086581
582.400969	0.086317
582.612529	0.086422
582.824071	0.086686
583.035595	0.086875
583.247100	0.086806
583.458587	0.086454
583.670056	0.086972
583.881506	0.086878
584.092939	0.086760
584.304353	0.087035
584.515749	0.086975
584.727127	0.086895
584.938486	0.086606
585.149828	0.086951
585.361151	0.087506
585.572456	0.087488
585.783742	0.087551
585.995011	0.087714
586.206261	0.087772
586.417493	0.087751
586.628706	0.087928
586.839902	0.088262
587.051079	0.088216
587.262238	0.087817
587.473379	0.087691
587.684502	0.087839
587.895606	0.087849
588.106692	0.087956
588.317760	0.088508
588.528810	0.088502
588.739841	0.088252
588.950855	0.087961
589.161850	0.088356
589.372827	0.088473
589.583785	0.088503
589.794726	0.088687
590.005648	0.088956
590.216552	0.089025
590.427437	0.088950
590.638305	0.089152
590.849154	0.089532
591.059985	0.089434
591.270798	0.089501
591.481592	0.089443
591.692369	0.089498
591.903127	0.089400
592.113867	0.089149
592.324588	0.089602
592.535292	0.089832
592.745977	0.090051
592.956644	0.090071
593.167293	0.090269
593.377923	0.090539
593.588536	0.090532
593.799130	0.090539
594.009706	0.090984
594.220263	0.090950
594.430803	0.090834
594.641324	0.090840
594.851827	0.090993
595.062312	0.090970
595.272778	0.090986
595.483227	0.090923
595.693657	0.091316
595.904069	0.091175
596.114462	0.091401
596.324838	0.091652
596.535195	0.091576
596.745534	0.091614
596.955855	0.091540
597.166157	0.091783
597.376441	0.091727
597.586707	0.091650
597.796955	0.091841
598.007185	0.091946
598.217396	0.091793
598.427589	0.092083
598.637764	0.092525
598.847921	0.092879
599.058060	0.092700
599.268180	0.093220
599.478282	0.093192
599.688366	0.093053
599.898431	0.093136
600.108479	0.093272
600.318508	0.093295
600.528519	0.092869
600.738511	0.092885
600.948486	0.092971
601.158442	0.092691
601.368380	0.092852
601.578300	0.092772
601.788202	0.092174
601.998085	0.092264
602.207950	0.092025
602.417797	0.092123
602.627626	0.092342
602.837436	0.092205
603.047228	0.092464
603.257002	0.092528
603.466758	0.092609
603.676496	0.093304
603.886215	0.093363
604.095916	0.093626
604.305599	0.093836
604.515264	0.093844
604.724910	0.094287
604.934538	0.094435
605.144148	0.094184
605.353740	0.094125
605.563314	0.093773
605.772869	0.093889
605.982406	0.093968
606.191925	0.093881
606.401425	0.093634
606.610908	0.093772
606.820372	0.093916
607.029818	0.094071
607.239246	0.094448
607.448655	0.094586
607.658047	0.094676
607.867420	0.094695
608.076775	0.094804
608.286111	0.095121
608.495430	0.095105
608.704730	0.094999
608.914012	0.095085
609.123275	0.094864
609.332521	0.095072
609.541748	0.094855
609.750957	0.094838
609.960148	0.094799
610.169321	0.094704
610.378475	0.094745
610.587611	0.094559
610.796729	0.094809
611.005829	0.094953
611.214910	0.095121
611.423974	0.095557
611.633019	0.095670
611.842045	0.095927
612.051054	0.095667
612.260044	0.095504
612.469017	0.095883
612.677970	0.095629
612.886906	0.095900
613.095824	0.095869
613.304723	0.095616
613.513604	0.095352
613.722467	0.095478
613.931311	0.095916
614.140138	0.096162
614.348946	0.095972
614.557736	0.096282
614.766507	0.095963
614.975261	0.095995
615.183996	0.096143
615.392713	0.096378
615.601412	0.096351
615.810092	0.096264
616.018754	0.096330
616.227399	0.096444
616.436024	0.096370
616.644632	0.096305
616.853222	0.096193
617.061793	0.096218
617.270346	0.096541
617.478880	0.096394
617.687397	0.096305
617.895895	0.096217
618.104375	0.096353
618.312837	0.096405
618.521281	0.096705
618.729706	0.096698
618.938113	0.096860
619.146502	0.096755
619.354873	0.096855
619.563226	0.097337
619.771560	0.097414
619.979876	0.097579
620.188174	0.097700
620.396453	0.097769
620.604715	0.097652
620.812958	0.097701
621.021183	0.097715
621.229390	0.097987
621.437578	0.097507
621.645748	0.097505
621.853900	0.097398
622.062034	0.097520
622.270150	0.097675
622.478247	0.098132
622.686326	0.098037
622.894387	0.098208
623.102430	0.097969
623.310454	0.098377
623.518461	0.098409
623.726449	0.098486
623.934418	0.098691
624.142370	0.098845
624.350303	0.098684
624.558218	0.099105
624.766115	0.098997
624.973994	0.099224
625.181855	0.099196
625.389697	0.099517
625.597521	0.099687
625.805327	0.099327
626.013114	0.099400
626.220883	0.099603
626.428634	0.099358
626.636367	0.099594
626.844082	0.099495
627.051778	0.100056
627.259457	0.099938
627.467117	0.099727
627.674758	0.099818
627.882382	0.099579
628.089987	0.099508
628.297574	0.099708
628.505143	0.099749
628.712694	0.100186
628.920226	0.100017
629.127740	0.100163
629.335236	0.100485
629.542714	0.100619
629.750174	0.100885
629.957615	0.100942
630.165038	0.100918
630.372443	0.100960
630.579829	0.100696
630.787198	0.100740
630.994548	0.100846
631.201880	0.100729
631.409194	0.101144
631.616489	0.101281
631.823766	0.101695
632.031025	0.101796
632.238266	0.101914
632.445489	0.102347
632.652693	0.102503
632.859879	0.102706
633.067047	0.102894
633.274197	0.102743
633.481329	0.102973
633.688442	0.102883
633.895537	0.102826
634.102614	0.102831
634.309672	0.102709
634.516713	0.102505
634.723735	0.102449
634.930739	0.102574
635.137724	0.102521
635.344692	0.102272
635.551641	0.102271
635.758572	0.102322
635.965485	0.102455
636.172379	0.102538
636.379256	0.102681
636.586114	0.102719
636.792954	0.102700
636.999775	0.102800
637.206579	0.102942
637.413364	0.103051
637.620131	0.103276
637.826880	0.103270
638.033610	0.103115
638.240323	0.103198
638.447017	0.103270
638.653692	0.103438
638.860350	0.103797
639.066990	0.103795
639.273611	0.103760
639.480214	0.103865
639.686798	0.103907
639.893365	0.104073
640.099913	0.103880
640.306443	0.103941
640.512955	0.104033
640.719449	0.103938
640.925924	0.104117
641.132381	0.104253
641.338820	0.104437
641.545241	0.104505
641.751644	0.104778
641.958028	0.105158
642.164394	0.104995
642.370742	0.104989
642.577071	0.104896
642.783383	0.105095
642.989676	0.105399
643.195951	0.105234
643.402207	0.105426
643.608446	0.105486
643.814666	0.105482
644.020868	0.105888
644.227052	0.105737
644.433218	0.105975
644.639365	0.106083
644.845494	0.106034
645.051605	0.106029
645.257698	0.105854
645.463772	0.105621
645.669828	0.105742
645.875866	0.105573
646.081886	0.105867
646.287888	0.105820
646.493871	0.105632
646.699836	0.105497
646.905783	0.105653
647.111712	0.105891
647.317622	0.106021
647.523514	0.105945
647.729388	0.106109
647.935244	0.106194
648.141082	0.106286
648.346901	0.106457
648.552702	0.106701
648.758485	0.106620
648.964250	0.106711
649.169996	0.106953
649.375724	0.107346
649.581434	0.107430
649.787126	0.107572
649.992800	0.107695
650.198455	0.107809
650.404092	0.107854
650.609711	0.108124
650.815311	0.108334
651.020894	0.108715
651.226458	0.108613
651.432004	0.108815
651.637532	0.108786
651.843041	0.108913
652.048532	0.108959
652.254006	0.109023
652.459460	0.109141
652.664897	0.108872
652.870315	0.108722
653.075716	0.108813
653.281097	0.109059
653.486461	0.109281
653.691807	0.109412
653.897134	0.109397
654.102443	0.109631
654.307734	0.109710
654.513006	0.109980
654.718261	0.110148
654.923497	0.110216
655.128715	0.110217
655.333915	0.110013
655.539096	0.110175
655.744259	0.110179
655.949404	0.109941
656.154531	0.110121
656.359640	0.110363
656.564730	0.110317
656.769802	0.110351
656.974856	0.110387
657.179892	0.110574
657.384909	0.110492
657.589908	0.110621
657.794889	0.110824
657.999852	0.110829
658.204797	0.110716
658.409723	0.110607
658.614631	0.110720
658.819521	0.110771
659.024393	0.111008
659.229246	0.111177
659.434081	0.111301
659.638898	0.111510
659.843697	0.111590
660.048478	0.111799
660.253240	0.112148
660.457984	0.112258
660.662710	0.112418
660.867417	0.112651
661.072107	0.112781
661.276778	0.113112
661.481431	0.113111
661.686066	0.113319
661.890682	0.113421
662.095281	0.113339
662.299861	0.113510
662.504422	0.113366
662.708966	0.113406
662.913491	0.113391
663.117999	0.113183
663.322488	0.113271
663.526958	0.113197
663.731411	0.113069
663.935845	0.113141
664.140261	0.113252
664.344659	0.113404
664.549038	0.113267
664.753400	0.113255
664.957743	0.113481
665.162068	0.113509
665.366375	0.113679
665.570663	0.113803
665.774933	0.113869
665.979185	0.113487
666.183419	0.113550
666.387635	0.113718
666.591832	0.113840
666.796011	0.114022
667.000172	0.114072
667.204315	0.114005
667.408439	0.114162
667.612545	0.114182
667.816634	0.114523
668.020703	0.114600
668.224755	0.114517
668.428788	0.114514
668.632803	0.114341
668.836800	0.114400
669.040779	0.114518
669.244739	0.114511
669.448681	0.114882
669.652605	0.114995
669.856511	0.115114
670.060399	0.115237
670.264268	0.115400
670.468119	0.115754
670.671952	0.115969
670.875767	0.116113
671.079563	0.116159
671.283341	0.116139
671.487101	0.116179
671.690843	0.116310
671.894567	0.116536
672.098272	0.116671
672.301959	0.116632
672.505628	0.116695
672.709278	0.116877
672.912911	0.116908
673.116525	0.116777
673.320121	0.116758
673.523699	0.116836
673.727258	0.116752
673.930799	0.116752
674.134322	0.116802
674.337827	0.116791
674.541314	0.116852
674.744782	0.116974
674.948232	0.117239
675.151664	0.117368
675.355078	0.117447
675.558474	0.117582
675.761851	0.117667
675.965210	0.117754
676.168551	0.117828
676.371873	0.117928
676.575178	0.118147
676.778464	0.118204
676.981732	0.118449
677.184981	0.118402
677.388213	0.118520
677.591426	0.118576
677.794621	0.118630
677.997798	0.118723
678.200956	0.118903
678.404097	0.119079
678.607219	0.119307
678.810323	0.119506
679.013408	0.119695
679.216476	0.119719
679.419525	0.119857
679.622556	0.120064
679.825569	0.120165
680.028563	0.120232
680.231540	0.120178
680.434498	0.120305
680.637438	0.120237
680.840359	0.120375
681.043263	0.120452
681.246148	0.120509
681.449015	0.120503
681.651864	0.120655
681.854694	0.120557
682.057506	0.120895
682.260301	0.120617
682.463076	0.120709
682.665834	0.120805
682.868573	0.120888
683.071295	0.121066
683.273998	0.121091
683.476682	0.121250
683.679349	0.121356
683.881997	0.121322
684.084627	0.121592
684.287239	0.121587
684.489833	0.121521
684.692408	0.121592
684.894965	0.121490
685.097504	0.121542
685.300025	0.121591
685.502527	0.121595
685.705012	0.121669
685.907478	0.121726
686.109925	0.121846
686.312355	0.121935
686.514766	0.122037
686.717159	0.122161
686.919534	0.122307
687.121891	0.122287
687.324230	0.122433
687.526550	0.122419
687.728852	0.122455
687.931136	0.122541
688.133401	0.122634
688.335649	0.122687
688.537878	0.122719
688.740089	0.122900
688.942281	0.122966
689.144456	0.122905
689.346612	0.122923
689.548750	0.123117
689.750870	0.123067
689.952971	0.123057
690.155055	0.123183
690.357120	0.123309
690.559167	0.123162
690.761195	0.123271
690.963206	0.123480
691.165198	0.123689
691.367172	0.123688
691.569128	0.123872
691.771065	0.123944
691.972984	0.124019
692.174885	0.124163
692.376768	0.124351
692.578633	0.124369
692.780479	0.124321
692.982308	0.124246
693.184118	0.124434
693.385909	0.124316
