sample name	sample
index	576
start time	 03-16-2021  03:25:13 PM


Wavelength (nm)	Absorbance
494.344910	-0.053063
494.563924	-0.053063
494.782919	-0.053063
495.001897	-0.154357
495.220856	-0.143399
495.439797	-0.059675
495.658719	-0.037302
495.877624	0.015088
496.096510	0.033768
496.315378	0.092440
496.534227	0.102521
496.753059	0.209197
496.971872	0.142750
497.190667	0.070246
497.409444	0.054552
497.628203	0.051909
497.846943	0.051120
498.065665	0.052882
498.284369	0.054292
498.503055	0.053980
498.721723	0.053343
498.940372	0.054398
499.159003	0.053418
499.377616	0.054025
499.596210	0.055217
499.814787	0.056481
500.033345	0.056917
500.251885	0.057809
500.470406	0.059379
500.688910	0.060088
500.907395	0.060213
501.125862	0.061839
501.344311	0.062158
501.562742	0.062563
501.781154	0.062099
501.999548	0.061026
502.217924	0.061426
502.436282	0.060396
502.654621	0.060906
502.872942	0.061948
503.091245	0.061192
503.309530	0.061190
503.527797	0.060301
503.746045	0.059315
503.964275	0.059807
504.182487	0.059213
504.400681	0.060146
504.618856	0.058383
504.837013	0.057074
505.055152	0.057256
505.273273	0.056886
505.491376	0.057581
505.709460	0.058042
505.927526	0.058365
506.145574	0.057803
506.363604	0.057404
506.581615	0.058950
506.799608	0.059781
507.017583	0.060092
507.235540	0.060601
507.453478	0.060818
507.671399	0.061322
507.889301	0.061015
508.107185	0.061503
508.325050	0.062361
508.542898	0.061339
508.760727	0.061096
508.978538	0.061015
509.196330	0.060637
509.414105	0.061570
509.631861	0.061041
509.849599	0.061227
510.067319	0.061870
510.285021	0.061889
510.502704	0.061953
510.720369	0.062057
510.938016	0.061114
511.155645	0.061629
511.373255	0.060090
511.590848	0.059975
511.808422	0.059256
512.025977	0.058638
512.243515	0.057299
512.461034	0.057090
512.678536	0.057098
512.896018	0.058164
513.113483	0.057656
513.330930	0.058045
513.548358	0.059680
513.765768	0.061225
513.983160	0.060363
514.200533	0.061672
514.417889	0.062781
514.635226	0.063129
514.852545	0.063373
515.069845	0.063873
515.287128	0.064154
515.504392	0.063161
515.721638	0.062857
515.938866	0.063736
516.156075	0.063996
516.373267	0.064056
516.590440	0.064248
516.807594	0.064369
517.024731	0.063981
517.241850	0.063973
517.458950	0.064039
517.676032	0.063777
517.893095	0.064204
518.110141	0.064337
518.327168	0.064759
518.544177	0.064975
518.761168	0.064960
518.978141	0.065197
519.195095	0.064984
519.412031	0.065466
519.628949	0.066103
519.845849	0.066188
520.062731	0.066224
520.279594	0.066305
520.496439	0.066000
520.713266	0.065511
520.930074	0.066286
521.146865	0.067600
521.363637	0.067839
521.580391	0.067727
521.797127	0.067673
522.013844	0.066932
522.230543	0.066336
522.447224	0.066274
522.663887	0.066818
522.880532	0.066857
523.097158	0.066334
523.313766	0.065723
523.530356	0.065802
523.746928	0.066834
523.963481	0.066967
524.180017	0.067049
524.396534	0.067730
524.613032	0.067522
524.829513	0.067222
525.045975	0.067124
525.262420	0.067540
525.478845	0.068149
525.695253	0.067116
525.911643	0.067883
526.128014	0.068715
526.344367	0.068399
526.560702	0.068812
526.777018	0.069660
526.993316	0.069920
527.209597	0.070419
527.425858	0.069996
527.642102	0.070240
527.858328	0.069499
528.074535	0.069202
528.290724	0.069371
528.506894	0.068842
528.723047	0.068381
528.939181	0.068195
529.155297	0.068375
529.371395	0.068982
529.587475	0.069174
529.803536	0.070182
530.019579	0.070547
530.235604	0.070465
530.451611	0.070597
530.667600	0.070651
530.883570	0.071597
531.099522	0.072134
531.315456	0.072384
531.531372	0.072491
531.747269	0.072603
531.963148	0.072420
532.179009	0.072957
532.394852	0.073881
532.610676	0.074079
532.826482	0.073962
533.042271	0.073586
533.258040	0.072851
533.473792	0.073271
533.689525	0.072876
533.905240	0.073199
534.120937	0.073211
534.336616	0.072950
534.552277	0.073367
534.767919	0.073105
534.983543	0.073047
535.199149	0.074092
535.414736	0.074376
535.630306	0.074899
535.845857	0.075258
536.061390	0.074983
536.276904	0.075611
536.492401	0.075780
536.707879	0.076096
536.923339	0.076609
537.138781	0.075903
537.354204	0.075298
537.569610	0.075282
537.784997	0.075140
538.000366	0.076388
538.215716	0.076398
538.431049	0.076326
538.646363	0.076209
538.861659	0.076293
539.076937	0.076553
539.292196	0.077396
539.507438	0.077728
539.722661	0.077830
539.937866	0.076957
540.153052	0.076809
540.368221	0.077059
540.583371	0.077176
540.798503	0.078041
541.013617	0.078357
541.228712	0.078303
541.443789	0.078102
541.658848	0.078439
541.873889	0.078822
542.088912	0.079239
542.303916	0.079101
542.518902	0.079164
542.733870	0.078729
542.948820	0.079074
543.163752	0.079139
543.378665	0.079816
543.593560	0.079754
543.808437	0.080638
544.023295	0.081154
544.238136	0.081530
544.452958	0.082386
544.667762	0.081817
544.882548	0.081699
545.097315	0.081643
545.312064	0.081672
545.526795	0.081752
545.741508	0.080809
545.956203	0.080667
546.170879	0.080959
546.385537	0.080809
546.600177	0.081450
546.814799	0.081472
547.029402	0.081594
547.243988	0.081975
547.458555	0.082064
547.673103	0.082728
547.887634	0.082761
548.102146	0.082709
548.316640	0.083011
548.531116	0.082778
548.745574	0.083392
548.960013	0.084059
549.174435	0.083723
549.388838	0.084602
549.603222	0.084778
549.817589	0.084872
550.031937	0.085047
550.246267	0.085044
550.460579	0.085451
550.674873	0.085132
550.889148	0.084974
551.103405	0.085394
551.317644	0.085074
551.531865	0.085159
551.746068	0.085561
551.960252	0.085165
552.174418	0.085258
552.388566	0.085265
552.602696	0.085423
552.816807	0.084891
553.030900	0.085039
553.244975	0.084942
553.459032	0.084827
553.673070	0.084658
553.887091	0.085207
554.101093	0.085246
554.315077	0.085354
554.529042	0.085306
554.742990	0.086740
554.956919	0.086920
555.170830	0.087125
555.384722	0.087812
555.598597	0.087775
555.812453	0.087714
556.026291	0.087796
556.240111	0.087377
556.453913	0.087498
556.667696	0.086723
556.881461	0.086618
557.095208	0.086708
557.308937	0.086317
557.522647	0.086643
557.736339	0.086582
557.950013	0.086486
558.163669	0.086944
558.377307	0.087340
558.590926	0.087140
558.804527	0.087010
559.018110	0.087676
559.231675	0.087546
559.445221	0.087623
559.658749	0.087784
559.872259	0.087733
560.085751	0.088292
560.299225	0.088375
560.512680	0.088624
560.726117	0.088727
560.939536	0.088105
561.152937	0.088835
561.366319	0.089061
561.579683	0.089077
561.793029	0.089332
562.006357	0.089295
562.219667	0.089331
562.432958	0.089844
562.646231	0.090267
562.859486	0.090656
563.072723	0.090298
563.285941	0.090139
563.499141	0.090356
563.712323	0.090699
563.925487	0.090225
564.138632	0.090119
564.351760	0.090374
564.564869	0.089835
564.777960	0.089946
564.991032	0.090075
565.204087	0.090068
565.417123	0.090046
565.630141	0.090232
565.843140	0.090682
566.056122	0.090812
566.269085	0.090537
566.482030	0.090658
566.694957	0.090385
566.907866	0.090270
567.120756	0.090473
567.333628	0.090497
567.546482	0.090313
567.759318	0.090019
567.972135	0.090114
568.184935	0.090293
568.397716	0.090783
568.610478	0.091626
568.823223	0.091872
569.035949	0.091939
569.248657	0.092274
569.461347	0.092145
569.674019	0.092469
569.886672	0.092359
570.099308	0.092246
570.311925	0.092398
570.524523	0.091823
570.737104	0.092105
570.949666	0.092209
571.162210	0.092381
571.374736	0.092517
571.587244	0.092996
571.799733	0.093054
572.012205	0.092710
572.224658	0.092529
572.437092	0.092645
572.649509	0.092631
572.861907	0.092185
573.074287	0.092157
573.286649	0.092265
573.498993	0.092048
573.711318	0.092277
573.923625	0.092847
574.135914	0.093200
574.348185	0.093246
574.560438	0.093413
574.772672	0.093841
574.984888	0.093874
575.197086	0.093815
575.409266	0.093922
575.621427	0.093717
575.833570	0.093666
576.045695	0.093493
576.257802	0.093600
576.469890	0.093543
576.681961	0.093639
576.894013	0.093585
577.106046	0.093781
577.318062	0.093536
577.530059	0.093702
577.742039	0.093722
577.954000	0.093985
578.165942	0.093936
578.377867	0.093699
578.589773	0.093295
578.801661	0.093732
579.013531	0.093667
579.225382	0.093862
579.437216	0.093840
579.649031	0.094275
579.860828	0.093917
580.072606	0.094297
580.284367	0.094798
580.496109	0.095270
580.707833	0.095052
580.919539	0.095333
581.131227	0.095576
581.342896	0.095914
581.554547	0.095677
581.766180	0.096053
581.977795	0.095965
582.189391	0.096017
582.400969	0.096175
582.612529	0.096169
582.824071	0.096122
583.035595	0.096191
583.247100	0.096539
583.458587	0.096390
583.670056	0.096356
583.881506	0.096123
584.092939	0.095688
584.304353	0.095853
584.515749	0.095910
584.727127	0.096255
584.938486	0.096180
585.149828	0.095815
585.361151	0.095843
585.572456	0.095796
585.783742	0.096066
585.995011	0.096203
586.206261	0.096074
586.417493	0.096078
586.628706	0.096087
586.839902	0.095938
587.051079	0.096416
587.262238	0.096543
587.473379	0.097135
587.684502	0.097327
587.895606	0.097907
588.106692	0.097988
588.317760	0.097798
588.528810	0.097528
588.739841	0.097926
588.950855	0.097988
589.161850	0.098192
589.372827	0.098208
589.583785	0.098428
589.794726	0.097937
590.005648	0.098287
590.216552	0.098429
590.427437	0.098912
590.638305	0.098639
590.849154	0.098522
591.059985	0.098626
591.270798	0.098128
591.481592	0.098138
591.692369	0.098053
591.903127	0.098030
592.113867	0.098595
592.324588	0.098284
592.535292	0.098738
592.745977	0.098940
592.956644	0.098874
593.167293	0.099080
593.377923	0.099232
593.588536	0.099591
593.799130	0.099202
594.009706	0.099046
594.220263	0.099363
594.430803	0.099492
594.641324	0.099452
594.851827	0.099621
595.062312	0.099717
595.272778	0.099596
595.483227	0.099560
595.693657	0.099828
595.904069	0.099806
596.114462	0.099757
596.324838	0.099568
596.535195	0.099513
596.745534	0.099434
596.955855	0.099560
597.166157	0.099766
597.376441	0.099839
597.586707	0.099825
597.796955	0.099887
598.007185	0.099922
598.217396	0.099835
598.427589	0.100262
598.637764	0.100509
598.847921	0.100605
599.058060	0.100526
599.268180	0.100565
599.478282	0.100758
599.688366	0.101076
599.898431	0.101419
600.108479	0.101368
600.318508	0.101117
600.528519	0.101030
600.738511	0.101014
600.948486	0.101022
601.158442	0.101307
601.368380	0.101841
601.578300	0.101771
601.788202	0.101439
601.998085	0.102028
602.207950	0.102369
602.417797	0.102492
602.627626	0.102528
602.837436	0.102963
603.047228	0.102660
603.257002	0.102782
603.466758	0.102570
603.676496	0.103203
603.886215	0.102808
604.095916	0.102912
604.305599	0.103356
604.515264	0.103523
604.724910	0.103013
604.934538	0.103371
605.144148	0.103021
605.353740	0.103313
605.563314	0.102967
605.772869	0.103299
605.982406	0.102849
606.191925	0.102840
606.401425	0.103006
606.610908	0.103128
606.820372	0.103142
607.029818	0.102915
607.239246	0.103211
607.448655	0.103120
607.658047	0.103193
607.867420	0.103701
608.076775	0.103478
608.286111	0.103317
608.495430	0.103651
608.704730	0.103890
608.914012	0.104493
609.123275	0.104313
609.332521	0.104865
609.541748	0.104858
609.750957	0.104781
609.960148	0.105192
610.169321	0.105461
610.378475	0.105263
610.587611	0.105160
610.796729	0.104887
611.005829	0.104951
611.214910	0.104837
611.423974	0.104875
611.633019	0.104845
611.842045	0.104478
612.051054	0.104406
612.260044	0.104464
612.469017	0.104713
612.677970	0.105043
612.886906	0.105333
613.095824	0.105285
613.304723	0.105653
613.513604	0.105991
613.722467	0.106311
613.931311	0.106466
614.140138	0.106312
614.348946	0.106293
614.557736	0.106320
614.766507	0.106215
614.975261	0.106266
615.183996	0.106106
615.392713	0.106066
615.601412	0.106183
615.810092	0.106215
616.018754	0.106637
616.227399	0.106786
616.436024	0.106814
616.644632	0.106897
616.853222	0.106824
617.061793	0.106479
617.270346	0.106393
617.478880	0.106221
617.687397	0.106265
617.895895	0.106488
618.104375	0.106502
618.312837	0.106450
618.521281	0.106467
618.729706	0.106541
618.938113	0.107090
619.146502	0.106816
619.354873	0.107159
619.563226	0.107413
619.771560	0.107100
619.979876	0.106741
620.188174	0.106669
620.396453	0.106800
620.604715	0.106980
620.812958	0.106855
621.021183	0.107329
621.229390	0.107217
621.437578	0.107094
621.645748	0.107180
621.853900	0.107653
622.062034	0.107942
622.270150	0.107996
622.478247	0.108265
622.686326	0.108329
622.894387	0.108484
623.102430	0.108647
623.310454	0.108528
623.518461	0.108626
623.726449	0.108755
623.934418	0.108902
624.142370	0.109191
624.350303	0.109105
624.558218	0.109241
624.766115	0.109334
624.973994	0.109162
625.181855	0.109620
625.389697	0.109683
625.597521	0.109661
625.805327	0.109728
626.013114	0.109508
626.220883	0.109695
626.428634	0.109933
626.636367	0.109842
626.844082	0.110203
627.051778	0.109940
627.259457	0.109818
627.467117	0.109908
627.674758	0.109807
627.882382	0.110143
628.089987	0.109976
628.297574	0.109884
628.505143	0.109878
628.712694	0.109799
628.920226	0.110005
629.127740	0.110301
629.335236	0.110275
629.542714	0.110546
629.750174	0.110357
629.957615	0.110527
630.165038	0.110778
630.372443	0.110778
630.579829	0.110931
630.787198	0.110739
630.994548	0.110793
631.201880	0.111067
631.409194	0.110998
631.616489	0.111004
631.823766	0.111190
632.031025	0.111364
632.238266	0.111699
632.445489	0.111815
632.652693	0.112065
632.859879	0.112002
633.067047	0.112101
633.274197	0.112376
633.481329	0.112546
633.688442	0.112527
633.895537	0.112358
634.102614	0.112448
634.309672	0.112359
634.516713	0.112611
634.723735	0.113156
634.930739	0.113162
635.137724	0.113171
635.344692	0.113377
635.551641	0.113511
635.758572	0.113648
635.965485	0.113722
636.172379	0.113961
636.379256	0.113911
636.586114	0.113626
636.792954	0.113578
636.999775	0.113437
637.206579	0.113283
637.413364	0.113259
637.620131	0.113304
637.826880	0.113421
638.033610	0.113468
638.240323	0.113633
638.447017	0.113770
638.653692	0.114035
638.860350	0.114170
639.066990	0.114152
639.273611	0.114302
639.480214	0.114538
639.686798	0.114454
639.893365	0.114677
640.099913	0.114635
640.306443	0.114912
640.512955	0.114878
640.719449	0.114933
640.925924	0.115078
641.132381	0.115183
641.338820	0.114909
641.545241	0.114983
641.751644	0.114836
641.958028	0.115110
642.164394	0.115179
642.370742	0.115283
642.577071	0.115841
642.783383	0.116162
642.989676	0.115990
643.195951	0.116402
643.402207	0.116642
643.608446	0.116732
643.814666	0.116580
644.020868	0.116528
644.227052	0.116617
644.433218	0.116448
644.639365	0.116403
644.845494	0.116684
645.051605	0.116640
645.257698	0.116896
645.463772	0.117142
645.669828	0.117595
645.875866	0.117942
646.081886	0.118107
646.287888	0.117907
646.493871	0.118118
646.699836	0.118080
646.905783	0.118035
647.111712	0.117892
647.317622	0.117941
647.523514	0.117728
647.729388	0.117494
647.935244	0.117525
648.141082	0.117820
648.346901	0.118095
648.552702	0.118074
648.758485	0.118188
648.964250	0.118081
649.169996	0.118091
649.375724	0.118429
649.581434	0.118549
649.787126	0.118644
649.992800	0.118569
650.198455	0.118454
650.404092	0.119009
650.609711	0.119435
650.815311	0.119769
651.020894	0.119821
651.226458	0.119790
651.432004	0.120074
651.637532	0.120091
651.843041	0.120187
652.048532	0.120097
652.254006	0.120017
652.459460	0.119875
652.664897	0.119844
652.870315	0.119754
653.075716	0.119695
653.281097	0.119833
653.486461	0.119940
653.691807	0.120079
653.897134	0.120163
654.102443	0.120149
654.307734	0.120402
654.513006	0.120631
654.718261	0.121036
654.923497	0.121251
655.128715	0.120992
655.333915	0.121132
655.539096	0.121278
655.744259	0.121542
655.949404	0.121767
656.154531	0.121782
656.359640	0.121665
656.564730	0.121549
656.769802	0.121493
656.974856	0.121829
657.179892	0.121836
657.384909	0.122035
657.589908	0.122125
657.794889	0.122276
657.999852	0.122542
658.204797	0.122728
658.409723	0.122895
658.614631	0.122957
658.819521	0.123028
659.024393	0.123040
659.229246	0.122796
659.434081	0.122802
659.638898	0.122615
659.843697	0.122567
660.048478	0.122617
660.253240	0.122713
660.457984	0.122851
660.662710	0.122945
660.867417	0.123160
661.072107	0.123597
661.276778	0.123696
661.481431	0.123955
661.686066	0.123937
661.890682	0.124046
662.095281	0.124516
662.299861	0.124708
662.504422	0.125146
662.708966	0.125332
662.913491	0.125403
663.117999	0.125719
663.322488	0.125975
663.526958	0.126165
663.731411	0.126381
663.935845	0.126281
664.140261	0.126417
664.344659	0.126019
664.549038	0.126044
664.753400	0.126147
664.957743	0.126118
665.162068	0.125998
665.366375	0.126111
665.570663	0.126196
665.774933	0.126094
665.979185	0.126143
666.183419	0.126388
666.387635	0.126544
666.591832	0.126542
666.796011	0.126561
667.000172	0.126774
667.204315	0.126906
667.408439	0.127243
667.612545	0.127418
667.816634	0.127674
668.020703	0.127716
668.224755	0.127724
668.428788	0.127839
668.632803	0.127921
668.836800	0.128076
669.040779	0.128126
669.244739	0.127944
669.448681	0.128135
669.652605	0.128279
669.856511	0.128586
670.060399	0.128708
670.264268	0.128846
670.468119	0.129217
670.671952	0.129128
670.875767	0.129004
671.079563	0.129065
671.283341	0.129190
671.487101	0.129217
671.690843	0.129125
671.894567	0.129100
672.098272	0.129122
672.301959	0.129351
672.505628	0.129582
672.709278	0.129998
672.912911	0.130060
673.116525	0.129913
673.320121	0.130160
673.523699	0.130155
673.727258	0.130572
673.930799	0.130607
674.134322	0.130500
674.337827	0.130566
674.541314	0.130622
674.744782	0.130747
674.948232	0.131036
675.151664	0.131115
675.355078	0.131511
675.558474	0.131454
675.761851	0.131754
675.965210	0.131947
676.168551	0.132201
676.371873	0.132186
676.575178	0.132200
676.778464	0.132359
676.981732	0.132627
677.184981	0.132540
677.388213	0.132663
677.591426	0.132925
677.794621	0.132822
677.997798	0.132699
678.200956	0.133088
678.404097	0.133191
678.607219	0.133272
678.810323	0.132957
679.013408	0.133236
679.216476	0.133272
679.419525	0.133024
679.622556	0.133185
679.825569	0.133337
680.028563	0.133272
680.231540	0.133883
680.434498	0.133962
680.637438	0.134253
680.840359	0.134278
681.043263	0.134584
681.246148	0.134929
681.449015	0.134929
681.651864	0.135062
681.854694	0.135085
682.057506	0.134908
682.260301	0.135112
682.463076	0.135137
682.665834	0.135188
682.868573	0.135058
683.071295	0.134939
683.273998	0.135123
683.476682	0.135327
683.679349	0.135338
683.881997	0.135131
684.084627	0.135307
684.287239	0.135353
684.489833	0.135351
684.692408	0.135522
684.894965	0.135590
685.097504	0.135851
685.300025	0.135934
685.502527	0.136155
685.705012	0.136513
685.907478	0.136408
686.109925	0.136382
686.312355	0.136612
686.514766	0.136688
686.717159	0.136911
686.919534	0.136807
687.121891	0.136619
687.324230	0.136633
687.526550	0.136707
687.728852	0.136711
687.931136	0.136792
688.133401	0.136844
688.335649	0.136726
688.537878	0.136761
688.740089	0.136780
688.942281	0.137058
689.144456	0.137232
689.346612	0.137198
689.548750	0.137453
689.750870	0.137580
689.952971	0.137552
690.155055	0.137906
690.357120	0.138063
690.559167	0.138387
690.761195	0.138527
690.963206	0.138642
691.165198	0.138621
691.367172	0.138455
691.569128	0.138582
691.771065	0.138811
691.972984	0.138823
692.174885	0.138876
692.376768	0.138771
692.578633	0.138695
692.780479	0.138671
692.982308	0.138951
693.184118	0.138986
693.385909	0.138948
