sample name	sample
index	1371
start time	 05-03-2021  02:25:16 PM
880	0.496040
Peak Time (s)	92.535
Peak Height 	0.496
calc peak height	90,93
Baseline Time (s)	9.036
Baseline Value 	-0.005808
subtract baseline	10,4
Abs	0.317880
Peak Time (s)	92.535
Peak Height 	0.3179
calc peak height	90,93
Baseline Time (s)	10.04
Baseline Value 	0.002316
subtract baseline	10,3
PK_550	0.175543
Peak Time (s)	92.535
Peak Height 	0.1755
calc peak height	90,93
Baseline Time (s)	11.535
Baseline Value 	1.206E-4
subtract baseline	10,2
PK_880	0.303887
Peak Time (s)	92.037
Peak Height 	0.3039
calc peak height	90,93
Baseline Time (s)	10.537
Baseline Value 	9.5672E-4
subtract baseline	10,1


Time (s)	A880-A510	A880-A775	A880-A975	A880	I510	I775	I975	I880	
0.036000	0.000768	-0.000038	-0.002605	0.003703	6143.779542	42374.260751	3923.876232	22058.568406
0.537000	-0.002683	0.000059	-0.000356	0.006356	6099.704288	42143.364853	3922.987106	21942.443795
1.039500	0.000142	0.000920	0.004131	0.005710	6124.693947	42279.362070	3934.369247	21970.651602
1.538000	0.000846	0.000767	0.002942	0.003071	6148.958932	42504.742334	3937.610996	22086.375688
2.038000	-0.001310	-0.000439	0.000057	0.002312	6138.794032	42464.150196	3932.862388	22119.789488
2.537500	-0.002191	0.000328	-0.005528	0.004908	6113.648094	42298.295440	3914.808931	22005.731536
3.035000	-0.001383	-0.000441	-0.005732	0.003711	6128.122152	42336.989694	3916.983202	22058.227440
3.536000	0.001928	0.000751	-0.003799	0.001813	6166.048772	42617.775928	3925.414197	22141.779239
4.035500	-0.000637	0.000042	0.001134	0.000980	6153.386374	42629.107070	3938.244583	22178.563158
4.536500	-0.000039	0.000443	-0.001082	0.004953	6128.860463	42304.603414	3924.478490	22003.753618
5.037000	0.000955	-0.000552	-0.004265	0.000423	6169.100633	42625.721883	3927.458848	22203.184570
5.539500	0.000429	0.000466	0.002902	0.001156	6159.886352	42651.682012	3941.814357	22170.765236
6.037000	0.000200	0.000782	-0.005405	0.001200	6157.888620	42676.592207	3923.221300	22168.827049
6.537500	0.000111	0.000169	-0.004041	0.000807	6160.116151	42656.468387	3927.104675	22186.201081
7.035000	0.000988	0.000068	-0.003854	0.000697	6167.337097	42657.287460	3927.761191	22191.054949
7.535000	0.000513	0.000992	0.000336	0.000944	6162.045007	42719.085542	3936.538251	22180.131165
8.066500	0.001247	-0.000137	-0.003420	-0.000156	6175.492950	42716.443897	3930.617954	22228.809116
8.537000	0.000023	0.000730	0.001001	0.000569	6161.202346	42729.427432	3938.864726	22196.702046
9.036000	-0.001441	-0.000782	0.000760	0.000000	6154.669808	42643.352467	3939.601717	22221.909974
9.536500	0.001738	0.000919	0.002095	0.000597	6173.570813	42744.245934	3941.259351	22195.503755
10.039500	0.000455	-0.000391	0.000000	-0.000102	6169.286458	42688.381647	3938.126703	22226.424594
10.536500	0.000000	0.000303	-0.002335	-0.000129	6166.146156	42754.211960	3932.971782	22227.605799
11.037000	-0.001956	-0.000385	-0.003167	0.003481	6125.638587	42362.899725	3923.125953	22068.331431
11.535000	-0.000916	0.000000	-0.000948	-0.000317	6160.819480	42743.735964	3936.486403	22235.955519
12.035500	0.001553	0.000277	0.000688	-0.000055	6177.000056	42745.165130	3939.564363	22224.356789
12.535000	-0.001569	-0.000050	0.004341	-0.000388	6156.566252	42745.633536	3948.543908	22239.091003
13.036000	-0.002377	0.000250	-0.002765	0.003275	6124.085877	42439.252416	3924.467749	22077.394215
13.536000	0.000489	0.000375	-0.001386	0.000701	6163.652116	42684.981592	3933.238802	22190.903793
14.036500	0.001489	-0.000082	-0.003164	0.002373	6158.737358	42491.050725	3925.580912	22117.101515
14.539500	0.000890	0.000912	0.000361	0.003260	6147.899861	42500.761391	3931.430065	22078.063386
15.037000	-0.003250	0.000437	-0.003429	0.003709	6114.658942	42416.776864	3922.047355	22058.330166
15.537000	0.000326	0.000725	0.001302	0.001171	6159.019777	42673.942157	3938.190635	22170.102137
16.037000	-0.000322	0.001394	-0.003676	0.001457	6152.204523	42709.013332	3926.473566	22157.484608
16.535000	0.001721	0.000303	-0.005031	0.000879	6171.372878	42662.123311	3924.754307	22182.998034
17.035000	0.000968	0.001349	-0.002987	0.001780	6159.269833	42675.430358	3927.284318	22143.245733
17.535000	-0.000921	0.000952	-0.001426	0.001790	6145.414419	42638.242103	3930.723732	22142.794012
18.036000	-0.001895	-0.000112	0.000801	0.001083	6143.474297	42605.708476	3937.268098	22174.016049
18.535500	0.000716	0.000188	0.002779	0.001667	6158.249203	42579.757558	3940.389694	22148.200883
19.039500	-0.001798	0.000224	-0.001386	0.002713	6132.344697	42487.907056	3928.762550	22102.106201
19.536500	0.000773	-0.000246	-0.001739	0.001247	6161.737538	42578.550646	3931.236444	22166.764392
20.037000	-0.000608	0.000624	-0.002977	0.002186	6144.814402	42572.241903	3926.405572	22125.325076
20.537000	-0.000854	-0.000107	-0.003020	0.001229	6149.991865	42592.832975	3928.431443	22167.564357
21.034500	-0.001798	0.000525	-0.001855	0.002014	6137.415832	42578.867952	3929.273007	22132.904043
21.535000	-0.001842	-0.000927	-0.004349	0.000826	6145.724704	42554.847509	3926.379493	22185.341977
22.035500	0.000327	0.000847	0.000149	0.002107	6152.196519	42599.715190	3933.523707	22128.795387
22.535000	-0.000462	0.000086	-0.000023	0.001652	6149.761078	42571.795233	3934.154212	22148.858537
23.035500	-0.000476	0.000587	0.000594	0.003611	6135.420275	42439.275891	3931.166195	22062.625166
23.539000	-0.000082	0.001061	0.004129	0.002252	6148.162566	42606.033436	3942.110004	22122.434629
24.037000	-0.000054	0.000060	-0.005778	0.000961	6157.776562	42632.450728	3922.925809	22179.381500
24.536500	-0.000266	-0.000645	-0.002975	0.001189	6154.564320	42547.461037	3928.618075	22169.297000
25.037000	-0.000935	0.000395	0.003270	0.001921	6144.358165	42575.491884	3940.922305	22137.003550
25.536500	0.000103	0.000012	0.003858	0.001270	6156.669071	42599.953980	3943.711229	22165.748419
26.034500	-0.000531	0.000480	-0.001397	0.001650	6149.278703	42607.964242	3931.100611	22148.966136
26.535000	-0.000039	0.000753	-0.001979	0.001783	6151.894831	42620.715231	3929.512382	22143.103360
27.035500	-0.001417	0.000175	0.000751	0.003431	6129.902734	42418.219691	3931.915493	22070.534689
27.536000	0.001437	0.001019	0.003354	0.000472	6172.279276	42764.816040	3944.371945	22201.018011
28.039000	0.000992	0.001181	0.000224	0.000606	6168.034102	42767.388087	3937.044198	22195.105758
28.536000	-0.003937	0.000281	0.000267	0.006421	6090.261641	42157.537282	3924.217857	21939.604665
29.036500	-0.000175	0.000525	-0.001605	0.000838	6157.789704	42686.106491	3932.443302	22184.809970
29.537000	-0.000356	0.000780	-0.002712	0.000531	6158.715717	42737.534137	3930.664379	22198.413120
30.037500	-0.000021	0.000055	-0.001218	0.000052	6164.668003	42714.991604	3935.059863	22219.609527
30.537500	-0.000944	-0.000284	-0.000292	0.004054	6128.817230	42320.260875	3928.216787	22043.190706
31.034500	-0.001770	0.001014	-0.001632	0.004832	6117.224772	42367.225312	3923.531372	22009.051538
31.535500	-0.000048	-0.000260	-0.002508	-0.000365	6167.524207	42724.394760	3933.112728	22238.087426
32.036000	-0.001801	0.000265	-0.001419	0.000544	6148.084353	42689.270118	3933.513860	22197.842344
32.538500	-0.003257	0.000427	-0.004903	0.005652	6100.634007	42240.049832	3914.551378	21973.194498
33.036500	0.000087	0.000027	-0.002701	0.004237	6134.966606	42331.831613	3922.488079	22035.157041
33.536500	0.000990	0.000703	0.001982	-0.001103	6180.566754	42880.214056	3944.830778	22270.831780
34.036500	-0.002521	0.000350	-0.003790	0.002139	6131.264925	42551.519159	3924.713734	22127.396279
34.537500	-0.001810	0.000413	-0.004016	0.003007	6130.125121	42478.279705	3922.300019	22089.161758
35.034500	0.001110	0.000165	-0.003352	0.001965	6158.945319	42550.508812	3926.064240	22135.053906
35.535000	0.001769	0.000633	0.000806	0.002502	6159.836202	42544.210580	3934.108235	22111.385443
36.035000	-0.001523	0.000038	-0.006721	0.001790	6141.038263	42554.971839	3919.027251	22142.785046
36.535500	0.000682	0.001009	-0.003319	0.002391	6152.716790	42588.599144	3925.196615	22116.294843
37.038000	-0.001458	0.000777	-0.003665	0.004037	6125.225829	42417.918791	3920.805864	22043.937308
37.536000	0.000340	0.000611	0.000900	0.002319	6150.748506	42558.937712	3934.727104	22119.477101
38.036500	-0.000181	0.000680	0.001485	0.002266	6147.340410	42570.085271	3936.152146	22121.807236
38.536500	0.000893	0.000671	-0.000567	0.002269	6155.146253	42569.025175	3931.569427	22121.687699
39.037000	-0.000679	-0.000160	0.000780	0.003498	6134.767589	42381.854903	3931.832626	22067.598967
39.534000	-0.002080	0.000830	-0.003227	0.002465	6132.098050	42565.581943	3925.237480	22113.046436
40.034500	-0.000241	0.000446	-0.005020	0.001962	6149.114766	42576.424465	3922.389359	22135.195012
40.535000	-0.000299	0.000333	0.000068	0.002125	6147.500938	42551.242613	3933.302665	22128.008030
41.041000	-0.001462	0.000019	0.002392	0.003173	6131.445513	42427.527887	3936.151320	22081.870089
41.538500	0.000235	-0.000164	0.001976	0.001734	6154.244549	42541.599642	3938.440751	22145.243928
42.035500	-0.000593	0.000203	-0.002267	0.002174	6145.010949	42535.036143	3928.006642	22125.861986
42.536000	-0.000300	0.000593	-0.000685	0.002292	6146.285885	42559.792235	3931.255001	22120.664715
43.036500	-0.001962	0.000307	-0.000513	0.003372	6126.386878	42435.634245	3929.239647	22073.146225
43.537000	0.000587	0.000138	0.000140	0.001517	6158.404098	42588.914838	3934.820196	22154.854628
44.037000	0.002201	0.000377	0.002665	0.000284	6179.270276	42723.282753	3943.244425	22209.328090
44.534000	-0.001474	-0.000095	0.000812	0.005921	6111.517207	42168.732486	3926.527738	21961.450058
45.034500	-0.004075	-0.000484	-0.001593	0.003197	6112.404237	42379.694280	3927.233003	22080.824221
45.535000	0.001134	0.001319	0.003287	0.000626	6168.922911	42778.087382	3943.873141	22194.189983
46.038500	0.001137	0.000280	0.002074	0.000421	6170.450670	42701.852081	3941.606690	22203.280889
46.536000	-0.001842	0.000095	-0.002011	0.003588	6125.688193	42396.683385	3925.441015	22063.624236
47.035500	-0.001690	-0.000181	-0.002905	0.002900	6131.767903	42434.076976	3924.986090	22093.873223
47.536500	0.000315	0.000790	0.005437	0.002970	6145.823619	42516.008711	3943.438872	22090.827862
48.036500	0.000640	0.000378	-0.003272	0.000827	6163.832901	42673.768774	3928.763376	22185.316139
48.536500	-0.003533	0.000282	-0.000133	0.005443	6100.154547	42245.811140	3925.492932	21982.329953
49.037000	-0.000773	0.000672	0.001830	0.003742	6132.318857	42435.130078	3933.627988	22056.877091
49.537000	0.001253	0.000408	0.000015	-0.002166	6190.336929	42950.728460	3942.792513	22318.079272
50.035000	0.002436	0.001150	0.001164	-0.000174	6184.379752	42835.959709	3940.900220	22229.639549
50.538000	0.000405	0.000043	0.000597	0.007342	6114.811910	42053.201095	3922.911676	21899.433974
51.035500	0.022878	-0.029780	0.002897	0.659032	3720.200353	11145.998273	3180.138926	7203.424488
51.535500	0.021845	-0.024160	-0.017979	-0.001539	6341.112749	40699.989793	3901.776282	22290.179040
52.035500	0.020493	-0.071647	-0.014644	-0.257250	9013.138683	63881.126681	4665.505230	37768.955157
52.536500	0.023494	-0.068486	-0.006704	-0.253934	9008.775917	63859.540588	4683.703180	37504.449969
53.036500	0.027450	-0.049461	0.004271	-0.222598	8640.741746	62158.918734	4605.005561	35101.484109
53.537000	0.036174	-0.036764	0.012881	-0.200954	8474.961023	60953.017553	4556.531447	33540.120156
54.037000	0.041435	-0.018170	0.020221	-0.140139	7815.785374	55585.958434	4372.207572	29547.593895
54.534500	0.034170	-0.009606	0.018953	-0.110757	7424.895100	53125.574786	4276.352524	27809.981165
55.038000	0.042299	-0.005048	0.028794	-0.120308	7609.365903	54780.150814	4336.211927	28361.972865
55.535500	0.057926	0.001400	0.042809	-0.097995	7538.728023	52923.415320	4310.271654	27091.150597
56.035500	0.074960	0.014586	0.063036	-0.027228	7008.798708	46726.768520	4162.540949	23466.546514
56.536000	0.083973	0.023946	0.073640	0.046041	6455.443067	40745.758964	4001.698480	20286.984476
57.036000	0.102837	0.036827	0.091221	0.093265	6236.074432	37877.284512	3933.332720	18504.352267
57.536500	0.122789	0.047994	0.113207	0.146803	5994.149306	34637.096164	3865.513617	16704.493424
58.036500	0.137602	0.056917	0.133250	0.190034	5803.561835	32235.383208	3818.718122	15404.629572
58.537000	0.152997	0.069079	0.152192	0.226965	5667.212245	30615.733681	3784.098752	14392.209156
59.037500	0.171277	0.082348	0.160060	0.261390	5569.337066	29303.616870	3735.542306	13522.960472
59.537000	0.187091	0.091416	0.192250	0.292726	5478.608968	27989.887016	3737.056980	12789.419366
60.035000	0.199930	0.101050	0.207889	0.321824	5386.989690	26895.428708	3713.511556	12154.074302
60.535500	0.210422	0.107205	0.219365	0.354334	5268.262711	25489.588872	3678.148000	11492.818570
61.035500	0.225080	0.115244	0.223486	0.414347	5041.859547	22955.123826	3592.088740	10394.847769
61.535500	0.236369	0.119252	0.232706	0.408143	5126.393209	23429.462793	3614.743765	10501.461336
62.036500	0.242788	0.128420	0.242481	0.414642	5125.999819	23555.297034	3619.659312	10389.822138
62.537000	0.244059	0.138158	0.249851	0.400784	5201.886606	24701.942589	3652.428770	10629.897704
63.037000	0.243397	0.139396	0.258296	0.404714	5178.572289	24567.919830	3659.605431	10561.023685
63.557500	0.253399	0.143091	0.257967	0.403704	5234.901087	24802.651466	3660.696509	10578.670395
64.043000	0.257692	0.145264	0.264656	0.409047	5229.468628	24644.224437	3662.854840	10485.831259
64.535000	0.260893	0.148700	0.268226	0.417929	5200.301385	24374.745322	3654.377179	10333.996494
65.035500	0.262409	0.148994	0.263843	0.418163	5206.849142	24377.675397	3647.091416	10330.027476
65.535500	0.268740	0.152186	0.271059	0.424546	5206.583868	24221.329926	3648.400162	10222.885965
66.038500	0.267489	0.155207	0.277886	0.429691	5174.107742	24117.886842	3651.049482	10137.644623
66.535500	0.271849	0.157075	0.277972	0.435554	5166.542566	23924.676867	3641.989840	10041.735402
67.036000	0.272340	0.157786	0.273430	0.436663	5163.447868	23905.542336	3633.246140	10023.752750
67.537000	0.271884	0.158030	0.275061	0.438453	5152.209570	23831.371600	3633.002789	9994.805651
68.037000	0.275745	0.161346	0.284252	0.443595	5145.824614	23743.976545	3639.253815	9912.294579
68.540500	0.276135	0.161963	0.292688	0.448157	5125.170597	23556.595627	3645.289668	9839.912977
69.035000	0.279509	0.162295	0.288190	0.454803	5109.104599	23260.147392	3628.069134	9735.819385
69.535500	0.281358	0.163302	0.284994	0.453718	5123.504840	23357.909477	3624.856166	9752.715706
70.035000	0.282372	0.163987	0.292801	0.457069	5112.032593	23233.462636	3631.657241	9700.705097
70.536000	0.283954	0.165445	0.290573	0.459736	5106.723605	23177.248579	3624.189511	9659.583223
71.035500	0.285652	0.166228	0.288253	0.462830	5099.916257	23070.250166	3616.028911	9612.206595
71.536500	0.286699	0.165993	0.292261	0.464239	5098.153314	22994.484277	3619.934371	9590.743978
72.036000	0.286882	0.168862	0.295060	0.467779	5081.884000	22963.677293	3618.819710	9537.130039
72.537000	0.290556	0.170465	0.302128	0.470594	5086.035743	22908.104000	3625.249105	9494.797120
73.039500	0.287269	0.170873	0.296539	0.471859	5064.130703	22868.875001	3614.917469	9475.861398
73.537000	0.294585	0.172160	0.291787	0.473702	5090.496882	22843.496657	3605.131682	9448.384879
74.035000	0.292729	0.172377	0.300203	0.474113	5079.533937	22834.624053	3617.029754	9442.264524
74.535500	0.291839	0.172936	0.297265	0.475401	5069.054256	22801.361296	3610.719513	9423.138358
75.035500	0.294903	0.172895	0.292611	0.474767	5086.874946	22828.401077	3604.775701	9432.550166
75.535000	0.291926	0.172783	0.298231	0.474868	5072.031609	22818.703522	3612.951261	9431.045713
76.036000	0.294614	0.174643	0.306117	0.476018	5079.437442	22851.064186	3623.070944	9414.001849
76.536500	0.293239	0.174957	0.297652	0.476518	5070.414421	22842.579365	3609.636405	9406.606948
77.036000	0.296694	0.176824	0.304580	0.478381	5078.070211	22842.788711	3617.192940	9379.120294
77.542500	0.295474	0.177249	0.297609	0.478240	5072.880496	22868.644543	3607.024422	9381.201121
78.037000	0.295403	0.177409	0.293103	0.479389	5067.023766	22823.485777	3598.724304	9364.295957
78.534500	0.297410	0.178634	0.307101	0.480967	5069.078911	22807.376225	3617.095872	9341.164135
79.035000	0.290810	0.177440	0.300785	0.484415	5021.420308	22597.017201	3602.609555	9290.907348
79.535000	0.296816	0.176780	0.310531	0.480098	5070.399055	22762.577430	3623.576804	9353.893868
80.036000	0.296846	0.177225	0.306104	0.480371	5069.234053	22770.384242	3616.495111	9349.899158
80.536000	0.295695	0.176192	0.305504	0.481483	5058.405005	22673.046067	3613.932635	9333.616879
81.036500	0.296557	0.178329	0.298136	0.482731	5056.561922	22713.378449	3601.196167	9315.410094
81.536500	0.298697	0.178118	0.313035	0.483681	5062.244684	22660.771010	3621.945456	9301.572644
82.039500	0.297385	0.177823	0.305405	0.484536	5051.908979	22608.830188	3609.243312	9289.148203
82.537000	0.294028	0.177478	0.304623	0.485398	5031.927164	22554.470472	3606.812469	9276.652861
83.034500	0.297666	0.178495	0.303437	0.486413	5044.327549	22554.556569	3603.570273	9261.964099
83.535000	0.300871	0.178170	0.304521	0.486741	5058.013443	22525.206419	3604.681491	9257.224505
84.035000	0.300464	0.178722	0.311881	0.487298	5053.413911	22524.958529	3614.771565	9249.184072
84.535500	0.298837	0.176769	0.314015	0.486818	5047.961046	22458.905540	3618.692208	9256.111732
85.036000	0.302799	0.176322	0.306429	0.486777	5067.064578	22440.786647	3607.443509	9256.709675
85.536000	0.301386	0.177675	0.312856	0.487964	5054.632027	22448.143805	3615.234685	9239.584172
86.036500	0.297374	0.174732	0.306429	0.486356	5043.212301	22388.563109	3608.064565	9262.785992
86.536000	0.301048	0.175384	0.310106	0.487686	5054.351338	22358.327712	3611.547478	9243.594822
87.037000	0.301893	0.177581	0.313151	0.489403	5050.197866	22379.711984	3613.526098	9218.904130
87.537500	0.295713	0.174260	0.309793	0.487319	5030.815968	22324.646573	3611.627642	9248.883837
88.034500	0.301083	0.176821	0.313128	0.489649	5045.181821	22334.914872	3613.123313	9215.370289
88.535000	0.298803	0.173910	0.310955	0.488497	5039.842793	22256.826769	3611.603371	9231.918334
89.034500	0.299501	0.175228	0.308133	0.495508	5010.192238	22006.336596	3597.139381	9131.892728
89.535500	0.300334	0.174664	0.312647	0.490672	5036.797157	22193.985656	3610.885712	9200.714857
90.035500	0.299827	0.174674	0.313488	0.491103	5032.370555	22175.404785	3611.494735	9194.545231
90.536500	0.301283	0.173931	0.305571	0.491390	5037.888639	22130.066080	3599.407329	9190.451346
91.039000	0.303448	0.173384	0.315154	0.491799	5046.204477	22088.014948	3612.939315	9184.607252
91.537000	0.301077	0.173260	0.304882	0.492756	5030.471443	22040.653078	3596.414801	9170.966410
92.037000	0.303887	0.175424	0.316591	0.495030	5032.998142	22035.805381	3610.270079	9138.658341
92.535000	0.302201	0.175543	0.317880	0.496040	5020.326356	21996.849651	3610.685705	9124.374495
93.035000	0.303687	0.174905	0.315416	0.495923	5027.851164	21974.071313	3607.207078	9126.018251
93.571000	0.302528	0.173507	0.312624	0.495187	5025.865587	21945.228186	3604.177420	9136.443596
94.036000	0.304046	0.172698	0.314394	0.495288	5032.528218	21905.597561	3606.636286	9135.005109
94.535500	0.301857	0.172968	0.309745	0.496449	5016.797851	21866.884191	3598.114971	9118.584276
95.039000	0.303106	0.172482	0.310713	0.496558	5022.139300	21841.070803	3599.368185	9117.052840
95.539500	0.302030	0.172064	0.309490	0.497454	5012.910444	21784.224826	3596.283323	9104.415728
96.036500	0.301884	0.172748	0.316377	0.498172	5008.883753	21782.762224	3605.307641	9094.309629
