sample name	sample
index	1417
start time	 05-10-2021  11:56:41 AM


Wavelength (nm)	Absorbance
494.344910	-0.027807
494.563924	-0.027807
494.782919	-0.027807
495.001897	0.036735
495.220856	-0.011400
495.439797	-0.014134
495.658719	-0.010454
495.877624	-0.004215
496.096510	-0.004452
496.315378	-0.000563
496.534227	-0.004486
496.753059	-0.003949
496.971872	0.004755
497.190667	0.060192
497.409444	0.094609
497.628203	0.102873
497.846943	0.106069
498.065665	0.109371
498.284369	0.110804
498.503055	0.113494
498.721723	0.115398
498.940372	0.116888
499.159003	0.116500
499.377616	0.115618
499.596210	0.115582
499.814787	0.116589
500.033345	0.117076
500.251885	0.117299
500.470406	0.117311
500.688910	0.117663
500.907395	0.117438
501.125862	0.118429
501.344311	0.119497
501.562742	0.119903
501.781154	0.119750
501.999548	0.120085
502.217924	0.121643
502.436282	0.122514
502.654621	0.121897
502.872942	0.121959
503.091245	0.122395
503.309530	0.121374
503.527797	0.121325
503.746045	0.121926
503.964275	0.122016
504.182487	0.121355
504.400681	0.121172
504.618856	0.121595
504.837013	0.122374
505.055152	0.122622
505.273273	0.122983
505.491376	0.124207
505.709460	0.123464
505.927526	0.123634
506.145574	0.123968
506.363604	0.123704
506.581615	0.124486
506.799608	0.123544
507.017583	0.123178
507.235540	0.122934
507.453478	0.122227
507.671399	0.122508
507.889301	0.121988
508.107185	0.121281
508.325050	0.120977
508.542898	0.119614
508.760727	0.120810
508.978538	0.121236
509.196330	0.121249
509.414105	0.121178
509.631861	0.121187
509.849599	0.121471
510.067319	0.122228
510.285021	0.122347
510.502704	0.123122
510.720369	0.122696
510.938016	0.122721
511.155645	0.123692
511.373255	0.124047
511.590848	0.125038
511.808422	0.124883
512.025977	0.125632
512.243515	0.126586
512.461034	0.127737
512.678536	0.127791
512.896018	0.127780
513.113483	0.127995
513.330930	0.128548
513.548358	0.128648
513.765768	0.128562
513.983160	0.128421
514.200533	0.128655
514.417889	0.128598
514.635226	0.128705
514.852545	0.129135
515.069845	0.129513
515.287128	0.129228
515.504392	0.129776
515.721638	0.130358
515.938866	0.131022
516.156075	0.130674
516.373267	0.130582
516.590440	0.131023
516.807594	0.131280
517.024731	0.131646
517.241850	0.132775
517.458950	0.132178
517.676032	0.132223
517.893095	0.131817
518.110141	0.132335
518.327168	0.132498
518.544177	0.132750
518.761168	0.133040
518.978141	0.133157
519.195095	0.132641
519.412031	0.132535
519.628949	0.133253
519.845849	0.133474
520.062731	0.133413
520.279594	0.133304
520.496439	0.133995
520.713266	0.134287
520.930074	0.134740
521.146865	0.135315
521.363637	0.136156
521.580391	0.136231
521.797127	0.136456
522.013844	0.136851
522.230543	0.137307
522.447224	0.137080
522.663887	0.136841
522.880532	0.137088
523.097158	0.136955
523.313766	0.137321
523.530356	0.137689
523.746928	0.137827
523.963481	0.138335
524.180017	0.138572
524.396534	0.138678
524.613032	0.139438
524.829513	0.139416
525.045975	0.140149
525.262420	0.140072
525.478845	0.140435
525.695253	0.141101
525.911643	0.140865
526.128014	0.141156
526.344367	0.142038
526.560702	0.142673
526.777018	0.142708
526.993316	0.143102
527.209597	0.143422
527.425858	0.143705
527.642102	0.144110
527.858328	0.144054
528.074535	0.144690
528.290724	0.144837
528.506894	0.144587
528.723047	0.145215
528.939181	0.145227
529.155297	0.145502
529.371395	0.145438
529.587475	0.145348
529.803536	0.146552
530.019579	0.147271
530.235604	0.147404
530.451611	0.147515
530.667600	0.147479
530.883570	0.148023
531.099522	0.148423
531.315456	0.149093
531.531372	0.149902
531.747269	0.149777
531.963148	0.149715
532.179009	0.149665
532.394852	0.150351
532.610676	0.150813
532.826482	0.151345
533.042271	0.151668
533.258040	0.151735
533.473792	0.152668
533.689525	0.153239
533.905240	0.153368
534.120937	0.153548
534.336616	0.154010
534.552277	0.154392
534.767919	0.154396
534.983543	0.155513
535.199149	0.156375
535.414736	0.155944
535.630306	0.156644
535.845857	0.157066
536.061390	0.157625
536.276904	0.157515
536.492401	0.157221
536.707879	0.157855
536.923339	0.157700
537.138781	0.157641
537.354204	0.157687
537.569610	0.158065
537.784997	0.157809
538.000366	0.158069
538.215716	0.158798
538.431049	0.159628
538.646363	0.159690
538.861659	0.159707
539.076937	0.160316
539.292196	0.160758
539.507438	0.160238
539.722661	0.160658
539.937866	0.160695
540.153052	0.160336
540.368221	0.160946
540.583371	0.160748
540.798503	0.161120
541.013617	0.161165
541.228712	0.161475
541.443789	0.162125
541.658848	0.162674
541.873889	0.162865
542.088912	0.163617
542.303916	0.163665
542.518902	0.164259
542.733870	0.164446
542.948820	0.164309
543.163752	0.164965
543.378665	0.165166
543.593560	0.165155
543.808437	0.165898
544.023295	0.165802
544.238136	0.165880
544.452958	0.166111
544.667762	0.165813
544.882548	0.166324
545.097315	0.165940
545.312064	0.165687
545.526795	0.166258
545.741508	0.166405
545.956203	0.166567
546.170879	0.166794
546.385537	0.167047
546.600177	0.167934
546.814799	0.168065
547.029402	0.168472
547.243988	0.169155
547.458555	0.169232
547.673103	0.169497
547.887634	0.169971
548.102146	0.170278
548.316640	0.169791
548.531116	0.169757
548.745574	0.170088
548.960013	0.170526
549.174435	0.170624
549.388838	0.170922
549.603222	0.170758
549.817589	0.170780
550.031937	0.171047
550.246267	0.172478
550.460579	0.172958
550.674873	0.172835
550.889148	0.172779
551.103405	0.173203
551.317644	0.172993
551.531865	0.173782
551.746068	0.173660
551.960252	0.173566
552.174418	0.172964
552.388566	0.173333
552.602696	0.173843
552.816807	0.173570
553.030900	0.173463
553.244975	0.173844
553.459032	0.173675
553.673070	0.174004
553.887091	0.174420
554.101093	0.174670
554.315077	0.174336
554.529042	0.174289
554.742990	0.174807
554.956919	0.175127
555.170830	0.175277
555.384722	0.175544
555.598597	0.176413
555.812453	0.176490
556.026291	0.176810
556.240111	0.177040
556.453913	0.177412
556.667696	0.177194
556.881461	0.177461
557.095208	0.177874
557.308937	0.177805
557.522647	0.177854
557.736339	0.177953
557.950013	0.178379
558.163669	0.178439
558.377307	0.178289
558.590926	0.178600
558.804527	0.178328
559.018110	0.178515
559.231675	0.179056
559.445221	0.178975
559.658749	0.179261
559.872259	0.179122
560.085751	0.179711
560.299225	0.180254
560.512680	0.180646
560.726117	0.181055
560.939536	0.181359
561.152937	0.181333
561.366319	0.181316
561.579683	0.181412
561.793029	0.181357
562.006357	0.181231
562.219667	0.181230
562.432958	0.181616
562.646231	0.182020
562.859486	0.182101
563.072723	0.182495
563.285941	0.182832
563.499141	0.183273
563.712323	0.183626
563.925487	0.183721
564.138632	0.184140
564.351760	0.184000
564.564869	0.183993
564.777960	0.184074
564.991032	0.184282
565.204087	0.184283
565.417123	0.184492
565.630141	0.184884
565.843140	0.185123
566.056122	0.184695
566.269085	0.184774
566.482030	0.184915
566.694957	0.185067
566.907866	0.185335
567.120756	0.185773
567.333628	0.185546
567.546482	0.185428
567.759318	0.186123
567.972135	0.186727
568.184935	0.186685
568.397716	0.186902
568.610478	0.186922
568.823223	0.186810
569.035949	0.186786
569.248657	0.187072
569.461347	0.187039
569.674019	0.186468
569.886672	0.186360
570.099308	0.186974
570.311925	0.187125
570.524523	0.187512
570.737104	0.187421
570.949666	0.187657
571.162210	0.187493
571.374736	0.187707
571.587244	0.187809
571.799733	0.188045
572.012205	0.188083
572.224658	0.187979
572.437092	0.187999
572.649509	0.188462
572.861907	0.188435
573.074287	0.188848
573.286649	0.189346
573.498993	0.189812
573.711318	0.189743
573.923625	0.189780
574.135914	0.190393
574.348185	0.190460
574.560438	0.190704
574.772672	0.190935
574.984888	0.191150
575.197086	0.190921
575.409266	0.191023
575.621427	0.191350
575.833570	0.191669
576.045695	0.191642
576.257802	0.191902
576.469890	0.192059
576.681961	0.192329
576.894013	0.192156
577.106046	0.192343
577.318062	0.192351
577.530059	0.192698
577.742039	0.192781
577.954000	0.192489
578.165942	0.192463
578.377867	0.192560
578.589773	0.192788
578.801661	0.192893
579.013531	0.193020
579.225382	0.193056
579.437216	0.192875
579.649031	0.193190
579.860828	0.193633
580.072606	0.193591
580.284367	0.193417
580.496109	0.193444
580.707833	0.193954
580.919539	0.194183
581.131227	0.194470
581.342896	0.194709
581.554547	0.194728
581.766180	0.195143
581.977795	0.195640
582.189391	0.195775
582.400969	0.195884
582.612529	0.196364
582.824071	0.196568
583.035595	0.197023
583.247100	0.197333
583.458587	0.197547
583.670056	0.197408
583.881506	0.197506
584.092939	0.197477
584.304353	0.197648
584.515749	0.197224
584.727127	0.197313
584.938486	0.197066
585.149828	0.197453
585.361151	0.197629
585.572456	0.197751
585.783742	0.197620
585.995011	0.198379
586.206261	0.198527
586.417493	0.198939
586.628706	0.199134
586.839902	0.199445
587.051079	0.199313
587.262238	0.199786
587.473379	0.200131
587.684502	0.200649
587.895606	0.200318
588.106692	0.200257
588.317760	0.200522
588.528810	0.200622
588.739841	0.201281
588.950855	0.201459
589.161850	0.201019
589.372827	0.200984
589.583785	0.200963
589.794726	0.201302
590.005648	0.201859
590.216552	0.201659
590.427437	0.201989
590.638305	0.201792
590.849154	0.202366
591.059985	0.202779
591.270798	0.203423
591.481592	0.204108
591.692369	0.204450
591.903127	0.204743
592.113867	0.205097
592.324588	0.205127
592.535292	0.205393
592.745977	0.205199
592.956644	0.205431
593.167293	0.205368
593.377923	0.205201
593.588536	0.205383
593.799130	0.205266
594.009706	0.205504
594.220263	0.205941
594.430803	0.206335
594.641324	0.206515
594.851827	0.206788
595.062312	0.206988
595.272778	0.207399
595.483227	0.207497
595.693657	0.207706
595.904069	0.208012
596.114462	0.207919
596.324838	0.207807
596.535195	0.207875
596.745534	0.208043
596.955855	0.208387
597.166157	0.208400
597.376441	0.208761
597.586707	0.209148
597.796955	0.209431
598.007185	0.209858
598.217396	0.210071
598.427589	0.210396
598.637764	0.210351
598.847921	0.210315
599.058060	0.210440
599.268180	0.210443
599.478282	0.210529
599.688366	0.210632
599.898431	0.210597
600.108479	0.210584
600.318508	0.210981
600.528519	0.211206
600.738511	0.211179
600.948486	0.211348
601.158442	0.211683
601.368380	0.211953
601.578300	0.211956
601.788202	0.212267
601.998085	0.212288
602.207950	0.212325
602.417797	0.212626
602.627626	0.213048
602.837436	0.213312
603.047228	0.213260
603.257002	0.213157
603.466758	0.213364
603.676496	0.213523
603.886215	0.213972
604.095916	0.213921
604.305599	0.213694
604.515264	0.213443
604.724910	0.213457
604.934538	0.213453
605.144148	0.213954
605.353740	0.214372
605.563314	0.214156
605.772869	0.214426
605.982406	0.214733
606.191925	0.215159
606.401425	0.215602
606.610908	0.215970
606.820372	0.216339
607.029818	0.216433
607.239246	0.216353
607.448655	0.216888
607.658047	0.216773
607.867420	0.216907
608.076775	0.217231
608.286111	0.217544
608.495430	0.217534
608.704730	0.217542
608.914012	0.217509
609.123275	0.217678
609.332521	0.217749
609.541748	0.218255
609.750957	0.218801
609.960148	0.219238
610.169321	0.219583
610.378475	0.219996
610.587611	0.220487
610.796729	0.220985
611.005829	0.221498
611.214910	0.221728
611.423974	0.221743
611.633019	0.221741
611.842045	0.221585
612.051054	0.221621
612.260044	0.221734
612.469017	0.221928
612.677970	0.221786
612.886906	0.221591
613.095824	0.221820
613.304723	0.221960
613.513604	0.221839
613.722467	0.221974
613.931311	0.221798
614.140138	0.221670
614.348946	0.221844
614.557736	0.221879
614.766507	0.221813
614.975261	0.221895
615.183996	0.222036
615.392713	0.222475
615.601412	0.222748
615.810092	0.223323
616.018754	0.223587
616.227399	0.223572
616.436024	0.223720
616.644632	0.223896
616.853222	0.223964
617.061793	0.224519
617.270346	0.224627
617.478880	0.224510
617.687397	0.224661
617.895895	0.224812
618.104375	0.225060
618.312837	0.225317
618.521281	0.225555
618.729706	0.225902
618.938113	0.225808
619.146502	0.225665
619.354873	0.225772
619.563226	0.225929
619.771560	0.225872
619.979876	0.225734
620.188174	0.225788
620.396453	0.226302
620.604715	0.226395
620.812958	0.226624
621.021183	0.227155
621.229390	0.227544
621.437578	0.227587
621.645748	0.228087
621.853900	0.228504
622.062034	0.228876
622.270150	0.228805
622.478247	0.229053
622.686326	0.229362
622.894387	0.229445
623.102430	0.229437
623.310454	0.229759
623.518461	0.229933
623.726449	0.230172
623.934418	0.230365
624.142370	0.230520
624.350303	0.230484
624.558218	0.230627
624.766115	0.230776
624.973994	0.230988
625.181855	0.230823
625.389697	0.230725
625.597521	0.230804
625.805327	0.230852
626.013114	0.230981
626.220883	0.231003
626.428634	0.230805
626.636367	0.231039
626.844082	0.231316
627.051778	0.231594
627.259457	0.231712
627.467117	0.231804
627.674758	0.232144
627.882382	0.232593
628.089987	0.233040
628.297574	0.233218
628.505143	0.233217
628.712694	0.233304
628.920226	0.233469
629.127740	0.233888
629.335236	0.233840
629.542714	0.233775
629.750174	0.233849
629.957615	0.233779
630.165038	0.234073
630.372443	0.234351
630.579829	0.234560
630.787198	0.234761
630.994548	0.235006
631.201880	0.235391
631.409194	0.235732
631.616489	0.235577
631.823766	0.235779
632.031025	0.236137
632.238266	0.236359
632.445489	0.236473
632.652693	0.236511
632.859879	0.236474
633.067047	0.236644
633.274197	0.236727
633.481329	0.236815
633.688442	0.237157
633.895537	0.237075
634.102614	0.237154
634.309672	0.237375
634.516713	0.237770
634.723735	0.237958
634.930739	0.238172
635.137724	0.238495
635.344692	0.239108
635.551641	0.239118
635.758572	0.239163
635.965485	0.239271
636.172379	0.239545
636.379256	0.239523
636.586114	0.239662
636.792954	0.239668
636.999775	0.239736
637.206579	0.239825
637.413364	0.240134
637.620131	0.240614
637.826880	0.240623
638.033610	0.240486
638.240323	0.240843
638.447017	0.240980
638.653692	0.240962
638.860350	0.241116
639.066990	0.241192
639.273611	0.241368
639.480214	0.241446
639.686798	0.241657
639.893365	0.241966
640.099913	0.242069
640.306443	0.242320
640.512955	0.242894
640.719449	0.242922
640.925924	0.243066
641.132381	0.243135
641.338820	0.243288
641.545241	0.243453
641.751644	0.243712
641.958028	0.243863
642.164394	0.244070
642.370742	0.244256
642.577071	0.244359
642.783383	0.244666
642.989676	0.245029
643.195951	0.245155
643.402207	0.245509
643.608446	0.245685
643.814666	0.245779
644.020868	0.245912
644.227052	0.246061
644.433218	0.246407
644.639365	0.246422
644.845494	0.246529
645.051605	0.246650
645.257698	0.246653
645.463772	0.246769
645.669828	0.246983
645.875866	0.247147
646.081886	0.247231
646.287888	0.247397
646.493871	0.247620
646.699836	0.247645
646.905783	0.247686
647.111712	0.247949
647.317622	0.248023
647.523514	0.248090
647.729388	0.248275
647.935244	0.248305
648.141082	0.248550
648.346901	0.248573
648.552702	0.248953
648.758485	0.249325
648.964250	0.249510
649.169996	0.249674
649.375724	0.250025
649.581434	0.250291
649.787126	0.250549
649.992800	0.250512
650.198455	0.250821
650.404092	0.250805
650.609711	0.250920
650.815311	0.251083
651.020894	0.251239
651.226458	0.251197
651.432004	0.251645
651.637532	0.252169
651.843041	0.252371
652.048532	0.252765
652.254006	0.253090
652.459460	0.253339
652.664897	0.253296
652.870315	0.253612
653.075716	0.253995
653.281097	0.253886
653.486461	0.253760
653.691807	0.253969
653.897134	0.253912
654.102443	0.253725
654.307734	0.253731
654.513006	0.254193
654.718261	0.254426
654.923497	0.254552
655.128715	0.254673
655.333915	0.254945
655.539096	0.255227
655.744259	0.255391
655.949404	0.255772
656.154531	0.256057
656.359640	0.255828
656.564730	0.255834
656.769802	0.255875
656.974856	0.255898
657.179892	0.255920
657.384909	0.256303
657.589908	0.256547
657.794889	0.256846
657.999852	0.257203
658.204797	0.257455
658.409723	0.257823
658.614631	0.258192
658.819521	0.258433
659.024393	0.258704
659.229246	0.258768
659.434081	0.258879
659.638898	0.258825
659.843697	0.258737
660.048478	0.259249
660.253240	0.259505
660.457984	0.259512
660.662710	0.259778
660.867417	0.260023
661.072107	0.260083
661.276778	0.260363
661.481431	0.260882
661.686066	0.261154
661.890682	0.261310
662.095281	0.261573
662.299861	0.261899
662.504422	0.262330
662.708966	0.262298
662.913491	0.262852
663.117999	0.263236
663.322488	0.263392
663.526958	0.263657
663.731411	0.263893
663.935845	0.264168
664.140261	0.264472
664.344659	0.264632
664.549038	0.265305
664.753400	0.265079
664.957743	0.265343
665.162068	0.265495
665.366375	0.265862
665.570663	0.266046
665.774933	0.266199
665.979185	0.266398
666.183419	0.266616
666.387635	0.266632
666.591832	0.266741
666.796011	0.266592
667.000172	0.266741
667.204315	0.266702
667.408439	0.266916
667.612545	0.266848
667.816634	0.266785
668.020703	0.266913
668.224755	0.266855
668.428788	0.267359
668.632803	0.267589
668.836800	0.267922
669.040779	0.268141
669.244739	0.268277
669.448681	0.268496
669.652605	0.268715
669.856511	0.268652
670.060399	0.268882
670.264268	0.268691
670.468119	0.268893
670.671952	0.269066
670.875767	0.269163
671.079563	0.269416
671.283341	0.269455
671.487101	0.269876
671.690843	0.270379
671.894567	0.270472
672.098272	0.271131
672.301959	0.271386
672.505628	0.271586
672.709278	0.272143
672.912911	0.272552
673.116525	0.272927
673.320121	0.273032
673.523699	0.273126
673.727258	0.273412
673.930799	0.273164
674.134322	0.273181
674.337827	0.273434
674.541314	0.273538
674.744782	0.273732
674.948232	0.274064
675.151664	0.274371
675.355078	0.274456
675.558474	0.274927
675.761851	0.275510
675.965210	0.275806
676.168551	0.275979
676.371873	0.276154
676.575178	0.276446
676.778464	0.276775
676.981732	0.276956
677.184981	0.277403
677.388213	0.277265
677.591426	0.277558
677.794621	0.277929
677.997798	0.278268
678.200956	0.278539
678.404097	0.278694
678.607219	0.278871
678.810323	0.278924
679.013408	0.279010
679.216476	0.279532
679.419525	0.279254
679.622556	0.279358
679.825569	0.279293
680.028563	0.279150
680.231540	0.278994
680.434498	0.279008
680.637438	0.279119
680.840359	0.279273
681.043263	0.279448
681.246148	0.279778
681.449015	0.279994
681.651864	0.280332
681.854694	0.280869
682.057506	0.281069
682.260301	0.281344
682.463076	0.281769
682.665834	0.282304
682.868573	0.282424
683.071295	0.282897
683.273998	0.283241
683.476682	0.283564
683.679349	0.283638
683.881997	0.284101
684.084627	0.284226
684.287239	0.284287
684.489833	0.284175
684.692408	0.284327
684.894965	0.284499
685.097504	0.284603
685.300025	0.284852
685.502527	0.284889
685.705012	0.284838
685.907478	0.284947
686.109925	0.285338
686.312355	0.285599
686.514766	0.285903
686.717159	0.286051
686.919534	0.286171
687.121891	0.285928
687.324230	0.286542
687.526550	0.286724
687.728852	0.287049
687.931136	0.287256
688.133401	0.287092
688.335649	0.287361
688.537878	0.287545
688.740089	0.287927
688.942281	0.288389
689.144456	0.288489
689.346612	0.288874
689.548750	0.288953
689.750870	0.289098
689.952971	0.289510
690.155055	0.289645
690.357120	0.290006
690.559167	0.290035
690.761195	0.290313
690.963206	0.290410
691.165198	0.290606
691.367172	0.291003
691.569128	0.291228
691.771065	0.291576
691.972984	0.291958
692.174885	0.291962
692.376768	0.292459
692.578633	0.292683
692.780479	0.292778
692.982308	0.292997
693.184118	0.293100
693.385909	0.293188
