sample name	sample
index	970
start time	 04-14-2021  02:28:29 PM
880	0.292954
Peak Time (s)	102.037
Peak Height 	0.293
calc peak height	100,103
Baseline Time (s)	10.036
Baseline Value 	-0.004434
subtract baseline	10,4
Abs	0.186450
Peak Time (s)	102.537
Peak Height 	0.1864
calc peak height	100,103
Baseline Time (s)	8.537
Baseline Value 	1.94E-4
subtract baseline	10,3
PK_550	0.106781
Peak Time (s)	102.537
Peak Height 	0.1068
calc peak height	100,103
Baseline Time (s)	11.537
Baseline Value 	5.4888E-4
subtract baseline	10,2
PK_880	0.177371
Peak Time (s)	102.537
Peak Height 	0.1774
calc peak height	100,103
Baseline Time (s)	11.537
Baseline Value 	9.0186E-4
subtract baseline	10,1


Time (s)	A880-A510	A880-A775	A880-A975	A880	I510	I775	I975	I880	
0.035000	-0.001849	-0.000315	-0.001982	0.003211	6278.117121	41958.238914	3938.810778	22065.082330
0.535500	-0.003848	-0.000997	-0.000699	0.006882	6234.307190	41568.859261	3933.010323	21903.714081
1.036000	-0.001164	-0.000612	-0.003885	0.004254	6275.331226	41837.965205	3931.661848	22019.099011
1.536500	-0.001505	0.000086	0.000710	0.002617	6285.413663	42047.644244	3946.839832	22091.277986
2.036500	0.000859	0.000744	-0.001780	0.002502	6304.791905	42117.477967	3941.031475	22096.392565
2.537000	-0.003428	-0.000220	-0.001388	0.007200	6235.100295	41609.787162	3930.577225	21889.836985
3.037000	0.001813	0.000637	-0.002675	-0.000496	6335.902579	42379.174238	3946.174226	22229.354084
3.534000	0.000257	-0.000601	0.001053	0.001398	6308.723928	42095.669711	3950.679397	22145.225125
4.035000	-0.000568	-0.000147	0.001247	0.000785	6307.061877	42192.002337	3952.668689	22172.426857
4.535500	-0.000858	0.000317	0.002032	0.000588	6306.327865	42251.761268	3955.092767	22181.152194
5.035500	0.000427	0.000394	0.002170	0.001079	6312.568153	42214.385841	3954.220408	22159.393375
5.538500	0.000534	0.001113	-0.000953	0.001562	6309.608982	42235.748287	3945.350324	22137.973048
6.036000	-0.000458	0.000049	-0.000015	-0.000307	6316.504919	42308.647602	3952.248845	22220.962671
6.536000	0.000664	-0.000378	0.004296	-0.000283	6325.149422	42267.747150	3962.870189	22219.879952
7.036500	0.001038	0.001229	-0.002306	0.000873	6318.985915	42308.622718	3943.724380	22168.499289
7.537000	-0.000436	0.000274	-0.004233	0.000421	6310.955066	42263.013894	3940.122450	22188.568633
8.036500	-0.001146	-0.000016	-0.004962	0.000280	6306.490567	42249.535386	3938.689214	22194.831781
8.537500	-0.000037	-0.000053	0.000000	0.000272	6315.261506	42246.951914	3950.859419	22195.216512
9.035000	0.001464	0.000335	0.002587	0.000488	6325.373934	42262.515533	3956.714045	22185.611075
9.535500	-0.001844	-0.000244	-0.001192	0.000267	6301.124118	42230.143260	3947.939706	22195.438507
10.035500	0.001199	0.000366	0.004937	0.000000	6327.135938	42309.567805	3963.763515	22207.293762
10.536000	-0.000877	-0.000306	-0.000926	-0.000355	6313.584089	42280.757656	3950.121619	22223.062783
11.035500	0.000451	0.000227	0.003400	-0.000048	6321.617805	42301.343234	3960.059180	22209.448773
11.536500	0.000000	0.000000	-0.001973	-0.000089	6318.387431	42284.419425	3946.895656	22211.235529
12.036500	0.001469	0.000277	-0.004124	-0.000444	6332.769194	42341.720313	3942.499792	22227.039530
12.537000	0.001505	-0.000218	-0.002306	-0.001082	6338.103577	42354.730160	3948.516866	22255.455165
13.037500	0.000610	0.001095	0.001463	0.000318	6319.986091	42346.874293	3954.354210	22193.149914
13.537500	0.003041	0.001161	-0.001538	0.002475	6322.148550	42157.563924	3941.687389	22097.591100
14.035000	0.000645	-0.000319	0.002315	0.001967	6307.312279	42069.869965	3952.386865	22120.057569
14.535500	0.000173	0.000373	0.002753	0.002204	6301.750320	42110.799989	3952.882811	22109.543276
15.038000	-0.000817	-0.000056	-0.000043	0.000245	6309.346277	42249.119477	3950.820722	22196.411045
15.536000	-0.000120	0.000205	-0.003777	0.001519	6304.820364	42157.486287	3938.559388	22139.871496
16.036000	0.000209	-0.000113	0.000149	0.000242	6317.430784	42244.290108	3951.299850	22196.559222
16.536500	0.000750	0.000240	-0.003012	0.003323	6297.509099	41998.022141	3936.032235	22060.107298
17.036500	0.002061	0.000582	0.004234	0.000824	6327.433575	42254.434975	3959.963541	22170.693221
17.537500	-0.000176	-0.000154	-0.002796	0.000859	6309.560364	42184.715785	3942.561332	22169.147708
18.034500	-0.000969	0.000399	-0.002417	0.001657	6297.087398	42162.565340	3941.537199	22133.746237
18.535000	-0.000911	0.000465	0.001734	0.001988	6294.964712	42138.654981	3950.904346	22119.123715
19.035000	0.001229	0.000806	-0.000878	0.001922	6312.239537	42175.312355	3944.651961	22122.011512
19.538000	-0.000213	-0.000068	0.003595	0.001298	6305.819650	42152.782200	3957.203915	22149.664063
20.036000	0.001822	0.000081	0.003252	0.001399	6321.023322	42157.208440	3956.104351	22145.214057
20.536000	-0.001519	0.000322	-0.002523	0.001037	6297.645120	42211.653833	3942.792892	22161.255544
21.036500	0.000307	0.000005	0.000531	0.001122	6311.282841	42175.228913	3950.071803	22157.455188
21.536000	-0.001420	0.000489	0.003929	0.001034	6298.442672	42227.079133	3958.686347	22161.396955
22.036500	0.002672	0.000581	0.001355	0.001572	6326.358595	42186.702347	3950.995252	22137.551076
22.537000	-0.000484	0.001210	0.001646	0.001418	6302.759784	42257.521423	3952.090169	22144.348370
23.034500	-0.001245	0.000089	-0.001316	0.000847	6301.273183	42207.790536	3946.212837	22169.670359
23.535500	-0.001077	0.000860	0.003899	0.001452	6297.848733	42222.806190	3957.575079	22142.843222
24.035500	0.000289	0.000452	-0.000293	0.001059	6311.639126	42221.421023	3948.202353	22160.264179
24.535500	-0.001266	0.000663	-0.004693	0.001183	6298.474985	42229.216758	3937.146895	22154.749886
25.036000	-0.001202	0.000794	0.002252	0.001616	6295.592347	42201.933353	3953.097019	22135.565453
25.536500	-0.001636	0.000409	0.001088	0.000606	6300.093754	42258.511152	3952.716922	22180.350877
26.036500	0.001048	0.000556	0.001672	0.001299	6315.712062	42209.126941	3952.447492	22149.615877
26.537000	0.001352	0.001415	0.001073	0.001746	6314.587970	42246.343413	3949.870298	22129.810611
27.036500	-0.000497	0.000620	-0.000681	0.001264	6303.861049	42217.994033	3946.745689	22151.160366
27.534000	0.001529	0.001715	0.003566	-0.000592	6334.415977	42485.990899	3961.823368	22233.626224
28.035000	-0.000939	-0.000180	-0.002281	-0.000818	6316.740054	42334.206672	3947.930083	22243.693822
28.536500	0.002880	0.000455	0.001765	0.001196	6330.968157	42209.317647	3952.932249	22154.212586
29.038000	0.000680	0.000213	0.003054	0.000001	6323.036223	42295.603697	3959.077496	22207.260828
29.536000	-0.000089	0.000636	-0.000034	0.000097	6316.225218	42325.241636	3951.206156	22202.969556
30.036500	0.001678	0.000303	-0.001395	0.000166	6329.600679	42288.738109	3947.689348	22199.894141
30.536500	-0.000905	-0.000148	-0.000009	0.001385	6299.719336	42137.665746	3948.097469	22145.797229
31.036500	-0.001913	0.000502	0.000354	0.001891	6287.896240	42150.727156	3947.748409	22123.395825
31.537000	0.000836	0.000106	0.003224	0.000454	6320.693669	42244.845544	3958.376362	22187.111319
32.037500	0.000109	0.000904	0.000560	0.000210	6316.894851	42339.343971	3952.390170	22197.956436
32.537500	0.002201	0.000888	-0.001476	0.001322	6324.615267	42237.125726	3944.657297	22148.624237
33.035000	-0.000174	0.000119	-0.001597	-0.000069	6316.865107	42293.433864	3947.769289	22210.357208
33.535000	0.001890	0.000885	0.003767	-0.000451	6336.157427	42397.631219	3961.971527	22227.345991
34.035500	-0.000598	-0.000118	0.001307	0.001651	6300.038515	42116.434313	3950.680981	22134.022468
34.536000	-0.000467	-0.000024	-0.000756	0.001264	6304.097914	42159.849005	3946.562965	22151.172786
35.036000	-0.000457	-0.000271	-0.001204	0.000887	6307.129122	42171.583477	3946.389037	22167.890943
35.536500	0.000954	0.000270	0.001144	0.001504	6313.369805	42164.736345	3950.642216	22140.548610
36.037000	-0.001364	-0.000253	0.001145	0.000587	6302.378697	42200.329667	3952.906188	22181.223125
36.537000	-0.000485	0.000438	0.003808	0.001308	6303.611586	42197.642374	3957.705955	22149.236920
37.037000	-0.000817	-0.000169	-0.002566	0.001099	6302.648319	42161.654456	3942.536837	22158.491706
37.535000	0.001326	-0.001068	0.000937	0.001009	6320.190049	42088.695412	3951.351096	22162.495376
38.035500	0.001489	0.000329	0.001575	0.001044	6321.197339	42211.675769	3952.837815	22160.939819
38.538000	-0.001150	0.000339	0.001283	0.001166	6299.519331	42201.573072	3951.816607	22155.533819
39.036000	-0.003504	-0.000565	-0.000264	0.000347	6287.528937	42193.865412	3950.023793	22191.876002
39.536000	-0.001825	-0.000260	-0.000413	0.000879	6296.482194	42173.331560	3948.350288	22168.245199
40.036500	-0.000227	0.000803	-0.000008	0.001818	6301.636088	42184.490601	3947.038255	22126.616408
40.536500	-0.000201	-0.000384	-0.002457	0.000889	6309.126261	42161.258341	3943.317532	22167.824282
41.036500	0.000295	0.001073	0.001394	0.001668	6306.903721	42222.510765	3950.853635	22133.262423
41.537000	-0.000769	-0.000252	-0.002801	0.001190	6302.306857	42145.903061	3941.739977	22154.440569
42.037500	-0.001973	0.000133	0.000156	0.001129	6293.374698	42186.258533	3949.134978	22157.182868
42.535000	-0.000087	-0.000193	0.001008	0.000838	6310.424518	42183.095748	3951.947862	22170.091819
43.035500	-0.000678	0.000742	-0.002269	0.001437	6301.088988	42213.441010	3942.436979	22143.504244
43.535000	-0.000561	-0.000124	-0.001162	0.001114	6304.535623	42164.339131	3945.935299	22157.827974
44.038500	0.001943	-0.000226	0.001164	-0.003806	6363.215225	42602.081113	3963.844884	22377.249495
44.536500	-0.000923	0.000310	0.003687	0.000003	6310.409448	42304.149602	3960.644379	22207.140413
45.036000	0.000773	0.000717	0.000412	0.000373	6320.839276	42307.643628	3951.625552	22190.733657
45.537000	-0.000327	0.001239	0.003250	0.002725	6293.762999	42141.939605	3952.823011	22086.522178
46.036500	0.002029	0.000007	-0.002779	-0.000257	6335.724511	42300.299343	3945.333867	22218.734178
46.537500	0.000480	0.000854	0.001444	0.000355	6318.673604	42321.635641	3954.214537	22191.505378
47.037000	0.002359	0.000760	0.005291	0.000304	6333.899807	42317.746142	3963.888831	22193.800769
47.535500	-0.002630	0.000076	-0.002121	0.002606	6276.751818	42047.870948	3939.946491	22091.798804
48.037500	-0.000934	-0.000160	0.004054	0.000588	6305.733383	42208.618142	3960.101629	22181.151476
48.535500	0.000093	0.001188	0.001656	0.001244	6308.649964	42271.301966	3952.545542	22152.066335
49.036000	-0.000191	0.000536	-0.001575	0.000664	6310.970432	42264.779666	3946.026291	22177.802298
49.536000	-0.000007	0.001411	0.001317	0.001025	6309.584673	42311.388601	3952.249448	22161.779188
50.036000	0.000461	-0.000101	0.001707	-0.002581	6341.708615	42501.719332	3962.147038	22322.390699
50.537000	0.000958	0.000749	0.002770	0.006238	6276.399535	41782.102144	3943.017084	21931.925622
51.037000	0.017947	-0.004013	0.021347	0.241204	4944.455231	25298.469664	3526.448488	13978.922597
51.534500	0.002952	-0.010558	-0.005617	0.309316	4588.587940	21764.597610	3399.631841	12370.597518
52.035000	-0.015472	-0.020325	-0.050644	-0.067797	6755.146783	46821.878194	3994.638941	25469.518839
52.537500	-0.009499	-0.033371	-0.043322	-0.188514	8060.549460	59172.928856	4376.336484	32701.956727
53.035500	-0.004773	-0.033321	-0.024950	-0.201697	8277.765566	60913.264375	4488.996958	33620.529039
53.536000	0.000530	-0.032985	-0.022178	-0.210991	8461.546727	62213.564078	4534.282357	34285.044458
54.036000	0.016746	-0.011889	-0.007134	-0.143974	7847.724430	56264.450350	4347.860485	29796.953003
54.536500	0.016607	-0.003765	0.004696	-0.041870	6810.129891	45885.189086	4072.644894	24161.524827
55.039500	0.013172	-0.002298	0.001197	-0.046183	6818.031439	46460.740474	4074.875953	24373.712672
55.537000	0.025472	0.003768	0.008440	-0.052081	6985.640423	47676.770169	4111.539303	24667.323424
56.037500	0.031360	0.007254	0.019523	-0.013468	6689.189464	44199.644976	4035.984401	22815.471692
56.535000	0.032263	0.011236	0.019287	0.007723	6516.300199	42596.074020	3980.404479	21866.986090
57.037500	0.038861	0.012587	0.023381	-0.028451	6890.462600	46176.338779	4087.174641	23514.569484
57.535000	0.043325	0.015530	0.035609	0.038256	6357.802183	40270.065410	3945.026051	20579.216903
58.035500	0.046715	0.020848	0.041145	0.052625	6271.512101	39499.780469	3923.613722	20003.820094
58.536000	0.058056	0.024393	0.049148	0.054331	6347.119434	39655.011333	3938.833397	19936.749258
59.036000	0.063448	0.031205	0.058343	0.082041	6174.511501	37929.369346	3894.702473	18883.601183
59.536500	0.074401	0.035951	0.065216	0.099374	6126.775129	36929.361216	3870.590853	18258.207785
60.037000	0.077999	0.039878	0.073243	0.115770	6033.109007	35966.933574	3851.710033	17689.143641
60.537000	0.088103	0.045863	0.086197	0.121162	6067.273667	36012.045007	3868.754316	17506.651086
61.034500	0.091404	0.049689	0.086478	0.116897	6122.914699	36634.359780	3879.142826	17650.830393
61.535000	0.098171	0.054317	0.098248	0.115518	6183.911508	37103.784252	3909.811325	17697.717341
62.037500	0.104498	0.057883	0.097925	0.127812	6139.117114	36423.779379	3880.365451	17284.674883
62.535500	0.108125	0.060921	0.107960	0.134199	6118.608604	36166.419627	3888.793140	17074.667009
63.035500	0.119157	0.063325	0.108153	0.114421	6355.152013	37908.449780	3936.194750	17735.154608
63.536000	0.120995	0.067865	0.115215	0.161181	6015.746235	34667.488338	3844.059666	16220.747260
64.036500	0.126035	0.070118	0.120012	0.161983	6046.287921	34773.703200	3852.955966	16196.166397
64.536500	0.129681	0.071808	0.124970	0.154730	6126.212268	35436.359420	3880.657414	16420.098682
65.040000	0.132911	0.073118	0.126978	0.168180	6051.197985	34540.117959	3854.675071	16007.750399
65.534500	0.138599	0.075042	0.137799	0.187175	5956.147438	33321.463977	3836.529503	15446.754902
66.035000	0.143498	0.078644	0.142013	0.210426	5829.748315	31976.801711	3795.568046	14792.645756
66.535500	0.147085	0.081816	0.140251	0.212722	5838.465992	32035.499154	3787.067319	14729.937903
67.035000	0.148505	0.084375	0.146607	0.229125	5738.860924	31122.116464	3766.356727	14291.420947
67.535500	0.154069	0.086682	0.147985	0.234276	5741.561738	30938.100060	3758.702142	14157.090879
68.035500	0.151865	0.089657	0.147160	0.223918	5795.395063	31811.489354	3778.171174	14428.834159
68.535500	0.152431	0.089275	0.146130	0.219890	5826.164572	32054.964376	3784.383434	14536.259569
69.036500	0.149272	0.091505	0.150653	0.218971	5811.116684	32266.955505	3795.768569	14560.902732
69.536500	0.151548	0.091526	0.147639	0.215190	5851.989529	32524.986673	3797.383635	14662.883763
70.037000	0.154059	0.092234	0.151860	0.214596	5873.160359	32613.834645	3807.595497	14678.986885
70.537000	0.153731	0.093586	0.156664	0.214517	5871.457448	32711.847696	3818.067476	14681.131723
71.035500	0.153713	0.093167	0.154355	0.213531	5878.089100	32750.804104	3815.220181	14707.918434
71.537500	0.156919	0.094824	0.156175	0.215557	5886.181117	32725.439127	3814.775463	14652.949931
72.036000	0.155405	0.093777	0.155902	0.216792	5867.349777	32569.231352	3811.539808	14619.564650
72.535500	0.154802	0.094191	0.155162	0.216272	5866.783606	32633.077483	3811.070303	14633.624247
73.036000	0.155073	0.094669	0.155267	0.217846	5857.902585	32558.255638	3807.932164	14591.173051
73.536500	0.155510	0.095045	0.152594	0.219927	5846.725504	32442.077844	3797.843810	14535.256351
74.036500	0.156051	0.094781	0.156526	0.223864	5823.784072	32157.875204	3797.833964	14430.250657
74.536500	0.156215	0.095984	0.153930	0.225462	5814.148535	32131.364986	3789.027761	14387.911208
75.037000	0.157150	0.095784	0.161501	0.227644	5805.801471	31971.624678	3800.359327	14330.335110
75.534500	0.156572	0.097449	0.159007	0.230649	5781.929086	31882.084399	3788.797475	14251.494836
76.035500	0.154055	0.096687	0.158649	0.232814	5751.043615	31687.576251	3783.541646	14195.043669
76.534500	0.157165	0.096987	0.165337	0.232568	5773.149451	31723.805814	3798.059671	14201.449940
77.035500	0.156558	0.098316	0.157237	0.234298	5757.740832	31697.177565	3777.546521	14156.517063
77.535500	0.156927	0.096870	0.162114	0.234543	5758.554787	31585.396366	3787.154696	14150.171795
78.036000	0.156285	0.097273	0.165403	0.239399	5722.612361	31293.010098	3783.892446	14025.071758
78.536500	0.157409	0.098206	0.160218	0.237858	5739.977901	31455.106679	3776.352144	14064.614247
79.036500	0.160216	0.098509	0.161599	0.239020	5750.748054	31398.707189	3776.802782	14034.767916
79.537000	0.158920	0.098341	0.161831	0.240364	5733.475501	31299.734512	3774.512662	14000.358505
80.037500	0.160660	0.098508	0.160154	0.241713	5736.025620	31222.568461	3768.312728	13965.932551
80.537000	0.160236	0.098860	0.159656	0.243560	5721.245131	31125.357820	3763.537680	13918.979307
81.037500	0.162662	0.100740	0.168206	0.246448	5718.240356	31059.943232	3775.111323	13845.917643
81.534500	0.162908	0.100521	0.172936	0.247789	5711.148909	30959.114584	3782.114125	13812.176143
82.036000	0.164137	0.099993	0.167476	0.248802	5712.553789	30859.794956	3768.788620	13786.755728
82.535000	0.163280	0.099986	0.165234	0.250520	5695.931995	30749.100624	3760.734865	13743.775710
83.036000	0.164087	0.100927	0.172457	0.253156	5684.179948	30640.657408	3770.069324	13678.131149
83.536500	0.166496	0.102146	0.169557	0.255529	5684.417207	30567.123884	3759.347383	13619.398484
84.036500	0.165622	0.100143	0.168811	0.255998	5675.817221	30410.161819	3756.893250	13607.820001
84.537000	0.167371	0.102059	0.172478	0.259269	5666.114933	30324.628355	3757.692813	13527.484929
85.034000	0.164087	0.102344	0.173537	0.260621	5636.755690	30257.319968	3757.100917	13494.435314
85.537500	0.169531	0.104026	0.172736	0.264156	5648.805621	30140.969870	3748.401990	13408.538366
86.035500	0.167912	0.103309	0.175478	0.264601	5635.782640	30068.286511	3753.000184	13397.783579
86.535500	0.169392	0.103799	0.176673	0.267283	5628.226605	29931.630549	3750.022753	13333.152792
87.036000	0.170010	0.103554	0.173411	0.268272	5625.892204	29854.928326	3741.561101	13309.408501
87.536000	0.168713	0.105013	0.176493	0.271839	5595.550128	29724.532400	3740.600831	13224.255114
88.037000	0.169065	0.103928	0.176078	0.271948	5597.057382	29650.925706	3739.565199	13221.656149
88.536500	0.164308	0.103622	0.173605	0.273429	5558.608663	29541.177286	3731.786727	13186.508890
89.037000	0.170285	0.104775	0.178782	0.275864	5580.370221	29462.784896	3737.172829	13128.995451
89.534500	0.168945	0.104132	0.179565	0.277550	5561.768927	29320.813179	3735.396540	13089.363534
90.034500	0.167476	0.104705	0.178483	0.284355	5511.564356	28944.720670	3720.027501	12930.927212
90.535000	0.174649	0.105093	0.181356	0.280445	5579.037823	29203.531251	3733.228672	13021.662387
91.035500	0.170555	0.106116	0.177076	0.282246	5542.931510	29156.525890	3721.385444	12979.770151
91.536000	0.169980	0.104637	0.173388	0.282056	5540.591031	29078.745516	3714.645685	12984.165471
92.036000	0.167679	0.105481	0.171217	0.288349	5488.873821	28752.622500	3698.564977	12839.086153
92.536000	0.170869	0.105216	0.176501	0.284064	5533.803298	28992.864058	3716.770054	12937.658112
93.036000	0.172285	0.105714	0.178657	0.285021	5536.585488	28965.292571	3719.079177	12915.565276
93.536000	0.170257	0.104679	0.177388	0.285125	5523.678073	28897.084616	3716.434058	12913.149440
94.037000	0.171191	0.104017	0.174847	0.284600	5532.502225	28888.883977	3712.566382	12925.269017
94.537000	0.170916	0.105147	0.176440	0.285342	5526.349539	28912.133888	3714.196612	12908.154642
95.037500	0.174045	0.105337	0.179575	0.285299	5545.591414	28926.104294	3720.314059	12909.157410
95.535000	0.171289	0.104457	0.179246	0.285612	5526.971344	28854.731376	3719.074288	12901.932103
96.035500	0.171446	0.105435	0.174258	0.291613	5491.875928	28556.562815	3698.145959	12764.669414
96.536000	0.175286	0.105800	0.180536	0.286200	5547.657527	28899.822026	3720.429305	12888.392544
97.036000	0.176461	0.106375	0.183771	0.287329	5547.943898	28866.700956	3724.508108	12862.458980
97.536000	0.176242	0.106556	0.184746	0.287000	5548.618027	28897.219950	3727.043902	12870.022092
