sample name	sample
index	201
start time	 02-18-2021  12:28:20 PM


Wavelength (nm)	Absorbance
494.344910	-0.906095
494.563924	-0.906095
494.782919	-0.906095
495.001897	0.348027
495.220856	-0.227505
495.439797	-0.064338
495.658719	0.031687
495.877624	0.138197
496.096510	0.049753
496.315378	0.134142
496.534227	0.165073
496.753059	-0.088981
496.971872	-0.042305
497.190667	0.119981
497.409444	0.124674
497.628203	0.124287
497.846943	0.124624
498.065665	0.127503
498.284369	0.126174
498.503055	0.126342
498.721723	0.127881
498.940372	0.127852
499.159003	0.128301
499.377616	0.128290
499.596210	0.128881
499.814787	0.129036
500.033345	0.128468
500.251885	0.129152
500.470406	0.129078
500.688910	0.129720
500.907395	0.129804
501.125862	0.128724
501.344311	0.128824
501.562742	0.129144
501.781154	0.129861
501.999548	0.130153
502.217924	0.129576
502.436282	0.130069
502.654621	0.129975
502.872942	0.129193
503.091245	0.129824
503.309530	0.129650
503.527797	0.130133
503.746045	0.130434
503.964275	0.131063
504.182487	0.130909
504.400681	0.131349
504.618856	0.131266
504.837013	0.132235
505.055152	0.134184
505.273273	0.134679
505.491376	0.135017
505.709460	0.134647
505.927526	0.134058
506.145574	0.135738
506.363604	0.135638
506.581615	0.134974
506.799608	0.135713
507.017583	0.135054
507.235540	0.135518
507.453478	0.135408
507.671399	0.134823
507.889301	0.135650
508.107185	0.135406
508.325050	0.136380
508.542898	0.137274
508.760727	0.137435
508.978538	0.136523
509.196330	0.136541
509.414105	0.136094
509.631861	0.137212
509.849599	0.136269
510.067319	0.136387
510.285021	0.134517
510.502704	0.134793
510.720369	0.134398
510.938016	0.134975
511.155645	0.134722
511.373255	0.136156
511.590848	0.136270
511.808422	0.136630
512.025977	0.136631
512.243515	0.138432
512.461034	0.138560
512.678536	0.139467
512.896018	0.139752
513.113483	0.140897
513.330930	0.141864
513.548358	0.142370
513.765768	0.141850
513.983160	0.142829
514.200533	0.142721
514.417889	0.143293
514.635226	0.142807
514.852545	0.143523
515.069845	0.143392
515.287128	0.142829
515.504392	0.143451
515.721638	0.146113
515.938866	0.145415
516.156075	0.145494
516.373267	0.144809
516.590440	0.145318
516.807594	0.145178
517.024731	0.145264
517.241850	0.144791
517.458950	0.144439
517.676032	0.144288
517.893095	0.144749
518.110141	0.144789
518.327168	0.145604
518.544177	0.145509
518.761168	0.146359
518.978141	0.146473
519.195095	0.146852
519.412031	0.148162
519.628949	0.147790
519.845849	0.148499
520.062731	0.149130
520.279594	0.149162
520.496439	0.149755
520.713266	0.150215
520.930074	0.150198
521.146865	0.150411
521.363637	0.148776
521.580391	0.149340
521.797127	0.150079
522.013844	0.150082
522.230543	0.150400
522.447224	0.150365
522.663887	0.149318
522.880532	0.149348
523.097158	0.149686
523.313766	0.150952
523.530356	0.149940
523.746928	0.149658
523.963481	0.149645
524.180017	0.150275
524.396534	0.150520
524.613032	0.151841
524.829513	0.152557
525.045975	0.152209
525.262420	0.152675
525.478845	0.153564
525.695253	0.152925
525.911643	0.153498
526.128014	0.153600
526.344367	0.153892
526.560702	0.153798
526.777018	0.154365
526.993316	0.154939
527.209597	0.154243
527.425858	0.154103
527.642102	0.154899
527.858328	0.155210
528.074535	0.154714
528.290724	0.154428
528.506894	0.154570
528.723047	0.153708
528.939181	0.154116
529.155297	0.154713
529.371395	0.155597
529.587475	0.156184
529.803536	0.155996
530.019579	0.156560
530.235604	0.157382
530.451611	0.157646
530.667600	0.159168
530.883570	0.158959
531.099522	0.158881
531.315456	0.159045
531.531372	0.159183
531.747269	0.160073
531.963148	0.160906
532.179009	0.161314
532.394852	0.161385
532.610676	0.161636
532.826482	0.162541
533.042271	0.163773
533.258040	0.164158
533.473792	0.164713
533.689525	0.164405
533.905240	0.164708
534.120937	0.164900
534.336616	0.165181
534.552277	0.165189
534.767919	0.165660
534.983543	0.165737
535.199149	0.166003
535.414736	0.166099
535.630306	0.167196
535.845857	0.167043
536.061390	0.167564
536.276904	0.168476
536.492401	0.168377
536.707879	0.168634
536.923339	0.169694
537.138781	0.170227
537.354204	0.170240
537.569610	0.170022
537.784997	0.170399
538.000366	0.171075
538.215716	0.170749
538.431049	0.170706
538.646363	0.170816
538.861659	0.170295
539.076937	0.170060
539.292196	0.170502
539.507438	0.171179
539.722661	0.171731
539.937866	0.171940
540.153052	0.173024
540.368221	0.174157
540.583371	0.174496
540.798503	0.175058
541.013617	0.176023
541.228712	0.176484
541.443789	0.176289
541.658848	0.176868
541.873889	0.176826
542.088912	0.176662
542.303916	0.176774
542.518902	0.177358
542.733870	0.177222
542.948820	0.177347
543.163752	0.177375
543.378665	0.178057
543.593560	0.178140
543.808437	0.178327
544.023295	0.178842
544.238136	0.179113
544.452958	0.179443
544.667762	0.180212
544.882548	0.180690
545.097315	0.181359
545.312064	0.181826
545.526795	0.182288
545.741508	0.182638
545.956203	0.182790
546.170879	0.183014
546.385537	0.183036
546.600177	0.183330
546.814799	0.183672
547.029402	0.183756
547.243988	0.183756
547.458555	0.183538
547.673103	0.183672
547.887634	0.183528
548.102146	0.184298
548.316640	0.184448
548.531116	0.185049
548.745574	0.184984
548.960013	0.184983
549.174435	0.185353
549.388838	0.185540
549.603222	0.186032
549.817589	0.186783
550.031937	0.186890
550.246267	0.186947
550.460579	0.186744
550.674873	0.186737
550.889148	0.187343
551.103405	0.187711
551.317644	0.188284
551.531865	0.188122
551.746068	0.188455
551.960252	0.188482
552.174418	0.188866
552.388566	0.189315
552.602696	0.189620
552.816807	0.189873
553.030900	0.189587
553.244975	0.189840
553.459032	0.190355
553.673070	0.190046
553.887091	0.190332
554.101093	0.190947
554.315077	0.190934
554.529042	0.191032
554.742990	0.191160
554.956919	0.191685
555.170830	0.191999
555.384722	0.192320
555.598597	0.192770
555.812453	0.192816
556.026291	0.192842
556.240111	0.192871
556.453913	0.193420
556.667696	0.193560
556.881461	0.193623
557.095208	0.193692
557.308937	0.193763
557.522647	0.193950
557.736339	0.194493
557.950013	0.195230
558.163669	0.195760
558.377307	0.196441
558.590926	0.196537
558.804527	0.197117
559.018110	0.196955
559.231675	0.197189
559.445221	0.197595
559.658749	0.197846
559.872259	0.197272
560.085751	0.197494
560.299225	0.196735
560.512680	0.196996
560.726117	0.197116
560.939536	0.197429
561.152937	0.197208
561.366319	0.197353
561.579683	0.197581
561.793029	0.198154
562.006357	0.198289
562.219667	0.199372
562.432958	0.199586
562.646231	0.199727
562.859486	0.200820
563.072723	0.201593
563.285941	0.201871
563.499141	0.201739
563.712323	0.201664
563.925487	0.201822
564.138632	0.201350
564.351760	0.201628
564.564869	0.202098
564.777960	0.201656
564.991032	0.201925
565.204087	0.201599
565.417123	0.202075
565.630141	0.202493
565.843140	0.202867
566.056122	0.203462
566.269085	0.203402
566.482030	0.203392
566.694957	0.203711
566.907866	0.203900
567.120756	0.205070
567.333628	0.204828
567.546482	0.205113
567.759318	0.204972
567.972135	0.205034
568.184935	0.205573
568.397716	0.205801
568.610478	0.205886
568.823223	0.206134
569.035949	0.205944
569.248657	0.206212
569.461347	0.206112
569.674019	0.206394
569.886672	0.206539
570.099308	0.206702
570.311925	0.206321
570.524523	0.206516
570.737104	0.206596
570.949666	0.206808
571.162210	0.207138
571.374736	0.207523
571.587244	0.208038
571.799733	0.208306
572.012205	0.208468
572.224658	0.209491
572.437092	0.209934
572.649509	0.210432
572.861907	0.210436
573.074287	0.210498
573.286649	0.211020
573.498993	0.211103
573.711318	0.211530
573.923625	0.211651
574.135914	0.211625
574.348185	0.211657
574.560438	0.211574
574.772672	0.211831
574.984888	0.212376
575.197086	0.212182
575.409266	0.212054
575.621427	0.212200
575.833570	0.212689
576.045695	0.212669
576.257802	0.212934
576.469890	0.213119
576.681961	0.213209
576.894013	0.213270
577.106046	0.213516
577.318062	0.214268
577.530059	0.214171
577.742039	0.214489
577.954000	0.214697
578.165942	0.214861
578.377867	0.214865
578.589773	0.214980
578.801661	0.214968
579.013531	0.215113
579.225382	0.214926
579.437216	0.215560
579.649031	0.215353
579.860828	0.215399
580.072606	0.215326
580.284367	0.215375
580.496109	0.215660
580.707833	0.215748
580.919539	0.215852
581.131227	0.216130
581.342896	0.216329
581.554547	0.216806
581.766180	0.217528
581.977795	0.218155
582.189391	0.218545
582.400969	0.218879
582.612529	0.219698
582.824071	0.220068
583.035595	0.220218
583.247100	0.220183
583.458587	0.220392
583.670056	0.220351
583.881506	0.220436
584.092939	0.220809
584.304353	0.221091
584.515749	0.221011
584.727127	0.221397
584.938486	0.221973
585.149828	0.221695
585.361151	0.222014
585.572456	0.222536
585.783742	0.222573
585.995011	0.223082
586.206261	0.223546
586.417493	0.223715
586.628706	0.223801
586.839902	0.223976
587.051079	0.224793
587.262238	0.225085
587.473379	0.224781
587.684502	0.224902
587.895606	0.224848
588.106692	0.224203
588.317760	0.224560
588.528810	0.224390
588.739841	0.224275
588.950855	0.224099
589.161850	0.224024
589.372827	0.224370
589.583785	0.225001
589.794726	0.225492
590.005648	0.225925
590.216552	0.226196
590.427437	0.226939
590.638305	0.227171
590.849154	0.227910
591.059985	0.228055
591.270798	0.228374
591.481592	0.228638
591.692369	0.228705
591.903127	0.229198
592.113867	0.229512
592.324588	0.229417
592.535292	0.229715
592.745977	0.229559
592.956644	0.229986
593.167293	0.230102
593.377923	0.229893
593.588536	0.230068
593.799130	0.230343
594.009706	0.230442
594.220263	0.230705
594.430803	0.230666
594.641324	0.230768
594.851827	0.230930
595.062312	0.231224
595.272778	0.231691
595.483227	0.231747
595.693657	0.231804
595.904069	0.231949
596.114462	0.232561
596.324838	0.232888
596.535195	0.233233
596.745534	0.233366
596.955855	0.233501
597.166157	0.233677
597.376441	0.234090
597.586707	0.234695
597.796955	0.235159
598.007185	0.235085
598.217396	0.235615
598.427589	0.235901
598.637764	0.236269
598.847921	0.236468
599.058060	0.236862
599.268180	0.236792
599.478282	0.236542
599.688366	0.236497
599.898431	0.236684
600.108479	0.236789
600.318508	0.237147
600.528519	0.237116
600.738511	0.237296
600.948486	0.237075
601.158442	0.237380
601.368380	0.237801
601.578300	0.238345
601.788202	0.238491
601.998085	0.238721
602.207950	0.239146
602.417797	0.239493
602.627626	0.240244
602.837436	0.240724
603.047228	0.241036
603.257002	0.241318
603.466758	0.241664
603.676496	0.242032
603.886215	0.242190
604.095916	0.242152
604.305599	0.242554
604.515264	0.242430
604.724910	0.242495
604.934538	0.242492
605.144148	0.242642
605.353740	0.242271
605.563314	0.242215
605.772869	0.242468
605.982406	0.242547
606.191925	0.242371
606.401425	0.242822
606.610908	0.243064
606.820372	0.243545
607.029818	0.243821
607.239246	0.244269
607.448655	0.244685
607.658047	0.244962
607.867420	0.245348
608.076775	0.246025
608.286111	0.245759
608.495430	0.245998
608.704730	0.246041
608.914012	0.246192
609.123275	0.246308
609.332521	0.246349
609.541748	0.246575
609.750957	0.246772
609.960148	0.246702
610.169321	0.247203
610.378475	0.247585
610.587611	0.247802
610.796729	0.247912
611.005829	0.248005
611.214910	0.248112
611.423974	0.248124
611.633019	0.248253
611.842045	0.248548
612.051054	0.248538
612.260044	0.248348
612.469017	0.248315
612.677970	0.248414
612.886906	0.248493
613.095824	0.248427
613.304723	0.248750
613.513604	0.249131
613.722467	0.249419
613.931311	0.249579
614.140138	0.249881
614.348946	0.250311
614.557736	0.250830
614.766507	0.251307
614.975261	0.252078
615.183996	0.251974
615.392713	0.251991
615.601412	0.251892
615.810092	0.252026
616.018754	0.252301
616.227399	0.252296
616.436024	0.252401
616.644632	0.252433
616.853222	0.252365
617.061793	0.252771
617.270346	0.252632
617.478880	0.252601
617.687397	0.252491
617.895895	0.252617
618.104375	0.252883
618.312837	0.252781
618.521281	0.252775
618.729706	0.253065
618.938113	0.253122
619.146502	0.253288
619.354873	0.253648
619.563226	0.254291
619.771560	0.254548
619.979876	0.254865
620.188174	0.255126
620.396453	0.255276
620.604715	0.255414
620.812958	0.255689
621.021183	0.255924
621.229390	0.256214
621.437578	0.256239
621.645748	0.256603
621.853900	0.256926
622.062034	0.257006
622.270150	0.257180
622.478247	0.257203
622.686326	0.257418
622.894387	0.257836
623.102430	0.257832
623.310454	0.257836
623.518461	0.257919
623.726449	0.258089
623.934418	0.258534
624.142370	0.259069
624.350303	0.259416
624.558218	0.259281
624.766115	0.259316
624.973994	0.259732
625.181855	0.260135
625.389697	0.260312
625.597521	0.260347
625.805327	0.260540
626.013114	0.260393
626.220883	0.260569
626.428634	0.261219
626.636367	0.261783
626.844082	0.261822
627.051778	0.262057
627.259457	0.262081
627.467117	0.262347
627.674758	0.262376
627.882382	0.262552
628.089987	0.262575
628.297574	0.262386
628.505143	0.262209
628.712694	0.262406
628.920226	0.262519
629.127740	0.262838
629.335236	0.262579
629.542714	0.262857
629.750174	0.263340
629.957615	0.263828
630.165038	0.263958
630.372443	0.264069
630.579829	0.264298
630.787198	0.264550
630.994548	0.264513
631.201880	0.265090
631.409194	0.265277
631.616489	0.265417
631.823766	0.265207
632.031025	0.265378
632.238266	0.265418
632.445489	0.265383
632.652693	0.265539
632.859879	0.265387
633.067047	0.265536
633.274197	0.265451
633.481329	0.265492
633.688442	0.265873
633.895537	0.266207
634.102614	0.266581
634.309672	0.266873
634.516713	0.267200
634.723735	0.268007
634.930739	0.267941
635.137724	0.268475
635.344692	0.268737
635.551641	0.269102
635.758572	0.269197
635.965485	0.269387
636.172379	0.269817
636.379256	0.269828
636.586114	0.269770
636.792954	0.270358
636.999775	0.270371
637.206579	0.270655
637.413364	0.270485
637.620131	0.270720
637.826880	0.270741
638.033610	0.270826
638.240323	0.270963
638.447017	0.271176
638.653692	0.271301
638.860350	0.271536
639.066990	0.271657
639.273611	0.272003
639.480214	0.272332
639.686798	0.272543
639.893365	0.272594
640.099913	0.272796
640.306443	0.272816
640.512955	0.272842
640.719449	0.272763
640.925924	0.272988
641.132381	0.273168
641.338820	0.273263
641.545241	0.273553
641.751644	0.273772
641.958028	0.274082
642.164394	0.274539
642.370742	0.274966
642.577071	0.275419
642.783383	0.275637
642.989676	0.275845
643.195951	0.276177
643.402207	0.276656
643.608446	0.276664
643.814666	0.276863
644.020868	0.277014
644.227052	0.276949
644.433218	0.277080
644.639365	0.277188
644.845494	0.277360
645.051605	0.277284
645.257698	0.277116
645.463772	0.277333
645.669828	0.277486
645.875866	0.277892
646.081886	0.278124
646.287888	0.278503
646.493871	0.278668
646.699836	0.278863
646.905783	0.279077
647.111712	0.279509
647.317622	0.279984
647.523514	0.280333
647.729388	0.280359
647.935244	0.280501
648.141082	0.280334
648.346901	0.280460
648.552702	0.280691
648.758485	0.281095
648.964250	0.281479
649.169996	0.281599
649.375724	0.281793
649.581434	0.281913
649.787126	0.282507
649.992800	0.283009
650.198455	0.283475
650.404092	0.283922
650.609711	0.284109
650.815311	0.284177
651.020894	0.284301
651.226458	0.284384
651.432004	0.284822
651.637532	0.284729
651.843041	0.284768
652.048532	0.284870
652.254006	0.284924
652.459460	0.285019
652.664897	0.285077
652.870315	0.285264
653.075716	0.285429
653.281097	0.285541
653.486461	0.285512
653.691807	0.285597
653.897134	0.285855
654.102443	0.285948
654.307734	0.286481
654.513006	0.286901
654.718261	0.287333
654.923497	0.287444
655.128715	0.287597
655.333915	0.288122
655.539096	0.288664
655.744259	0.288837
655.949404	0.289010
656.154531	0.288745
656.359640	0.288595
656.564730	0.288785
656.769802	0.289100
656.974856	0.289047
657.179892	0.289021
657.384909	0.289043
657.589908	0.289214
657.794889	0.289493
657.999852	0.290017
658.204797	0.290630
658.409723	0.291020
658.614631	0.291450
658.819521	0.292100
659.024393	0.292573
659.229246	0.292857
659.434081	0.293109
659.638898	0.293300
659.843697	0.293438
660.048478	0.293327
660.253240	0.293375
660.457984	0.293530
660.662710	0.293562
660.867417	0.293853
661.072107	0.294329
661.276778	0.294457
661.481431	0.294911
661.686066	0.295161
661.890682	0.295575
662.095281	0.295934
662.299861	0.296184
662.504422	0.296504
662.708966	0.296354
662.913491	0.296638
663.117999	0.297054
663.322488	0.297346
663.526958	0.297498
663.731411	0.297629
663.935845	0.297704
664.140261	0.297829
664.344659	0.297958
664.549038	0.298479
664.753400	0.298439
664.957743	0.298733
665.162068	0.298932
665.366375	0.299282
665.570663	0.299843
665.774933	0.300466
665.979185	0.300707
666.183419	0.300988
666.387635	0.301457
666.591832	0.301779
666.796011	0.301704
667.000172	0.302188
667.204315	0.302342
667.408439	0.302388
667.612545	0.302481
667.816634	0.302823
668.020703	0.303306
668.224755	0.303264
668.428788	0.303484
668.632803	0.304084
668.836800	0.304062
669.040779	0.304514
669.244739	0.304704
669.448681	0.304694
669.652605	0.304929
669.856511	0.304816
670.060399	0.305131
670.264268	0.305363
670.468119	0.305644
670.671952	0.305807
670.875767	0.305699
671.079563	0.305969
671.283341	0.306388
671.487101	0.306599
671.690843	0.307036
671.894567	0.307280
672.098272	0.307630
672.301959	0.307475
672.505628	0.307802
672.709278	0.308365
672.912911	0.308425
673.116525	0.308511
673.320121	0.308609
673.523699	0.308873
673.727258	0.309176
673.930799	0.309413
674.134322	0.310051
674.337827	0.310061
674.541314	0.310496
674.744782	0.310979
674.948232	0.311347
675.151664	0.311822
675.355078	0.312081
675.558474	0.312441
675.761851	0.312518
675.965210	0.312714
676.168551	0.313152
676.371873	0.313051
676.575178	0.313576
676.778464	0.313750
676.981732	0.313823
677.184981	0.314188
677.388213	0.314063
677.591426	0.314367
677.794621	0.314485
677.997798	0.314757
678.200956	0.315042
678.404097	0.314844
678.607219	0.314970
678.810323	0.315329
679.013408	0.315510
679.216476	0.316024
679.419525	0.316368
679.622556	0.316713
679.825569	0.317068
680.028563	0.317178
680.231540	0.317637
680.434498	0.317919
680.637438	0.318168
680.840359	0.318302
681.043263	0.318367
681.246148	0.318554
681.449015	0.318702
681.651864	0.319006
681.854694	0.319388
682.057506	0.319471
682.260301	0.319761
682.463076	0.319875
682.665834	0.319912
682.868573	0.320362
683.071295	0.320419
683.273998	0.320762
683.476682	0.320733
683.679349	0.321220
683.881997	0.321498
684.084627	0.321881
684.287239	0.321987
684.489833	0.322526
684.692408	0.322609
684.894965	0.322949
685.097504	0.323049
685.300025	0.323621
685.502527	0.323829
685.705012	0.324165
685.907478	0.324375
686.109925	0.324979
686.312355	0.325231
686.514766	0.325674
686.717159	0.326002
686.919534	0.326278
687.121891	0.326095
687.324230	0.326237
687.526550	0.326533
687.728852	0.326875
687.931136	0.327270
688.133401	0.327448
688.335649	0.327619
688.537878	0.328065
688.740089	0.328349
688.942281	0.328857
689.144456	0.328933
689.346612	0.328972
689.548750	0.329101
689.750870	0.329225
689.952971	0.329345
690.155055	0.329437
690.357120	0.329531
690.559167	0.329886
690.761195	0.329917
690.963206	0.330158
691.165198	0.330340
691.367172	0.330388
691.569128	0.330248
691.771065	0.330645
691.972984	0.330935
692.174885	0.331296
692.376768	0.331313
692.578633	0.331575
692.780479	0.331932
692.982308	0.332260
693.184118	0.332619
693.385909	0.332860
