sample name	sample
index	457
start time	 03-11-2021  11:32:28 AM


Wavelength (nm)	Absorbance
494.344910	-0.032166
494.563924	-0.032166
494.782919	-0.032166
495.001897	0.495346
495.220856	0.023886
495.439797	-0.001029
495.658719	0.008798
495.877624	-0.008401
496.096510	-0.043523
496.315378	-0.074311
496.534227	-0.054646
496.753059	-0.043693
496.971872	-0.022738
497.190667	0.113108
497.409444	0.141762
497.628203	0.147164
497.846943	0.151396
498.065665	0.154832
498.284369	0.157144
498.503055	0.157402
498.721723	0.157957
498.940372	0.160023
499.159003	0.161922
499.377616	0.162094
499.596210	0.163122
499.814787	0.162923
500.033345	0.162162
500.251885	0.160056
500.470406	0.160171
500.688910	0.160191
500.907395	0.158933
501.125862	0.157930
501.344311	0.158485
501.562742	0.158021
501.781154	0.158571
501.999548	0.159317
502.217924	0.160964
502.436282	0.160717
502.654621	0.160886
502.872942	0.161191
503.091245	0.161151
503.309530	0.161655
503.527797	0.160013
503.746045	0.160768
503.964275	0.160486
504.182487	0.162298
504.400681	0.162453
504.618856	0.162324
504.837013	0.162901
505.055152	0.164093
505.273273	0.163197
505.491376	0.164865
505.709460	0.164315
505.927526	0.164557
506.145574	0.163422
506.363604	0.163540
506.581615	0.163299
506.799608	0.163122
507.017583	0.162218
507.235540	0.163313
507.453478	0.162867
507.671399	0.163327
507.889301	0.163278
508.107185	0.162956
508.325050	0.163813
508.542898	0.164910
508.760727	0.164719
508.978538	0.164909
509.196330	0.165214
509.414105	0.166124
509.631861	0.166404
509.849599	0.167473
510.067319	0.167816
510.285021	0.167340
510.502704	0.167395
510.720369	0.167528
510.938016	0.168516
511.155645	0.168237
511.373255	0.168811
511.590848	0.168964
511.808422	0.168696
512.025977	0.168378
512.243515	0.168470
512.461034	0.168786
512.678536	0.168984
512.896018	0.169027
513.113483	0.169045
513.330930	0.168912
513.548358	0.168959
513.765768	0.168692
513.983160	0.169415
514.200533	0.169937
514.417889	0.170697
514.635226	0.171810
514.852545	0.171510
515.069845	0.171192
515.287128	0.171125
515.504392	0.171568
515.721638	0.172675
515.938866	0.172942
516.156075	0.173574
516.373267	0.172918
516.590440	0.171980
516.807594	0.172450
517.024731	0.173242
517.241850	0.173327
517.458950	0.172972
517.676032	0.171970
517.893095	0.172035
518.110141	0.172195
518.327168	0.173083
518.544177	0.173677
518.761168	0.174607
518.978141	0.174798
519.195095	0.175234
519.412031	0.175930
519.628949	0.177108
519.845849	0.177541
520.062731	0.177104
520.279594	0.176310
520.496439	0.176903
520.713266	0.176658
520.930074	0.177105
521.146865	0.177572
521.363637	0.177538
521.580391	0.176843
521.797127	0.176642
522.013844	0.177466
522.230543	0.178295
522.447224	0.177867
522.663887	0.178113
522.880532	0.178493
523.097158	0.178748
523.313766	0.178999
523.530356	0.179704
523.746928	0.179864
523.963481	0.179736
524.180017	0.179831
524.396534	0.180853
524.613032	0.181099
524.829513	0.181619
525.045975	0.181797
525.262420	0.182660
525.478845	0.183119
525.695253	0.183869
525.911643	0.184182
526.128014	0.185209
526.344367	0.185133
526.560702	0.185315
526.777018	0.185080
526.993316	0.185531
527.209597	0.185339
527.425858	0.185173
527.642102	0.185571
527.858328	0.185667
528.074535	0.185827
528.290724	0.186128
528.506894	0.187191
528.723047	0.187355
528.939181	0.187878
529.155297	0.188638
529.371395	0.189399
529.587475	0.190099
529.803536	0.190629
530.019579	0.190513
530.235604	0.190589
530.451611	0.190188
530.667600	0.190267
530.883570	0.189938
531.099522	0.189120
531.315456	0.189132
531.531372	0.189443
531.747269	0.189847
531.963148	0.189560
532.179009	0.190272
532.394852	0.190505
532.610676	0.191454
532.826482	0.192202
533.042271	0.193273
533.258040	0.193702
533.473792	0.193982
533.689525	0.194378
533.905240	0.194996
534.120937	0.195189
534.336616	0.195237
534.552277	0.195478
534.767919	0.196146
534.983543	0.195791
535.199149	0.196490
535.414736	0.196366
535.630306	0.196151
535.845857	0.196407
536.061390	0.196287
536.276904	0.196520
536.492401	0.196849
536.707879	0.196530
536.923339	0.197137
537.138781	0.196818
537.354204	0.197168
537.569610	0.197357
537.784997	0.197971
538.000366	0.198948
538.215716	0.199408
538.431049	0.199381
538.646363	0.200104
538.861659	0.200120
539.076937	0.200659
539.292196	0.200328
539.507438	0.201174
539.722661	0.201470
539.937866	0.201389
540.153052	0.202345
540.368221	0.202908
540.583371	0.202427
540.798503	0.203012
541.013617	0.203151
541.228712	0.203751
541.443789	0.203949
541.658848	0.204181
541.873889	0.204589
542.088912	0.204347
542.303916	0.204744
542.518902	0.205105
542.733870	0.205738
542.948820	0.206267
543.163752	0.207036
543.378665	0.207660
543.593560	0.207896
543.808437	0.208008
544.023295	0.208659
544.238136	0.208699
544.452958	0.209716
544.667762	0.209852
544.882548	0.210415
545.097315	0.209978
545.312064	0.210246
545.526795	0.210351
545.741508	0.210264
545.956203	0.210110
546.170879	0.210497
546.385537	0.210319
546.600177	0.210355
546.814799	0.210297
547.029402	0.211027
547.243988	0.210766
547.458555	0.210880
547.673103	0.211855
547.887634	0.212306
548.102146	0.212366
548.316640	0.212556
548.531116	0.212920
548.745574	0.212741
548.960013	0.212665
549.174435	0.213376
549.388838	0.213695
549.603222	0.213730
549.817589	0.213803
550.031937	0.214120
550.246267	0.214299
550.460579	0.214162
550.674873	0.214746
550.889148	0.215221
551.103405	0.214793
551.317644	0.214923
551.531865	0.214827
551.746068	0.215033
551.960252	0.215389
552.174418	0.215817
552.388566	0.216831
552.602696	0.216848
552.816807	0.216777
553.030900	0.217351
553.244975	0.217712
553.459032	0.218028
553.673070	0.218367
553.887091	0.218038
554.101093	0.217954
554.315077	0.217566
554.529042	0.217639
554.742990	0.217881
554.956919	0.218103
555.170830	0.218286
555.384722	0.218659
555.598597	0.218873
555.812453	0.219280
556.026291	0.219952
556.240111	0.220251
556.453913	0.220723
556.667696	0.221448
556.881461	0.221997
557.095208	0.222104
557.308937	0.222191
557.522647	0.222342
557.736339	0.223132
557.950013	0.223337
558.163669	0.223742
558.377307	0.224112
558.590926	0.223576
558.804527	0.223633
559.018110	0.224042
559.231675	0.224458
559.445221	0.224679
559.658749	0.224565
559.872259	0.224875
560.085751	0.225168
560.299225	0.224990
560.512680	0.225517
560.726117	0.225625
560.939536	0.225546
561.152937	0.225288
561.366319	0.225349
561.579683	0.225314
561.793029	0.225144
562.006357	0.225562
562.219667	0.225851
562.432958	0.226153
562.646231	0.226560
562.859486	0.227070
563.072723	0.227843
563.285941	0.227675
563.499141	0.227902
563.712323	0.227431
563.925487	0.227106
564.138632	0.227637
564.351760	0.227628
564.564869	0.227027
564.777960	0.226732
564.991032	0.226699
565.204087	0.227155
565.417123	0.226978
565.630141	0.227819
565.843140	0.228088
566.056122	0.227748
566.269085	0.228221
566.482030	0.228402
566.694957	0.228973
566.907866	0.229010
567.120756	0.228793
567.333628	0.229549
567.546482	0.229359
567.759318	0.229198
567.972135	0.229957
568.184935	0.229628
568.397716	0.230001
568.610478	0.230347
568.823223	0.230526
569.035949	0.231232
569.248657	0.230886
569.461347	0.230972
569.674019	0.231297
569.886672	0.231164
570.099308	0.231797
570.311925	0.231692
570.524523	0.231943
570.737104	0.232111
570.949666	0.232219
571.162210	0.232645
571.374736	0.233199
571.587244	0.233347
571.799733	0.233558
572.012205	0.233191
572.224658	0.233783
572.437092	0.233756
572.649509	0.233719
572.861907	0.233881
573.074287	0.233822
573.286649	0.234212
573.498993	0.234735
573.711318	0.234850
573.923625	0.235360
574.135914	0.235391
574.348185	0.235300
574.560438	0.235773
574.772672	0.235598
574.984888	0.236004
575.197086	0.236193
575.409266	0.236458
575.621427	0.236564
575.833570	0.236741
576.045695	0.236789
576.257802	0.236881
576.469890	0.236818
576.681961	0.237308
576.894013	0.237479
577.106046	0.237432
577.318062	0.237181
577.530059	0.237061
577.742039	0.237343
577.954000	0.237912
578.165942	0.238105
578.377867	0.238540
578.589773	0.238768
578.801661	0.238881
579.013531	0.238930
579.225382	0.239113
579.437216	0.239454
579.649031	0.239489
579.860828	0.239578
580.072606	0.240708
580.284367	0.240673
580.496109	0.240645
580.707833	0.240803
580.919539	0.240884
581.131227	0.240948
581.342896	0.241248
581.554547	0.241843
581.766180	0.241918
581.977795	0.241205
582.189391	0.241530
582.400969	0.241590
582.612529	0.241753
582.824071	0.242359
583.035595	0.242516
583.247100	0.242817
583.458587	0.242569
583.670056	0.242945
583.881506	0.243398
584.092939	0.243816
584.304353	0.244018
584.515749	0.244494
584.727127	0.244248
584.938486	0.244454
585.149828	0.244358
585.361151	0.244255
585.572456	0.244006
585.783742	0.243813
585.995011	0.243421
586.206261	0.243817
586.417493	0.243588
586.628706	0.243717
586.839902	0.244202
587.051079	0.244601
587.262238	0.245041
587.473379	0.245254
587.684502	0.245701
587.895606	0.246289
588.106692	0.246466
588.317760	0.246380
588.528810	0.246689
588.739841	0.246587
588.950855	0.246985
589.161850	0.247265
589.372827	0.247555
589.583785	0.247835
589.794726	0.248220
590.005648	0.248225
590.216552	0.248971
590.427437	0.249222
590.638305	0.249564
590.849154	0.249706
591.059985	0.249580
591.270798	0.249998
591.481592	0.249886
591.692369	0.249646
591.903127	0.249824
592.113867	0.249842
592.324588	0.249960
592.535292	0.249894
592.745977	0.249833
592.956644	0.250537
593.167293	0.249907
593.377923	0.250178
593.588536	0.250392
593.799130	0.250766
594.009706	0.250701
594.220263	0.250794
594.430803	0.251046
594.641324	0.251325
594.851827	0.251450
595.062312	0.252236
595.272778	0.252547
595.483227	0.252660
595.693657	0.253035
595.904069	0.253291
596.114462	0.253575
596.324838	0.253798
596.535195	0.253940
596.745534	0.253994
596.955855	0.254168
597.166157	0.254243
597.376441	0.254529
597.586707	0.254133
597.796955	0.254519
598.007185	0.254445
598.217396	0.254873
598.427589	0.255081
598.637764	0.255348
598.847921	0.255518
599.058060	0.255475
599.268180	0.255563
599.478282	0.255913
599.688366	0.256213
599.898431	0.256498
600.108479	0.256610
600.318508	0.256351
600.528519	0.256164
600.738511	0.256137
600.948486	0.256669
601.158442	0.256738
601.368380	0.257090
601.578300	0.257092
601.788202	0.257117
601.998085	0.257023
602.207950	0.257339
602.417797	0.257740
602.627626	0.258079
602.837436	0.258099
603.047228	0.258230
603.257002	0.258478
603.466758	0.258483
603.676496	0.258833
603.886215	0.259200
604.095916	0.259669
604.305599	0.259507
604.515264	0.259272
604.724910	0.259253
604.934538	0.259572
605.144148	0.259273
605.353740	0.259364
605.563314	0.259579
605.772869	0.259135
605.982406	0.258947
606.191925	0.259263
606.401425	0.259595
606.610908	0.260040
606.820372	0.260004
607.029818	0.260320
607.239246	0.260554
607.448655	0.260641
607.658047	0.261074
607.867420	0.261043
608.076775	0.261305
608.286111	0.261890
608.495430	0.262011
608.704730	0.262387
608.914012	0.262599
609.123275	0.262923
609.332521	0.263104
609.541748	0.263101
609.750957	0.263484
609.960148	0.263316
610.169321	0.263129
610.378475	0.263208
610.587611	0.263391
610.796729	0.263627
611.005829	0.263607
611.214910	0.263702
611.423974	0.264160
611.633019	0.264218
611.842045	0.264500
612.051054	0.264790
612.260044	0.264831
612.469017	0.264948
612.677970	0.264985
612.886906	0.265161
613.095824	0.265443
613.304723	0.265784
613.513604	0.266222
613.722467	0.266347
613.931311	0.266173
614.140138	0.266232
614.348946	0.266075
614.557736	0.266102
614.766507	0.266199
614.975261	0.266207
615.183996	0.265831
615.392713	0.265628
615.601412	0.265641
615.810092	0.265774
616.018754	0.266122
616.227399	0.266733
616.436024	0.267035
616.644632	0.267385
616.853222	0.267856
617.061793	0.268474
617.270346	0.268771
617.478880	0.269200
617.687397	0.269469
617.895895	0.269428
618.104375	0.269308
618.312837	0.269615
618.521281	0.269646
618.729706	0.269543
618.938113	0.269483
619.146502	0.269781
619.354873	0.269835
619.563226	0.269957
619.771560	0.270126
619.979876	0.270251
620.188174	0.270359
620.396453	0.270532
620.604715	0.270613
620.812958	0.270977
621.021183	0.270967
621.229390	0.270907
621.437578	0.271382
621.645748	0.271595
621.853900	0.271738
622.062034	0.271636
622.270150	0.271827
622.478247	0.272380
622.686326	0.272277
622.894387	0.272428
623.102430	0.272609
623.310454	0.272524
623.518461	0.272830
623.726449	0.272832
623.934418	0.273463
624.142370	0.273424
624.350303	0.273124
624.558218	0.273495
624.766115	0.273627
624.973994	0.273945
625.181855	0.274038
625.389697	0.273992
625.597521	0.274280
625.805327	0.274089
626.013114	0.274188
626.220883	0.274634
626.428634	0.274932
626.636367	0.275067
626.844082	0.275157
627.051778	0.275460
627.259457	0.275480
627.467117	0.275294
627.674758	0.275343
627.882382	0.275836
628.089987	0.275835
628.297574	0.275678
628.505143	0.275789
628.712694	0.275988
628.920226	0.276366
629.127740	0.276597
629.335236	0.276904
629.542714	0.277087
629.750174	0.276784
629.957615	0.276775
630.165038	0.277120
630.372443	0.277277
630.579829	0.277387
630.787198	0.277078
630.994548	0.277480
631.201880	0.277626
631.409194	0.278055
631.616489	0.278514
631.823766	0.278864
632.031025	0.278800
632.238266	0.279167
632.445489	0.279250
632.652693	0.279806
632.859879	0.279716
633.067047	0.280158
633.274197	0.280001
633.481329	0.280046
633.688442	0.280065
633.895537	0.280233
634.102614	0.280255
634.309672	0.280404
634.516713	0.280386
634.723735	0.280662
634.930739	0.281095
635.137724	0.281336
635.344692	0.281450
635.551641	0.281336
635.758572	0.281517
635.965485	0.281530
636.172379	0.281681
636.379256	0.282001
636.586114	0.282279
636.792954	0.282321
636.999775	0.282687
637.206579	0.282773
637.413364	0.283439
637.620131	0.283649
637.826880	0.284043
638.033610	0.284197
638.240323	0.284154
638.447017	0.284032
638.653692	0.283904
638.860350	0.283681
639.066990	0.283924
639.273611	0.284172
639.480214	0.284338
639.686798	0.284543
639.893365	0.284888
640.099913	0.285102
640.306443	0.285569
640.512955	0.285805
640.719449	0.286240
640.925924	0.286617
641.132381	0.286475
641.338820	0.286535
641.545241	0.286741
641.751644	0.286836
641.958028	0.286853
642.164394	0.286795
642.370742	0.286953
642.577071	0.286892
642.783383	0.286923
642.989676	0.287103
643.195951	0.287746
643.402207	0.287744
643.608446	0.287909
643.814666	0.288257
644.020868	0.288514
644.227052	0.288718
644.433218	0.289009
644.639365	0.289372
644.845494	0.289744
645.051605	0.289628
645.257698	0.289667
645.463772	0.289875
645.669828	0.289979
645.875866	0.290278
646.081886	0.290441
646.287888	0.290265
646.493871	0.290253
646.699836	0.290330
646.905783	0.290341
647.111712	0.290700
647.317622	0.290809
647.523514	0.291204
647.729388	0.291523
647.935244	0.291498
648.141082	0.292071
648.346901	0.292108
648.552702	0.292352
648.758485	0.292312
648.964250	0.292475
649.169996	0.292682
649.375724	0.292689
649.581434	0.292772
649.787126	0.293216
649.992800	0.293298
650.198455	0.293692
650.404092	0.293645
650.609711	0.294183
650.815311	0.294272
651.020894	0.294763
651.226458	0.294802
651.432004	0.294700
651.637532	0.294704
651.843041	0.294853
652.048532	0.294846
652.254006	0.294966
652.459460	0.294895
652.664897	0.295115
652.870315	0.294858
653.075716	0.294900
653.281097	0.295213
653.486461	0.295269
653.691807	0.295240
653.897134	0.295452
654.102443	0.295813
654.307734	0.295946
654.513006	0.296182
654.718261	0.296643
654.923497	0.297047
655.128715	0.297196
655.333915	0.297518
655.539096	0.298031
655.744259	0.298165
655.949404	0.298297
656.154531	0.298761
656.359640	0.299091
656.564730	0.299168
656.769802	0.299315
656.974856	0.299562
657.179892	0.300070
657.384909	0.300250
657.589908	0.300658
657.794889	0.300804
657.999852	0.301061
658.204797	0.300922
658.409723	0.301357
658.614631	0.301753
658.819521	0.301653
659.024393	0.301620
659.229246	0.302067
659.434081	0.302264
659.638898	0.302580
659.843697	0.302541
660.048478	0.303051
660.253240	0.302996
660.457984	0.303123
660.662710	0.303546
660.867417	0.303774
661.072107	0.303762
661.276778	0.303989
661.481431	0.304114
661.686066	0.304385
661.890682	0.304323
662.095281	0.304561
662.299861	0.304754
662.504422	0.305027
662.708966	0.305173
662.913491	0.305179
663.117999	0.305276
663.322488	0.305481
663.526958	0.305816
663.731411	0.306112
663.935845	0.306243
664.140261	0.306251
664.344659	0.306097
664.549038	0.306476
664.753400	0.306726
664.957743	0.306874
665.162068	0.307076
665.366375	0.307145
665.570663	0.307423
665.774933	0.307825
665.979185	0.308261
666.183419	0.308513
666.387635	0.308564
666.591832	0.308877
666.796011	0.309230
667.000172	0.309292
667.204315	0.309490
667.408439	0.309640
667.612545	0.309828
667.816634	0.309831
668.020703	0.310524
668.224755	0.310907
668.428788	0.311041
668.632803	0.311160
668.836800	0.311571
669.040779	0.312137
669.244739	0.312474
669.448681	0.312532
669.652605	0.312655
669.856511	0.312651
670.060399	0.312799
670.264268	0.313197
670.468119	0.313211
670.671952	0.313351
670.875767	0.313071
671.079563	0.313159
671.283341	0.313343
671.487101	0.313589
671.690843	0.313726
671.894567	0.313722
672.098272	0.313767
672.301959	0.314127
672.505628	0.314110
672.709278	0.314759
672.912911	0.315067
673.116525	0.315324
673.320121	0.315677
673.523699	0.315825
673.727258	0.315928
673.930799	0.316157
674.134322	0.316290
674.337827	0.316482
674.541314	0.316389
674.744782	0.316714
674.948232	0.316952
675.151664	0.316984
675.355078	0.317560
675.558474	0.317948
675.761851	0.318057
675.965210	0.318369
676.168551	0.318874
676.371873	0.319295
676.575178	0.319275
676.778464	0.319475
676.981732	0.319810
677.184981	0.319982
677.388213	0.320232
677.591426	0.320713
677.794621	0.320854
677.997798	0.321056
678.200956	0.321140
678.404097	0.321564
678.607219	0.321789
678.810323	0.322052
679.013408	0.322038
679.216476	0.322157
679.419525	0.322301
679.622556	0.322589
679.825569	0.322883
680.028563	0.322914
680.231540	0.323040
680.434498	0.323187
680.637438	0.323242
680.840359	0.323360
681.043263	0.323783
681.246148	0.323964
681.449015	0.324067
681.651864	0.324331
681.854694	0.324613
682.057506	0.324662
682.260301	0.324588
682.463076	0.325089
682.665834	0.325410
682.868573	0.325520
683.071295	0.325747
683.273998	0.326031
683.476682	0.326033
683.679349	0.326288
683.881997	0.326623
684.084627	0.327276
684.287239	0.327182
684.489833	0.327308
684.692408	0.327371
684.894965	0.327173
685.097504	0.327512
685.300025	0.327536
685.502527	0.327747
685.705012	0.328037
685.907478	0.327997
686.109925	0.328301
686.312355	0.328521
686.514766	0.328913
686.717159	0.329514
686.919534	0.329520
687.121891	0.329952
687.324230	0.330228
687.526550	0.330102
687.728852	0.330620
687.931136	0.330566
688.133401	0.330811
688.335649	0.330701
688.537878	0.330644
688.740089	0.330741
688.942281	0.330992
689.144456	0.330770
689.346612	0.331122
689.548750	0.331143
689.750870	0.331685
689.952971	0.331584
690.155055	0.332055
690.357120	0.332265
690.559167	0.332614
690.761195	0.332440
690.963206	0.332856
691.165198	0.332990
691.367172	0.332913
691.569128	0.332831
691.771065	0.333100
691.972984	0.333156
692.174885	0.333482
692.376768	0.333405
692.578633	0.333928
692.780479	0.334189
692.982308	0.334315
693.184118	0.334708
693.385909	0.335011
