sample name	sample
index	890
start time	 04-08-2021  02:44:25 PM
880	0.449429
Peak Time (s)	122.537
Peak Height 	0.4494
calc peak height	120,123
Baseline Time (s)	11.036
Baseline Value 	-0.001618
subtract baseline	10,4
Abs	0.330938
Peak Time (s)	121.536
Peak Height 	0.3309
calc peak height	120,123
Baseline Time (s)	9.037
Baseline Value 	8.4507E-4
subtract baseline	10,3
PK_550	0.173250
Peak Time (s)	122.039
Peak Height 	0.1733
calc peak height	120,123
Baseline Time (s)	11.036
Baseline Value 	7.6475E-4
subtract baseline	10,2
PK_880	0.303680
Peak Time (s)	121.536
Peak Height 	0.3037
calc peak height	120,123
Baseline Time (s)	8.54
Baseline Value 	5.7046E-4
subtract baseline	10,1


Time (s)	A880-A510	A880-A775	A880-A975	A880	I510	I775	I975	I880	
0.035000	0.000868	-0.000025	-0.001436	0.001472	6883.236465	42424.662120	3931.135537	22716.702821
0.538000	-0.003185	-0.001492	-0.002934	0.005656	6804.601580	41911.266183	3914.735153	22524.609525
1.035500	-0.003206	-0.001027	-0.001075	0.002701	6832.444231	42221.176558	3928.615217	22660.075950
1.541500	-0.000594	-0.000429	-0.001306	0.000398	6879.496789	42485.900811	3934.637093	22766.301534
2.035500	-0.001210	-0.000609	-0.002650	-0.000214	6879.454051	42525.435872	3932.504307	22794.584213
2.536000	-0.003905	-0.000588	-0.005673	0.005699	6797.395011	41989.046466	3906.784698	22522.645080
3.036000	-0.000562	-0.000471	-0.002375	-0.001913	6902.109407	42694.125378	3938.260213	22873.408875
3.537000	-0.000041	-0.000439	-0.003001	-0.000297	6891.526364	42548.669523	3931.728414	22798.451589
4.037000	0.000133	0.000176	0.000890	0.000225	6888.171530	42557.191441	3941.557029	22774.282829
4.537500	0.001082	-0.000532	-0.000980	-0.000013	6899.636810	42514.098908	3936.786267	22785.296699
5.037500	0.001609	-0.000623	-0.000181	-0.000110	6905.675808	42514.678258	3939.404481	22789.790926
5.535500	-0.000430	-0.000252	-0.001587	-0.000067	6885.557773	42544.772278	3935.173991	22787.793602
6.038500	-0.001691	-0.000710	-0.000759	-0.000748	6879.963501	42565.162720	3939.577962	22819.351579
6.536000	-0.000426	0.000176	-0.001135	0.000447	6880.641879	42536.803288	3934.993522	22764.014957
7.036500	0.000214	0.000005	0.001919	-0.000369	6894.682131	42596.035458	3946.317135	22801.762173
7.536500	0.000011	-0.000888	0.000710	-0.000851	6897.380722	42558.319360	3944.181716	22824.104738
8.036000	0.001124	0.000368	-0.000800	0.000139	6898.567463	42582.743553	3936.866879	22778.260149
8.539500	0.000000	-0.001242	0.001060	-0.001291	6901.530636	42566.168929	3946.503457	22844.530477
9.037500	0.001634	0.000484	0.000000	0.000018	6904.675929	42604.481991	3939.557374	22783.855264
9.538000	0.000345	0.000199	-0.000780	0.000016	6892.228309	42578.503752	3937.283865	22783.941325
10.035000	-0.000674	-0.000493	-0.002841	-0.000336	6885.794242	42547.237555	3932.304163	22800.226138
10.535000	-0.001925	-0.001357	0.000880	0.002489	6846.678559	42210.396951	3934.913804	22669.817169
11.035500	0.000998	0.000000	-0.000027	0.000000	6898.698692	42561.694385	3939.532431	22784.691058
11.536000	-0.001662	0.000348	0.001676	-0.000403	6876.921028	42630.697792	3945.704497	22803.353528
12.036000	0.001344	-0.000059	-0.004801	-0.000928	6911.033265	42641.463793	3928.333704	22827.672932
12.536500	-0.004113	-0.000138	-0.001676	0.003036	6820.634820	42271.564542	3925.903153	22644.661101
13.037000	0.000617	0.000150	-0.000236	-0.000870	6903.433405	42655.450991	3941.467397	22825.015189
13.537000	0.001830	-0.000113	0.000880	-0.000928	6915.752711	42636.469959	3944.908016	22827.666616
14.034500	0.000001	-0.000411	-0.001693	0.001533	6874.295808	42383.794755	3930.212758	22713.879540
14.535000	-0.003486	-0.001211	0.000128	0.003245	6824.605432	42154.991548	3930.526445	22635.075247
15.038000	-0.000081	-0.000190	-0.001504	-0.000877	6896.737473	42624.693940	3937.777935	22825.303212
15.535500	0.000453	-0.000354	-0.000299	-0.001182	6904.857950	42637.754069	3942.196710	22839.475487
16.036000	0.000991	0.000848	0.001253	-0.000412	6902.615053	42677.499080	3944.491116	22803.788522
16.538500	-0.001780	-0.000476	0.000932	0.003001	6843.175055	42244.055989	3933.572990	22646.287473
17.036000	0.001887	-0.000283	-0.004060	-0.003170	6938.137556	42827.428051	3937.010838	22931.940778
17.536500	0.000372	-0.000042	0.000148	0.000237	6890.353209	42536.119201	3939.351136	22773.723357
18.037000	-0.000815	-0.000738	0.000570	-0.000438	6885.415329	42534.188816	3942.560953	22804.980978
18.537000	-0.003443	-0.000644	-0.002048	0.001381	6842.762939	42376.343682	3929.622292	22720.882973
19.034500	-0.000396	-0.000851	-0.002622	0.000149	6883.806095	42470.126143	3931.533520	22777.818686
19.535000	-0.000254	0.000136	-0.000650	0.000795	6878.948553	42501.240362	3935.389920	22747.930930
20.035000	-0.001723	-0.000299	-0.000382	0.000323	6869.351010	42504.642706	3937.549904	22769.732229
20.535500	0.001563	-0.000386	0.001238	0.001805	6886.718575	42361.228821	3937.954049	22701.340343
21.035500	0.000818	-0.000393	-0.000877	0.000831	6888.937212	42449.587128	3934.625215	22746.286845
21.536000	0.000335	-0.000371	-0.003006	0.000392	6888.502813	42491.791154	3929.713284	22766.570065
22.037000	-0.001950	-0.000173	-0.002375	0.001094	6859.784843	42445.634420	3929.505307	22734.119142
22.537000	-0.001550	-0.000589	0.000096	0.002106	6853.920059	42315.197076	3933.743544	22687.447513
23.036500	-0.001336	-0.001056	0.000269	-0.000121	6877.344310	42476.020442	3940.750409	22790.272907
23.540000	-0.002278	-0.000345	0.001411	0.001058	6856.983087	42433.180083	3940.643494	22735.779441
24.037500	-0.000367	-0.000279	0.000116	0.001060	6875.302851	42439.002293	3936.850578	22735.680145
24.538000	-0.000935	0.000054	0.001894	0.001092	6869.546520	42466.629334	3941.960416	22734.234623
25.035500	-0.000430	-0.000353	0.000243	0.001002	6875.257099	42437.608905	3937.392054	22738.373777
25.535500	0.001343	0.000060	-0.001668	0.001040	6891.973559	42471.861428	3931.713162	22736.603893
26.035500	0.000088	0.000691	0.002750	0.001408	6876.342059	42495.988914	3943.542637	22719.655445
26.536500	0.000237	0.000562	-0.000595	0.001497	6876.911393	42476.037269	3933.508077	22715.536593
27.036500	0.001868	-0.000257	-0.000158	-0.001390	6920.609710	42665.729178	3943.215954	22849.111154
27.536000	-0.000047	0.000318	-0.000111	-0.000476	6893.197654	42634.629241	3940.677612	22806.733569
28.037500	0.001309	0.000792	-0.000688	-0.000011	6901.814340	42635.417608	3937.633236	22785.214939
28.537500	-0.000016	0.000947	0.000656	0.000637	6882.764071	42590.128012	3939.666699	22755.246512
29.040500	0.000274	0.000731	0.000819	0.000417	6887.674728	42590.521783	3940.785043	22765.396918
29.535000	0.000489	0.000664	0.000981	0.000224	6891.611544	42602.036050	3941.823756	22774.314228
30.035500	0.000896	0.000105	0.001566	-0.000282	6900.440340	42597.219225	3945.026051	22797.752425
30.536000	0.000537	0.000712	-0.001896	0.002928	6866.050032	42358.954360	3925.582788	22649.657762
31.036000	-0.000735	0.000456	-0.004544	0.001581	6866.762452	42458.614183	3921.820977	22711.633602
31.537000	0.002303	0.000273	0.002846	-0.000327	6914.515474	42616.801397	3948.925658	22799.846847
32.036500	-0.001191	0.001012	0.001231	0.000104	6876.579516	42645.111006	3942.912355	22779.890547
32.534500	0.002722	0.000754	0.004369	0.000708	6908.540411	42565.998932	3950.363094	22751.972054
33.037000	0.001585	0.000444	0.001781	-0.000104	6905.379901	42611.961207	3945.135065	22789.504676
33.540500	0.001767	0.000955	0.001328	-0.000173	6907.818257	42665.350604	3944.008683	22792.700292
34.037000	-0.000444	0.000180	0.001660	0.001745	6867.986695	42418.393074	3939.360827	22704.092150
34.535000	-0.001135	-0.000159	-0.000813	0.003040	6848.963947	42269.283269	3928.392746	22644.492165
35.035000	-0.000391	0.000188	0.002198	0.001867	6867.326153	42408.000849	3940.581283	22698.490986
35.536000	-0.000641	0.000768	0.002733	0.002004	6863.604066	42448.428428	3941.743213	22692.144031
36.036500	0.000667	-0.000210	-0.002432	0.001681	6879.280380	42388.621084	3927.637596	22707.034365
36.536500	-0.002806	-0.000340	0.001399	0.002960	6833.786905	42260.176545	3935.054751	22648.186548
37.036500	0.001085	0.000158	0.002937	0.001877	6881.419173	42404.252049	3942.713777	22698.000131
37.537000	-0.000379	-0.000141	-0.001180	0.001208	6873.770152	42438.159580	3932.643980	22728.854431
38.038000	0.000808	0.001062	0.000817	0.002834	6869.544445	42399.492701	3933.726037	22653.951563
38.535000	-0.000862	0.000580	0.002068	0.002526	6856.484210	42383.537655	3938.270352	22668.105760
39.034500	0.002183	0.000556	0.000919	0.001974	6891.077883	42431.864479	3936.530952	22693.559024
39.535500	0.001114	0.000101	0.004549	0.001503	6885.306679	42433.306884	3948.549245	22715.267824
40.036000	-0.002356	0.000088	-0.002444	0.001491	6852.097628	42433.280334	3928.155335	22715.826211
40.536500	-0.000041	-0.000806	-0.003669	0.002931	6860.473843	42220.282411	3920.452517	22649.481791
41.036500	0.000747	-0.000261	-0.000006	0.001828	6878.637477	42370.562342	3934.260525	22700.284540
41.537000	0.001447	0.000110	-0.000452	0.001573	6887.832934	42427.628651	3933.699890	22712.001308
42.037000	0.002592	-0.000689	-0.000142	0.001342	6901.135221	42375.819264	3935.277222	22722.663809
42.537000	0.001696	0.000653	-0.002933	0.003371	6872.928528	42313.150125	3921.307232	22629.288183
43.038000	0.000770	-0.000241	-0.001618	0.001174	6885.155835	42432.070913	3931.471601	22730.439201
43.535500	0.001626	0.000571	0.001308	0.000184	6902.987444	42597.207543	3942.901459	22776.154263
44.035500	0.002006	0.000516	0.003311	-0.002205	6929.885604	42812.101738	3955.844165	22887.012957
44.535500	-0.001470	0.000255	0.000284	0.004290	6833.843280	42193.254403	3927.948494	22587.137100
45.036500	0.002025	-0.000542	0.003718	-0.000548	6913.954985	42562.256651	3952.148472	22810.074652
45.535500	0.001689	0.000091	0.001613	0.000147	6903.959457	42556.530829	3943.904247	22777.867384
46.036500	-0.000424	0.000308	0.001442	-0.000171	6886.611408	42605.591380	3944.335434	22792.589355
46.536500	-0.002545	-0.000383	-0.001503	0.003170	6834.259695	42237.039410	3926.016454	22638.491262
47.037000	0.000736	-0.000047	0.002737	0.002003	6876.847508	42374.062135	3941.760564	22692.215175
47.537500	-0.000289	0.000622	0.001897	0.002698	6860.328928	42371.741238	3937.269216	22660.207913
48.035000	-0.001619	0.001330	0.001471	0.002050	6853.790214	42495.648134	3937.916110	22690.016369
48.539500	0.000004	-0.000128	-0.001879	0.005109	6840.080900	42084.193860	3919.339423	22549.634020
49.034500	0.001941	0.000846	0.000569	0.000580	6902.214894	42586.122350	3939.578943	22757.887682
49.535500	0.002520	0.000526	0.000822	-0.002734	6940.055148	42861.842421	3950.050389	22911.608744
50.036000	0.000819	0.000538	-0.000341	0.001818	6879.425147	42444.451861	3933.311685	22700.742912
50.536000	-0.011846	-0.004069	0.001394	0.004382	6735.352027	41793.914382	3930.899175	22582.886559
51.039500	-0.034290	-0.019120	0.085745	0.357705	4397.720817	19451.274729	3348.528841	11505.301639
51.537000	-0.047845	-0.012971	-0.006647	-0.009750	6537.114349	42267.321958	3948.718439	23241.043389
52.040000	-0.057425	-0.029034	-0.034343	-0.175645	8200.192024	58560.030111	4427.996436	32803.620918
52.537000	-0.031674	-0.062476	-0.031029	-0.253191	9677.533841	64528.626712	4787.861652	38691.482082
53.035000	-0.011649	-0.032135	-0.019446	-0.207036	9270.016832	62318.491444	4625.769274	35061.219201
53.535000	0.000127	-0.030412	-0.020890	-0.208354	9471.160963	62737.244647	4625.203303	35159.621146
54.035500	0.001943	-0.016845	-0.011278	-0.175903	9009.880542	60183.553810	4525.015583	32821.520366
54.535500	0.010955	-0.002871	0.002293	-0.124138	8418.150987	55394.710429	4368.802706	29435.247468
55.036000	0.029204	0.005571	0.013651	-0.099388	8333.165040	53453.405437	4317.201884	27953.389384
55.536500	0.040851	0.013313	0.027132	-0.060650	7992.406459	49958.822586	4224.110058	25797.082440
56.037000	0.048415	0.020643	0.041075	-0.000957	7393.604875	44593.272944	4068.677137	22829.036218
56.540000	0.060838	0.028350	0.062743	0.032848	7168.033749	42151.197137	4030.116331	21320.515232
57.037500	0.078045	0.035958	0.078833	0.059376	7073.131576	40470.289400	3997.805483	20216.264471
57.535000	0.091341	0.043903	0.095009	0.090653	6895.698067	38495.722219	3952.413684	18998.075929
58.035000	0.102176	0.051728	0.111976	0.124220	6681.649734	36436.942871	3904.303970	17784.727842
58.535500	0.113796	0.059370	0.124489	0.136879	6672.129466	36049.679713	3903.887362	17350.950961
59.035500	0.127071	0.065573	0.133072	0.148522	6687.090543	35634.762743	3895.220367	16962.984047
59.536000	0.133820	0.071063	0.151459	0.166114	6588.733484	34730.245534	3897.466230	16396.175441
60.036000	0.144867	0.078581	0.164329	0.185581	6514.040701	33861.623736	3878.954611	15795.157095
60.536000	0.154219	0.085196	0.176272	0.211639	6370.045351	32498.227155	3840.279522	15031.668230
61.037000	0.156776	0.087892	0.183982	0.218076	6337.383696	32242.783615	3843.715184	14850.013271
61.537500	0.164876	0.092314	0.186820	0.209762	6477.560168	33121.381455	3874.257248	15085.151374
62.037500	0.170128	0.096086	0.192171	0.242577	6245.156941	31154.848486	3800.431608	14182.711422
62.534500	0.177980	0.101223	0.202597	0.253827	6217.508514	30757.461500	3798.286342	13888.695844
63.035000	0.183280	0.104178	0.204272	0.252826	6268.941922	31013.964240	3805.264288	13914.547075
63.544000	0.186728	0.105756	0.206999	0.254864	6280.556960	30984.063873	3807.068825	13861.985601
64.035500	0.191458	0.108726	0.212068	0.258443	6290.067198	30944.458626	3810.978484	13770.265164
64.536500	0.196083	0.110746	0.213377	0.262802	6292.268443	30792.857360	3802.990090	13659.554045
65.084500	0.201493	0.113709	0.217442	0.267756	6296.038802	30664.480974	3800.673151	13535.079836
65.536000	0.205658	0.113986	0.220962	0.271260	6301.515383	30457.569557	3800.711469	13447.878173
66.037000	0.205559	0.115937	0.224043	0.281776	6214.517426	29915.909165	3781.512315	13190.393382
66.832000	0.212205	0.120732	0.230861	0.288983	6209.976937	29765.325057	3780.516963	13017.506836
67.218000	0.213367	0.120006	0.227508	0.289664	6213.870471	29677.877341	3770.246712	13001.325718
67.535000	0.216147	0.121746	0.232064	0.293215	6207.634976	29565.669869	3772.795055	12917.302975
68.035500	0.217463	0.123352	0.230265	0.303837	6133.231233	29014.110304	3741.686796	12670.069122
68.535500	0.217786	0.123976	0.237168	0.309275	6093.024512	28724.312525	3745.310139	12545.837119
69.036000	0.223972	0.126401	0.239519	0.309697	6138.371145	28844.515848	3750.100507	12536.254030
69.536500	0.226875	0.126906	0.242230	0.314547	6122.984167	28584.433774	3744.790593	12426.843179
70.036500	0.226358	0.129107	0.243101	0.326245	6028.002594	28025.011420	3718.314696	12167.947548
70.539500	0.228859	0.130632	0.253619	0.332295	6000.902651	27762.692916	3729.158958	12036.751911
71.037000	0.233257	0.131600	0.249807	0.331217	6042.813469	27880.948276	3722.511982	12060.002314
71.537500	0.234281	0.132946	0.252106	0.335800	6015.518165	27694.187138	3716.988238	11961.599705
72.035000	0.234740	0.133114	0.256242	0.346983	5934.606736	27068.737338	3700.129468	11725.769899
72.535000	0.239093	0.134850	0.259297	0.352623	5925.031378	26850.867237	3694.013898	11609.123751
73.035500	0.242064	0.136525	0.262825	0.353487	5940.727208	26895.966932	3700.316771	11591.388757
73.538000	0.244724	0.137338	0.264822	0.359004	5919.468184	26635.485227	3691.994792	11478.956635
74.036000	0.249429	0.138680	0.273074	0.365006	5909.857054	26380.267567	3697.304929	11358.251437
74.535500	0.245821	0.138739	0.272508	0.375177	5809.564073	25835.748036	3672.209370	11157.494890
75.039500	0.251503	0.140857	0.273005	0.375160	5850.659800	25949.644832	3673.393764	11157.815129
75.537000	0.252670	0.141519	0.272225	0.379831	5825.323985	25736.187549	3660.873449	11067.174255
76.037000	0.251610	0.141701	0.279285	0.390307	5743.362281	25197.104276	3653.106837	10867.399693
76.537500	0.251385	0.142070	0.281978	0.393806	5717.363356	25035.673892	3651.282315	10801.740872
77.035000	0.256023	0.144582	0.286167	0.393446	5752.301752	25183.724334	3661.619735	10808.470810
77.535000	0.259188	0.145333	0.289983	0.397562	5745.628202	25010.374797	3660.935797	10731.847719
78.035500	0.258026	0.145097	0.288270	0.400290	5718.457111	24858.807735	3650.849630	10681.468263
78.535500	0.262845	0.146333	0.286548	0.404560	5722.273617	24704.696405	3637.402853	10603.229423
79.036000	0.261482	0.146666	0.292061	0.407286	5693.938018	24583.904887	3643.634272	10553.685395
79.536500	0.265470	0.147600	0.291345	0.410720	5697.761244	24458.366986	3634.369976	10491.707301
80.037000	0.259463	0.146150	0.288226	0.417447	5611.091655	24052.954797	3612.740737	10371.716849
80.537000	0.264790	0.148384	0.295423	0.414902	5664.365973	24288.977299	3634.139242	10416.892175
81.034500	0.266401	0.149527	0.295310	0.417276	5659.162620	24227.904631	3628.630974	10374.744223
81.535000	0.268497	0.150593	0.302628	0.419764	5656.489919	24157.627259	3639.357872	10330.822447
82.035000	0.266295	0.151079	0.300464	0.427213	5591.480650	23816.641081	3618.126615	10200.791533
82.535500	0.269818	0.151751	0.302249	0.422525	5646.699388	24078.622431	3632.368445	10282.356478
83.036000	0.272646	0.151498	0.296968	0.422483	5666.245618	24068.243792	3620.824702	10283.093876
83.536000	0.273382	0.153279	0.305403	0.424171	5659.748407	24072.867110	3635.719724	10253.626471
84.036000	0.269947	0.153737	0.305575	0.430740	5592.318024	23774.526594	3621.592780	10140.011548
84.539500	0.276476	0.155856	0.305910	0.426604	5664.262116	24079.933347	3631.444082	10211.345892
85.036500	0.278825	0.156328	0.309451	0.426507	5681.013014	24107.942496	3639.536912	10213.025385
85.537500	0.279607	0.156537	0.310344	0.426911	5683.613974	24098.329042	3640.629419	10206.029803
86.037500	0.270168	0.153782	0.309717	0.430485	5595.491183	23789.089846	3631.281654	10144.390866
86.535000	0.270773	0.155424	0.311414	0.431609	5592.026613	23814.194665	3632.550635	10125.098323
87.034500	0.278842	0.156770	0.314238	0.426745	5679.499188	24118.012820	3649.750513	10208.905241
87.538500	0.280070	0.157826	0.310305	0.426879	5687.014165	24163.467962	3640.613117	10206.580399
88.036000	0.276489	0.158273	0.308054	0.432100	5627.052957	23929.046381	3624.048789	10116.695873
88.536000	0.281613	0.158830	0.308273	0.426462	5700.529106	24233.712211	3637.007435	10213.799268
89.038500	0.282794	0.160312	0.315717	0.427194	5703.635267	24270.903835	3652.076765	10201.117155
89.536000	0.281714	0.159980	0.313132	0.426310	5702.278264	24298.270023	3648.234566	10216.430180
90.036500	0.281413	0.160803	0.312668	0.432537	5657.464353	24031.485874	3633.273270	10109.212957
90.536500	0.282456	0.160496	0.315696	0.431098	5674.425435	24087.095111	3643.238028	10133.865384
91.035000	0.283087	0.161380	0.309886	0.426066	5713.483063	24380.130841	3641.494049	10220.668600
91.535000	0.286132	0.161634	0.316679	0.425667	5737.488950	24412.723885	3657.724861	10227.594366
92.035500	0.285082	0.162091	0.319205	0.425524	5731.148610	24442.723331	3663.815781	10230.073129
92.535500	0.285044	0.163575	0.309891	0.432052	5685.648169	24191.914700	3628.199941	10117.520233
93.035500	0.287397	0.163220	0.315880	0.425555	5747.143460	24497.716561	3656.161954	10229.545124
93.539000	0.284648	0.163978	0.317295	0.425133	5730.857644	24556.981507	3660.345262	10236.886149
94.036500	0.287479	0.162971	0.316142	0.423466	5762.425396	24590.180250	3661.517933	10265.921928
94.537000	0.287243	0.164271	0.312246	0.430465	5711.797592	24305.046988	3636.942591	10144.727319
95.037500	0.289995	0.165186	0.316976	0.424313	5774.220824	24659.172799	3661.487877	10251.151046
95.538000	0.289750	0.164902	0.317636	0.423968	5774.931663	24662.266992	3663.787689	10257.166781
96.035000	0.289898	0.163855	0.312443	0.422918	5783.425766	24662.390718	3654.347279	10275.492049
96.535000	0.291169	0.164910	0.319428	0.428789	5750.919847	24420.405159	3656.874587	10173.566338
97.035500	0.289653	0.165247	0.317828	0.422762	5782.792400	24740.744582	3666.992841	10278.219700
97.536000	0.291029	0.166062	0.317377	0.422933	5791.366890	24773.408233	3665.563667	10275.229956
