sample name	sample
index	1253
start time	 04-29-2021  12:54:39 PM


Wavelength (nm)	Absorbance
494.344910	-0.034109
494.563924	-0.034109
494.782919	-0.034109
495.001897	-0.085154
495.220856	0.165252
495.439797	0.161711
495.658719	0.212517
495.877624	0.276943
496.096510	0.430224
496.315378	0.257826
496.534227	0.216868
496.753059	0.190638
496.971872	0.134888
497.190667	0.118389
497.409444	0.107754
497.628203	0.107265
497.846943	0.106789
498.065665	0.108160
498.284369	0.107025
498.503055	0.106371
498.721723	0.106109
498.940372	0.106566
499.159003	0.105965
499.377616	0.107638
499.596210	0.107318
499.814787	0.107639
500.033345	0.106025
500.251885	0.106786
500.470406	0.107512
500.688910	0.107847
500.907395	0.108313
501.125862	0.108821
501.344311	0.108149
501.562742	0.109550
501.781154	0.108473
501.999548	0.110262
502.217924	0.109491
502.436282	0.108436
502.654621	0.108520
502.872942	0.108611
503.091245	0.108349
503.309530	0.108531
503.527797	0.107150
503.746045	0.107929
503.964275	0.106461
504.182487	0.106428
504.400681	0.106726
504.618856	0.106877
504.837013	0.105706
505.055152	0.104960
505.273273	0.104193
505.491376	0.103964
505.709460	0.103848
505.927526	0.104083
506.145574	0.105548
506.363604	0.106652
506.581615	0.106608
506.799608	0.106664
507.017583	0.107849
507.235540	0.108733
507.453478	0.108601
507.671399	0.108177
507.889301	0.109290
508.107185	0.108023
508.325050	0.106873
508.542898	0.107531
508.760727	0.107668
508.978538	0.107155
509.196330	0.106922
509.414105	0.107610
509.631861	0.107363
509.849599	0.105685
510.067319	0.106014
510.285021	0.106247
510.502704	0.104752
510.720369	0.104488
510.938016	0.105310
511.155645	0.104879
511.373255	0.105028
511.590848	0.105760
511.808422	0.106658
512.025977	0.107237
512.243515	0.107916
512.461034	0.108060
512.678536	0.107904
512.896018	0.107751
513.113483	0.107888
513.330930	0.107813
513.548358	0.108492
513.765768	0.108824
513.983160	0.109338
514.200533	0.108741
514.417889	0.110613
514.635226	0.111222
514.852545	0.111540
515.069845	0.111825
515.287128	0.112358
515.504392	0.111497
515.721638	0.111763
515.938866	0.111669
516.156075	0.113230
516.373267	0.112056
516.590440	0.112457
516.807594	0.112542
517.024731	0.112934
517.241850	0.113096
517.458950	0.113760
517.676032	0.113594
517.893095	0.112726
518.110141	0.112215
518.327168	0.112436
518.544177	0.112783
518.761168	0.112454
518.978141	0.112322
519.195095	0.111944
519.412031	0.111967
519.628949	0.111456
519.845849	0.111937
520.062731	0.112028
520.279594	0.112062
520.496439	0.111871
520.713266	0.112264
520.930074	0.112346
521.146865	0.113067
521.363637	0.113283
521.580391	0.113510
521.797127	0.113690
522.013844	0.113554
522.230543	0.114478
522.447224	0.114502
522.663887	0.115036
522.880532	0.115626
523.097158	0.115507
523.313766	0.115040
523.530356	0.115359
523.746928	0.115276
523.963481	0.115576
524.180017	0.115275
524.396534	0.115527
524.613032	0.115541
524.829513	0.115361
525.045975	0.115532
525.262420	0.116397
525.478845	0.115987
525.695253	0.116069
525.911643	0.115619
526.128014	0.115693
526.344367	0.116303
526.560702	0.115763
526.777018	0.116090
526.993316	0.115545
527.209597	0.115976
527.425858	0.116791
527.642102	0.117237
527.858328	0.117221
528.074535	0.116538
528.290724	0.115547
528.506894	0.116002
528.723047	0.115928
528.939181	0.116269
529.155297	0.116239
529.371395	0.116180
529.587475	0.115688
529.803536	0.116658
530.019579	0.117557
530.235604	0.118397
530.451611	0.118375
530.667600	0.117919
530.883570	0.117421
531.099522	0.117008
531.315456	0.117304
531.531372	0.117811
531.747269	0.118046
531.963148	0.118283
532.179009	0.118992
532.394852	0.119686
532.610676	0.121262
532.826482	0.122419
533.042271	0.122984
533.258040	0.123260
533.473792	0.123671
533.689525	0.123212
533.905240	0.123642
534.120937	0.122702
534.336616	0.122683
534.552277	0.121893
534.767919	0.121904
534.983543	0.121688
535.199149	0.121896
535.414736	0.121981
535.630306	0.121948
535.845857	0.121563
536.061390	0.121744
536.276904	0.121296
536.492401	0.121797
536.707879	0.121753
536.923339	0.121989
537.138781	0.121531
537.354204	0.121578
537.569610	0.122495
537.784997	0.122592
538.000366	0.122990
538.215716	0.123695
538.431049	0.123762
538.646363	0.124134
538.861659	0.124325
539.076937	0.125077
539.292196	0.125013
539.507438	0.124595
539.722661	0.125263
539.937866	0.125229
540.153052	0.125318
540.368221	0.124847
540.583371	0.125080
540.798503	0.125440
541.013617	0.125253
541.228712	0.125828
541.443789	0.125858
541.658848	0.125556
541.873889	0.126124
542.088912	0.126657
542.303916	0.127462
542.518902	0.127589
542.733870	0.128012
542.948820	0.127932
543.163752	0.127598
543.378665	0.127920
543.593560	0.128751
543.808437	0.129055
544.023295	0.129277
544.238136	0.129469
544.452958	0.129651
544.667762	0.129096
544.882548	0.129486
545.097315	0.130230
545.312064	0.130172
545.526795	0.130188
545.741508	0.130041
545.956203	0.129662
546.170879	0.129653
546.385537	0.129873
546.600177	0.130267
546.814799	0.130394
547.029402	0.129947
547.243988	0.130280
547.458555	0.130528
547.673103	0.130720
547.887634	0.130924
548.102146	0.131190
548.316640	0.131070
548.531116	0.131276
548.745574	0.131242
548.960013	0.131533
549.174435	0.131664
549.388838	0.131308
549.603222	0.131169
549.817589	0.131020
550.031937	0.130976
550.246267	0.130953
550.460579	0.130416
550.674873	0.130339
550.889148	0.130224
551.103405	0.129845
551.317644	0.129841
551.531865	0.130208
551.746068	0.130324
551.960252	0.130650
552.174418	0.130689
552.388566	0.131163
552.602696	0.131796
552.816807	0.132032
553.030900	0.132850
553.244975	0.133221
553.459032	0.132876
553.673070	0.133083
553.887091	0.133007
554.101093	0.133311
554.315077	0.133565
554.529042	0.133380
554.742990	0.133317
554.956919	0.132997
555.170830	0.133086
555.384722	0.133444
555.598597	0.133554
555.812453	0.133814
556.026291	0.133601
556.240111	0.133605
556.453913	0.134501
556.667696	0.134898
556.881461	0.135179
557.095208	0.135421
557.308937	0.135378
557.522647	0.135689
557.736339	0.135853
557.950013	0.136224
558.163669	0.136427
558.377307	0.136182
558.590926	0.136529
558.804527	0.137032
559.018110	0.136697
559.231675	0.137062
559.445221	0.137309
559.658749	0.136942
559.872259	0.137265
560.085751	0.137445
560.299225	0.137207
560.512680	0.137222
560.726117	0.137170
560.939536	0.137564
561.152937	0.138122
561.366319	0.137988
561.579683	0.138169
561.793029	0.138156
562.006357	0.137676
562.219667	0.137818
562.432958	0.137643
562.646231	0.137539
562.859486	0.137282
563.072723	0.136742
563.285941	0.136796
563.499141	0.136860
563.712323	0.136673
563.925487	0.137312
564.138632	0.137415
564.351760	0.137663
564.564869	0.137623
564.777960	0.138053
564.991032	0.138284
565.204087	0.138347
565.417123	0.138186
565.630141	0.138179
565.843140	0.138117
566.056122	0.138096
566.269085	0.137849
566.482030	0.137887
566.694957	0.137961
566.907866	0.138089
567.120756	0.137934
567.333628	0.138624
567.546482	0.138944
567.759318	0.139112
567.972135	0.139572
568.184935	0.139479
568.397716	0.139495
568.610478	0.139586
568.823223	0.139412
569.035949	0.139784
569.248657	0.139438
569.461347	0.139268
569.674019	0.139214
569.886672	0.139166
570.099308	0.139798
570.311925	0.140123
570.524523	0.140282
570.737104	0.140298
570.949666	0.140061
571.162210	0.140195
571.374736	0.140642
571.587244	0.140719
571.799733	0.140455
572.012205	0.140478
572.224658	0.140391
572.437092	0.140526
572.649509	0.140588
572.861907	0.141006
573.074287	0.141191
573.286649	0.141341
573.498993	0.141369
573.711318	0.141549
573.923625	0.141658
574.135914	0.141767
574.348185	0.141244
574.560438	0.141649
574.772672	0.141692
574.984888	0.141831
575.197086	0.141686
575.409266	0.141979
575.621427	0.142180
575.833570	0.141898
576.045695	0.141637
576.257802	0.141849
576.469890	0.141575
576.681961	0.141364
576.894013	0.141343
577.106046	0.141533
577.318062	0.141469
577.530059	0.141212
577.742039	0.141389
577.954000	0.141463
578.165942	0.141630
578.377867	0.141922
578.589773	0.142389
578.801661	0.142309
579.013531	0.142016
579.225382	0.142049
579.437216	0.142358
579.649031	0.142646
579.860828	0.142959
580.072606	0.142864
580.284367	0.142821
580.496109	0.142544
580.707833	0.143003
580.919539	0.143248
581.131227	0.143055
581.342896	0.142779
581.554547	0.142744
581.766180	0.142963
581.977795	0.142993
582.189391	0.143367
582.400969	0.143613
582.612529	0.143189
582.824071	0.143404
583.035595	0.143751
583.247100	0.144180
583.458587	0.144266
583.670056	0.144182
583.881506	0.144408
584.092939	0.144111
584.304353	0.143874
584.515749	0.144192
584.727127	0.144103
584.938486	0.144129
585.149828	0.144006
585.361151	0.144157
585.572456	0.144399
585.783742	0.144540
585.995011	0.144745
586.206261	0.145058
586.417493	0.144981
586.628706	0.144972
586.839902	0.144799
587.051079	0.144676
587.262238	0.144580
587.473379	0.144737
587.684502	0.144547
587.895606	0.144369
588.106692	0.144447
588.317760	0.144450
588.528810	0.144632
588.739841	0.144706
588.950855	0.145022
589.161850	0.145172
589.372827	0.145373
589.583785	0.145330
589.794726	0.145425
590.005648	0.145512
590.216552	0.145727
590.427437	0.145458
590.638305	0.145719
590.849154	0.145738
591.059985	0.146004
591.270798	0.145827
591.481592	0.145664
591.692369	0.145587
591.903127	0.145540
592.113867	0.145429
592.324588	0.145858
592.535292	0.146035
592.745977	0.146374
592.956644	0.146431
593.167293	0.146543
593.377923	0.146926
593.588536	0.147395
593.799130	0.147038
594.009706	0.146959
594.220263	0.147067
594.430803	0.146697
594.641324	0.146341
594.851827	0.146169
595.062312	0.145780
595.272778	0.145959
595.483227	0.145952
595.693657	0.146460
595.904069	0.146820
596.114462	0.146671
596.324838	0.147183
596.535195	0.147415
596.745534	0.147544
596.955855	0.148210
597.166157	0.148483
597.376441	0.148695
597.586707	0.149041
597.796955	0.149123
598.007185	0.149318
598.217396	0.149110
598.427589	0.149480
598.637764	0.149237
598.847921	0.148905
599.058060	0.148994
599.268180	0.149116
599.478282	0.149106
599.688366	0.149252
599.898431	0.149442
600.108479	0.149523
600.318508	0.149583
600.528519	0.149846
600.738511	0.149939
600.948486	0.149833
601.158442	0.149613
601.368380	0.149466
601.578300	0.149478
601.788202	0.149295
601.998085	0.149485
602.207950	0.149466
602.417797	0.149595
602.627626	0.149595
602.837436	0.149822
603.047228	0.150133
603.257002	0.150080
603.466758	0.150356
603.676496	0.150463
603.886215	0.150707
604.095916	0.150426
604.305599	0.150388
604.515264	0.150520
604.724910	0.150615
604.934538	0.150774
605.144148	0.150936
605.353740	0.150848
605.563314	0.151030
605.772869	0.151198
605.982406	0.151509
606.191925	0.151648
606.401425	0.151811
606.610908	0.151619
606.820372	0.151509
607.029818	0.152002
607.239246	0.152109
607.448655	0.152179
607.658047	0.152010
607.867420	0.151999
608.076775	0.151973
608.286111	0.151912
608.495430	0.152203
608.704730	0.152137
608.914012	0.152072
609.123275	0.151980
609.332521	0.152091
609.541748	0.152316
609.750957	0.152563
609.960148	0.152839
610.169321	0.153063
610.378475	0.152977
610.587611	0.153225
610.796729	0.153235
611.005829	0.153185
611.214910	0.153073
611.423974	0.153089
611.633019	0.152977
611.842045	0.152844
612.051054	0.153065
612.260044	0.153302
612.469017	0.153433
612.677970	0.153235
612.886906	0.153333
613.095824	0.153534
613.304723	0.153387
613.513604	0.153670
613.722467	0.154115
613.931311	0.153763
614.140138	0.153897
614.348946	0.153482
614.557736	0.153535
614.766507	0.153632
614.975261	0.153337
615.183996	0.153585
615.392713	0.153288
615.601412	0.153115
615.810092	0.153239
616.018754	0.153075
616.227399	0.153448
616.436024	0.153444
616.644632	0.153498
616.853222	0.153563
617.061793	0.153403
617.270346	0.153652
617.478880	0.153679
617.687397	0.153654
617.895895	0.153622
618.104375	0.153363
618.312837	0.153373
618.521281	0.153448
618.729706	0.153825
618.938113	0.153903
619.146502	0.153872
619.354873	0.153644
619.563226	0.153858
619.771560	0.153641
619.979876	0.153723
620.188174	0.153700
620.396453	0.153690
620.604715	0.153444
620.812958	0.153539
621.021183	0.153473
621.229390	0.153567
621.437578	0.153638
621.645748	0.154018
621.853900	0.154469
622.062034	0.154592
622.270150	0.154668
622.478247	0.154927
622.686326	0.155074
622.894387	0.155102
623.102430	0.155240
623.310454	0.155319
623.518461	0.155285
623.726449	0.155222
623.934418	0.155273
624.142370	0.155582
624.350303	0.155724
624.558218	0.155778
624.766115	0.155920
624.973994	0.156234
625.181855	0.156286
625.389697	0.156614
625.597521	0.156592
625.805327	0.156985
626.013114	0.156555
626.220883	0.156690
626.428634	0.156748
626.636367	0.157005
626.844082	0.157151
627.051778	0.157129
627.259457	0.156866
627.467117	0.157021
627.674758	0.157034
627.882382	0.157469
628.089987	0.157534
628.297574	0.157532
628.505143	0.157560
628.712694	0.157393
628.920226	0.157528
629.127740	0.157593
629.335236	0.157503
629.542714	0.157579
629.750174	0.157602
629.957615	0.157386
630.165038	0.157484
630.372443	0.157376
630.579829	0.157242
630.787198	0.157132
630.994548	0.157392
631.201880	0.157640
631.409194	0.157652
631.616489	0.157713
631.823766	0.157919
632.031025	0.158023
632.238266	0.157923
632.445489	0.157999
632.652693	0.158303
632.859879	0.158204
633.067047	0.158086
633.274197	0.157925
633.481329	0.157685
633.688442	0.157699
633.895537	0.157630
634.102614	0.158165
634.309672	0.158453
634.516713	0.158510
634.723735	0.158700
634.930739	0.158842
635.137724	0.159212
635.344692	0.159705
635.551641	0.159714
635.758572	0.159882
635.965485	0.159673
636.172379	0.159658
636.379256	0.159382
636.586114	0.159422
636.792954	0.159560
636.999775	0.159434
637.206579	0.159194
637.413364	0.159167
637.620131	0.159201
637.826880	0.159427
638.033610	0.159859
638.240323	0.160290
638.447017	0.160418
638.653692	0.160406
638.860350	0.160720
639.066990	0.160972
639.273611	0.161225
639.480214	0.161328
639.686798	0.161303
639.893365	0.161019
640.099913	0.161182
640.306443	0.161216
640.512955	0.161578
640.719449	0.161396
640.925924	0.161414
641.132381	0.161590
641.338820	0.161959
641.545241	0.162278
641.751644	0.162343
641.958028	0.162124
642.164394	0.162342
642.370742	0.162153
642.577071	0.162486
642.783383	0.162368
642.989676	0.162440
643.195951	0.162325
643.402207	0.162419
643.608446	0.162390
643.814666	0.162655
644.020868	0.162739
644.227052	0.162976
644.433218	0.162965
644.639365	0.163203
644.845494	0.163255
645.051605	0.163373
645.257698	0.163117
645.463772	0.163584
645.669828	0.163714
645.875866	0.163860
646.081886	0.163677
646.287888	0.163752
646.493871	0.163954
646.699836	0.164116
646.905783	0.164173
647.111712	0.164377
647.317622	0.164190
647.523514	0.164377
647.729388	0.164313
647.935244	0.164444
648.141082	0.164520
648.346901	0.164672
648.552702	0.164670
648.758485	0.164838
648.964250	0.164891
649.169996	0.165235
649.375724	0.164901
649.581434	0.164821
649.787126	0.165038
649.992800	0.165103
650.198455	0.165042
650.404092	0.164975
650.609711	0.164908
650.815311	0.164951
651.020894	0.164710
651.226458	0.164978
651.432004	0.165229
651.637532	0.165275
651.843041	0.165165
652.048532	0.165384
652.254006	0.165459
652.459460	0.165669
652.664897	0.165646
652.870315	0.165887
653.075716	0.166183
653.281097	0.166166
653.486461	0.166260
653.691807	0.166561
653.897134	0.166609
654.102443	0.166732
654.307734	0.166666
654.513006	0.166980
654.718261	0.167048
654.923497	0.166954
655.128715	0.167148
655.333915	0.167238
655.539096	0.167250
655.744259	0.167331
655.949404	0.167634
656.154531	0.167935
656.359640	0.168024
656.564730	0.168258
656.769802	0.168535
656.974856	0.168650
657.179892	0.169074
657.384909	0.169157
657.589908	0.169127
657.794889	0.169137
657.999852	0.169093
658.204797	0.169221
658.409723	0.169319
658.614631	0.169356
658.819521	0.169531
659.024393	0.169043
659.229246	0.169193
659.434081	0.169613
659.638898	0.169743
659.843697	0.169892
660.048478	0.170077
660.253240	0.169997
660.457984	0.170187
660.662710	0.170200
660.867417	0.170553
661.072107	0.170613
661.276778	0.170525
661.481431	0.170557
661.686066	0.170360
661.890682	0.170286
662.095281	0.170389
662.299861	0.170372
662.504422	0.170421
662.708966	0.170596
662.913491	0.170893
663.117999	0.170733
663.322488	0.170947
663.526958	0.171237
663.731411	0.171402
663.935845	0.171313
664.140261	0.171217
664.344659	0.171076
664.549038	0.170941
664.753400	0.170761
664.957743	0.170866
665.162068	0.170796
665.366375	0.170727
665.570663	0.170927
665.774933	0.171401
665.979185	0.171552
666.183419	0.172073
666.387635	0.172572
666.591832	0.172678
666.796011	0.173128
667.000172	0.173299
667.204315	0.173439
667.408439	0.173379
667.612545	0.173475
667.816634	0.173693
668.020703	0.173921
668.224755	0.173961
668.428788	0.174381
668.632803	0.174650
668.836800	0.174895
669.040779	0.175337
669.244739	0.175482
669.448681	0.175591
669.652605	0.175923
669.856511	0.175745
670.060399	0.175782
670.264268	0.175825
670.468119	0.175776
670.671952	0.175850
670.875767	0.175956
671.079563	0.176075
671.283341	0.176069
671.487101	0.176084
671.690843	0.176397
671.894567	0.176343
672.098272	0.176354
672.301959	0.176396
672.505628	0.176312
672.709278	0.176352
672.912911	0.176313
673.116525	0.176274
673.320121	0.176273
673.523699	0.176151
673.727258	0.176420
673.930799	0.176430
674.134322	0.176447
674.337827	0.176358
674.541314	0.176237
674.744782	0.176618
674.948232	0.176707
675.151664	0.176757
675.355078	0.176726
675.558474	0.176789
675.761851	0.177222
675.965210	0.177289
676.168551	0.177560
676.371873	0.177793
676.575178	0.177646
676.778464	0.177957
676.981732	0.178141
677.184981	0.178220
677.388213	0.178226
677.591426	0.178066
677.794621	0.178111
677.997798	0.178211
678.200956	0.178358
678.404097	0.178682
678.607219	0.178710
678.810323	0.178642
679.013408	0.178818
679.216476	0.179052
679.419525	0.178945
679.622556	0.178916
679.825569	0.179266
680.028563	0.179450
680.231540	0.179271
680.434498	0.179465
680.637438	0.179696
680.840359	0.179957
681.043263	0.179864
681.246148	0.180066
681.449015	0.180308
681.651864	0.180040
681.854694	0.179728
682.057506	0.179985
682.260301	0.179945
682.463076	0.179878
682.665834	0.179943
682.868573	0.180075
683.071295	0.180157
683.273998	0.180117
683.476682	0.180270
683.679349	0.180400
683.881997	0.180468
684.084627	0.180614
684.287239	0.180600
684.489833	0.180515
684.692408	0.180574
684.894965	0.180669
685.097504	0.181092
685.300025	0.181257
685.502527	0.181623
685.705012	0.181709
685.907478	0.181580
686.109925	0.181771
686.312355	0.182081
686.514766	0.182215
686.717159	0.182447
686.919534	0.182420
687.121891	0.182651
687.324230	0.182735
687.526550	0.182868
687.728852	0.183149
687.931136	0.183173
688.133401	0.183124
688.335649	0.183189
688.537878	0.183086
688.740089	0.183130
688.942281	0.183126
689.144456	0.183156
689.346612	0.183068
689.548750	0.183095
689.750870	0.183389
689.952971	0.183404
690.155055	0.183601
690.357120	0.183792
690.559167	0.183869
690.761195	0.183832
690.963206	0.183926
691.165198	0.184179
691.367172	0.184216
691.569128	0.183976
691.771065	0.184230
691.972984	0.184174
692.174885	0.184274
692.376768	0.184357
692.578633	0.184640
692.780479	0.184667
692.982308	0.184602
693.184118	0.184585
693.385909	0.184936
