sample name	sample
index	396
start time	 03-08-2021  10:09:42 AM
880	0.456064
Peak Time (s)	92.535
Peak Height 	0.4561
calc peak height	90,93
Baseline Time (s)	9.037
Baseline Value 	-0.006639
subtract baseline	10,4
Abs	0.319548
Peak Time (s)	91.037
Peak Height 	0.3195
calc peak height	90,93
Baseline Time (s)	9.537
Baseline Value 	0.004081
subtract baseline	10,3
PK_550	0.154734
Peak Time (s)	91.538
Peak Height 	0.1547
calc peak height	90,93
Baseline Time (s)	8.536
Baseline Value 	5.9504E-4
subtract baseline	10,2
PK_880	0.292246
Peak Time (s)	91.037
Peak Height 	0.2922
calc peak height	90,93
Baseline Time (s)	8.536
Baseline Value 	0.004143
subtract baseline	10,1


Time (s)	A880-A510	A880-A775	A880-A975	A880	I510	I775	I975	I880	
0.036500	0.000232	0.000245	-0.002733	0.001085	6982.157127	48003.490553	3916.513610	25034.858069
0.537000	-0.003697	-0.000723	-0.004663	0.004505	6910.122272	47548.338924	3901.137204	24859.524861
1.037500	-0.003448	0.000174	-0.003895	0.006787	6890.423616	47405.762918	3896.821747	24743.349140
1.534500	0.000284	-0.000006	-0.002961	-0.000053	6993.925183	48096.025928	3919.147454	25093.497364
2.035000	-0.000847	-0.000477	0.003027	-0.000816	6990.285658	48126.543786	3938.863521	25132.920796
2.535500	-0.000368	-0.000400	0.001084	-0.000388	6990.783448	48089.825657	3931.904528	25110.783258
3.038500	-0.003232	-0.000131	-0.000546	0.002458	6934.618785	47821.620545	3918.870519	24964.334550
3.539000	-0.003346	-0.000471	-0.004641	0.000450	6953.157824	47995.025416	3912.836697	25067.545576
4.039000	-0.001340	-0.000807	-0.003564	0.000185	6975.507738	47987.553597	3916.712791	25081.193520
4.535500	-0.001294	-0.000547	-0.000054	0.000620	6971.681745	47969.424377	3925.638320	25058.812387
5.036500	-0.003590	-0.000244	-0.002585	0.000291	6952.327071	48035.290268	3919.240099	25075.742878
5.537000	-0.001221	-0.000772	-0.003777	-0.000166	6980.160828	48027.918920	3917.112271	25099.334935
6.037500	0.001524	0.000749	0.004909	0.001004	6995.740054	48064.502484	3939.043698	25039.009619
6.535000	-0.001587	-0.000378	-0.000851	-0.000001	6974.907030	48051.698778	3925.125763	25090.804999
7.035500	0.000399	0.000393	0.000585	0.000676	6987.849623	48061.583505	3927.334961	25055.894689
7.535500	0.000115	0.001140	0.006226	0.001201	6979.855681	48084.795128	3942.346074	25028.893682
8.036000	0.000343	0.000466	-0.000612	0.000158	6992.425488	48123.245667	3925.356720	25082.598165
8.536000	0.000000	0.000000	-0.000038	0.000039	6990.206555	48087.060526	3927.377857	25088.759366
9.036500	0.000170	-0.000045	-0.002504	0.000000	6992.278893	48086.449846	3920.317870	25090.761533
9.536500	-0.001709	0.000864	0.000000	0.000921	6964.627651	48085.223049	3924.918853	25043.303388
10.037000	0.000685	0.000551	0.000253	0.000472	6992.706079	48099.325182	3926.964176	25066.427510
10.537000	0.000729	-0.000359	-0.001693	-0.000378	7001.570004	48093.132493	3923.772554	25110.285422
11.034500	-0.001988	-0.000043	0.000530	-0.000183	6972.754353	48105.782608	3929.684881	25100.212866
11.535000	-0.001231	0.000350	0.001983	-0.000027	6978.686332	48130.548459	3933.480879	25092.164734
12.035000	-0.000106	-0.000294	-0.001050	-0.000392	6993.429023	48101.442428	3925.685193	25111.017137
12.536000	-0.000382	0.000137	-0.001253	-0.000120	6988.001603	48117.997479	3924.301481	25096.958295
13.036000	0.001184	0.000617	0.004211	-0.000872	7011.000546	48246.866477	3942.519106	25135.810975
13.539000	0.003117	0.001049	0.001065	-0.001324	7034.802574	48339.601164	3934.592321	25159.192914
14.049000	0.002617	0.000055	0.001975	-0.001990	7036.454496	48305.162550	3939.221086	25193.643598
14.536500	-0.001511	-0.000157	-0.004053	0.001557	6960.318443	47912.454327	3911.342611	25010.582283
15.037000	0.000678	0.000915	0.001526	0.000081	6996.506774	48178.261363	3931.824432	25086.590554
15.540000	0.003411	0.000437	0.003372	-0.001396	7038.460479	48282.987531	3941.588289	25162.908744
16.035000	0.000905	0.001047	0.006164	-0.001292	7012.405327	48336.064200	3949.541894	25157.514025
16.535500	-0.001195	0.000205	0.002322	-0.001933	6997.907998	48314.990495	3940.075491	25190.711970
17.036000	-0.001604	0.000118	-0.000905	-0.001843	6992.958951	48296.363115	3930.342361	25186.052541
17.535500	-0.000198	-0.000178	-0.000749	-0.002114	7009.604955	48293.741227	3931.588362	25200.069933
18.035500	0.000268	0.000238	0.003959	-0.001390	7007.041002	48261.432182	3943.303107	25162.571695
18.540000	-0.003567	-0.001131	-0.002733	-0.000567	6960.976860	48032.259979	3921.299710	25120.018948
19.037000	-0.000812	-0.000053	0.006046	0.000728	6975.364206	48009.625307	3943.209499	25053.213330
19.537000	-0.002527	0.000382	0.001902	0.000921	6956.572937	48034.780554	3930.465956	25043.281759
20.037500	0.000434	0.000985	0.001478	0.001491	6980.140225	48038.341962	3927.564489	25013.990806
20.538000	-0.000206	0.000230	-0.001421	0.000808	6980.559801	48030.821712	3921.116762	25049.106934
21.038500	-0.000987	0.000581	0.001974	0.001503	6965.999822	47994.947760	3928.976982	25013.350001
21.538000	-0.001752	0.000629	0.003818	0.001467	6958.825221	48003.665199	3934.480293	25015.204380
22.035000	-0.001200	-0.000214	0.004671	0.000677	6972.036250	47998.096721	3939.306655	25055.852813
22.536000	-0.001310	0.000536	-0.000550	0.000881	6968.947629	48055.050896	3923.435577	25045.347937
23.039000	-0.002342	-0.000023	0.000674	0.000459	6962.941488	48040.823883	3928.228957	25067.101616
23.539000	-0.001474	0.000477	0.002610	0.000871	6967.427776	48050.020934	3932.685448	25045.872665
24.037000	-0.000359	0.001277	0.001209	0.001845	6968.816944	48031.753744	3925.745751	24995.757136
24.537500	-0.001213	-0.000500	0.002657	0.000573	6972.936275	47979.135995	3933.694106	25061.197902
25.037000	-0.001274	0.000798	0.002223	0.001511	6963.103548	48016.774602	3929.683452	25012.959916
25.535000	0.000327	0.000860	0.000775	0.001258	6981.380377	48049.589773	3926.196097	25025.969844
26.035000	-0.002661	-0.000196	0.000848	0.000397	6960.411726	48029.212221	3928.920332	25070.300966
26.535500	-0.001077	0.000583	0.002470	0.001635	6963.820909	47981.417103	3930.041912	25006.577675
27.036000	-0.001691	0.000296	0.000177	0.001033	6963.703268	48014.225847	3925.109530	25037.540963
27.536000	0.000793	0.000843	-0.001003	0.001491	6983.689431	48023.560374	3920.347410	25013.979769
28.036500	-0.000192	-0.000858	0.001143	-0.001843	7006.972769	48194.180484	3936.345009	25186.067342
28.538000	0.000253	0.000174	0.003330	-0.001909	7012.054923	48309.133001	3942.978387	25189.468800
29.037500	-0.000027	0.000390	-0.002626	-0.000195	6992.250137	48152.236708	3920.530203	25100.808915
29.534500	0.000943	0.001207	0.000703	-0.001001	7009.885546	48322.298140	3932.581546	25142.456265
30.035000	0.000372	0.000606	-0.001554	-0.000934	7003.552716	48252.227697	3925.796773	25139.019912
30.535500	-0.002189	0.000187	-0.002376	0.003860	6931.101348	47709.136289	3909.539211	24892.485796
31.035500	-0.000995	0.000089	0.003481	-0.000212	6982.839013	48122.552461	3938.422573	25101.702341
31.563500	0.000629	0.000675	0.004824	-0.001403	7010.754295	48308.646175	3945.896465	25163.241317
32.036500	-0.000805	-0.000156	-0.002720	0.002454	6958.435339	47819.317629	3912.597478	24964.503541
32.540500	-0.000452	-0.000222	-0.002129	0.004466	6942.160738	47604.092926	3908.507262	24861.516198
33.045000	0.002356	0.000313	0.001673	-0.001516	7029.107558	48282.567063	3936.940210	25169.109928
33.537000	0.002098	-0.000468	0.001695	-0.002066	7032.026165	48258.376807	3938.621444	25197.624768
34.037000	0.000754	-0.000256	-0.000635	-0.002045	7018.395954	48278.266891	3931.719617	25196.489617
34.537500	-0.000243	0.000007	0.001552	0.003386	6954.796653	47739.585629	3922.263887	24916.748414
35.035000	-0.002233	0.000828	0.005810	0.002252	6946.405468	47942.693405	3938.024901	24974.894532
35.538000	-0.000042	0.001200	0.003762	0.002629	6964.221563	47942.200317	3930.911500	24955.555222
36.035500	-0.000893	0.000066	-0.000201	0.001604	6965.934010	47930.776926	3922.346754	25008.152730
36.536000	-0.002188	-0.000452	-0.001674	0.002341	6945.974181	47800.411872	3915.944402	24970.324745
37.039000	-0.000139	0.000686	0.003498	0.001987	6969.595671	47955.474460	3932.017966	24988.506350
37.536000	0.000464	0.000762	0.004143	0.002024	6975.166819	47959.461849	3933.798387	24986.581071
38.036500	-0.000328	0.000798	0.004191	0.001744	6970.120932	47992.417206	3934.762186	25000.965535
38.537000	-0.001547	0.000436	0.002803	0.002448	6951.208809	47881.474051	3928.637302	24964.824023
39.037000	0.000475	0.000188	0.001416	0.001814	6977.345040	47921.637480	3926.440430	24997.365277
39.535000	-0.000610	0.000081	-0.002203	0.001516	6969.584949	47941.556550	3916.798515	25012.688498
40.035000	0.000185	-0.000323	0.000361	0.001471	6977.868869	47904.068860	3924.366171	25014.978291
40.538000	-0.001771	0.000474	-0.001798	0.002527	6948.245438	47877.284970	3915.050853	24960.793248
41.035500	-0.002212	0.000235	0.001053	0.001751	6951.526357	47933.099800	3925.567468	25000.606856
41.536000	-0.000516	0.000295	0.008419	0.001918	6966.555173	47921.970039	3946.709093	24992.033484
42.063500	0.000098	0.001130	0.001045	0.002349	6968.361744	47964.002951	3923.804486	24969.919981
42.536500	-0.000863	0.000993	0.001891	0.003103	6951.497799	47871.333853	3924.073761	24931.267966
43.037000	-0.001204	0.000385	-0.001618	0.001516	6963.738200	47973.148806	3918.493503	25012.677400
43.537000	0.000233	0.000786	0.005181	0.001871	6974.405336	47978.002472	3937.294607	24994.458043
44.034500	-0.001211	0.000486	0.001066	0.001855	6960.331635	47948.356020	3925.302617	24995.258971
44.538000	0.000516	0.000957	-0.000274	0.002281	6973.143790	47953.049614	3920.170693	24973.376606
45.090000	0.001837	0.000387	0.007160	-0.002574	7034.499157	48401.315474	3956.318628	25223.939304
45.535500	0.001656	0.000459	-0.000218	-0.001020	7017.175664	48245.855361	3929.945222	25143.457681
46.038500	0.001766	-0.000072	0.002441	-0.001609	7024.144034	48251.886697	3939.471270	25173.915129
46.538500	-0.002817	0.000193	0.000540	0.004727	6916.522149	47620.098766	3915.446201	24848.200979
47.048500	0.000490	0.000563	0.000532	0.001177	6983.788199	48027.064232	3925.723218	25030.117124
47.536500	0.000618	-0.000328	0.002841	-0.001493	7011.544780	48212.914762	3940.307275	25167.916266
48.210000	-0.000303	0.001120	0.002977	0.002383	6964.077241	47959.478658	3929.337765	24968.172476
48.537500	-0.000910	0.000958	0.001974	0.005647	6926.142567	47604.043414	3916.933299	24801.305217
49.037500	-0.003434	0.000165	0.007424	0.002585	6931.396909	47839.101328	3941.796180	24957.785785
49.535500	-0.000088	0.000524	0.003029	-0.000757	6997.228978	48225.086291	3938.697632	25129.871281
50.038500	0.001436	0.000970	0.003541	-0.000759	7012.387145	48272.079402	3940.209380	25129.960503
50.534500	-0.001681	0.000846	-0.000230	0.004196	6932.786374	47742.636957	3914.757995	24875.343932
51.035500	0.000369	0.000646	0.000648	0.001115	6983.209231	48042.160490	3926.240131	25033.305942
51.536500	0.000803	0.000096	0.004942	-0.000594	7004.441970	48163.196290	3943.855411	25121.418056
52.036500	0.001354	0.001020	0.002385	0.003527	6969.125549	47830.104138	3924.276762	24909.553062
52.536500	-0.011220	-0.012238	0.007408	0.129561	5799.814352	35457.606526	3616.987150	19311.442372
53.037000	-0.033860	-0.027391	-0.001074	-0.012912	6788.056814	46603.932360	3962.611431	25766.890483
53.537000	-0.021131	-0.020165	0.005667	-0.043978	7222.911322	50647.286975	4081.028637	27478.481816
54.034500	-0.018386	-0.023037	0.001291	-0.095613	7827.604172	56340.301970	4244.312310	30608.670443
54.535000	-0.026945	-0.020663	-0.007738	-0.086268	7620.090798	55486.772986	4178.708431	30014.224478
55.035500	-0.006693	-0.017599	-0.000431	-0.102973	8058.023255	57943.346677	4265.004277	31085.903213
55.535500	0.004463	-0.018134	0.005640	-0.120116	8419.479778	60095.403000	4353.094521	32229.435094
56.039000	0.010717	-0.015793	0.008459	-0.114404	8426.644004	59651.878543	4341.855582	31843.397522
56.536000	0.011029	-0.012435	0.008593	-0.080823	8003.570941	55825.939852	4217.242418	29673.746664
57.036500	0.013921	-0.009844	0.013068	-0.059901	7787.475517	53631.637753	4159.392671	28404.355689
57.536500	0.015725	-0.008634	0.015824	-0.040500	7585.052646	51544.037161	4103.040762	27280.731166
58.037000	0.020512	-0.008246	0.019112	-0.030660	7528.418751	50493.273368	4081.445020	26729.719459
58.538000	0.023177	-0.007111	0.024828	-0.000819	7234.916538	47438.823141	4004.673278	25133.061244
59.035500	0.024337	-0.006833	0.030576	0.018990	7043.878017	45473.084654	3961.856126	24132.178890
59.645000	0.035261	-0.005496	0.040620	0.040754	6936.536673	43509.519279	3927.212260	23083.849726
60.046500	0.038316	-0.003626	0.044906	0.050198	6874.518739	42804.639495	3912.258177	22645.072693
60.868000	0.056587	0.003010	0.068576	0.092549	6648.799438	39641.601416	3859.565072	20790.538518
61.285000	0.065369	0.007816	0.080842	0.112396	6549.198471	38385.305824	3838.817436	19981.731619
61.536500	0.073795	0.010345	0.086541	0.124340	6518.059436	37620.798196	3821.996984	19512.507816
62.061500	0.097535	0.021127	0.111672	0.157708	6434.122480	35853.051573	3800.177721	18268.032446
62.537000	0.115782	0.030426	0.131370	0.188873	6324.387050	34227.076257	3770.487068	17188.995868
63.037500	0.136350	0.043099	0.150983	0.214323	6283.750426	33314.145401	3755.669042	16363.459836
63.537500	0.144826	0.048156	0.163799	0.223700	6276.306549	33011.522401	3764.376007	16071.307908
64.035000	0.152890	0.055131	0.171901	0.242283	6190.486983	32213.083035	3738.057513	15510.617245
64.535500	0.159535	0.060698	0.178301	0.254487	6145.949858	31765.991823	3723.754523	15155.204553
65.038000	0.172597	0.066855	0.187134	0.264676	6168.894353	31497.774149	3720.440201	14866.053283
65.541500	0.181957	0.073347	0.198992	0.276928	6145.805141	31118.885654	3719.480465	14527.229093
66.039000	0.193076	0.080008	0.211526	0.288745	6140.257411	30783.933266	3721.228644	14209.343066
66.537000	0.196887	0.085528	0.212911	0.304371	6047.640577	30138.822028	3687.016569	13802.058312
67.037000	0.206446	0.091333	0.218125	0.308524	6089.705648	30243.262494	3689.526750	13696.265919
67.537000	0.212612	0.096890	0.234174	0.317528	6067.559199	30025.802917	3706.351488	13470.317719
68.037000	0.220840	0.101462	0.237181	0.325469	6069.787174	29814.916527	3694.539296	13274.902771
68.535000	0.222166	0.105795	0.242252	0.334396	6011.149421	29530.013174	3685.402434	13059.461975
69.035500	0.229802	0.111324	0.247388	0.340993	6019.104379	29464.218329	3681.959026	12903.054018
69.535500	0.235306	0.113938	0.253677	0.346049	6022.547160	29314.381241	3684.866053	12784.804877
70.038500	0.240884	0.118060	0.263093	0.352543	6015.515893	29169.601399	3691.778173	12634.889014
70.536000	0.240368	0.121561	0.260839	0.362209	5938.452295	28797.035930	3663.862517	12415.895817
71.036000	0.247068	0.124685	0.270410	0.364335	5972.848186	28856.986446	3681.207696	12368.363373
71.539500	0.249524	0.126528	0.267251	0.367843	5964.911904	28757.091203	3665.663215	12290.481165
72.037000	0.252680	0.129915	0.272061	0.372934	5950.346688	28655.157652	3665.011363	12178.534666
72.537000	0.255734	0.130917	0.275195	0.380622	5915.741453	28259.232939	3654.536010	12011.963732
73.037500	0.256277	0.133226	0.279581	0.381013	5916.863815	28372.150718	3663.717731	12003.551835
73.535000	0.259410	0.136767	0.283277	0.386290	5900.973464	28269.910225	3660.075918	11891.022310
74.035000	0.262332	0.137148	0.284706	0.389972	5895.362986	28076.563176	3654.902130	11813.295954
74.536000	0.260840	0.137367	0.285507	0.395722	5842.344505	27755.904085	3643.636906	11693.231234
75.035500	0.262280	0.139026	0.288574	0.396696	5845.738619	27795.416185	3648.386632	11673.065364
75.536000	0.265998	0.140664	0.285917	0.400037	5848.468881	27697.359060	3634.837382	11604.175008
76.036500	0.266836	0.141650	0.290415	0.403012	5832.970388	27583.316126	3638.261992	11543.288027
76.540000	0.265451	0.141365	0.287006	0.406943	5794.727604	27343.277744	3621.876170	11463.465050
77.037000	0.269240	0.142943	0.294828	0.409431	5804.044408	27291.792749	3633.756064	11413.327654
77.534500	0.268303	0.142245	0.291258	0.410213	5791.741950	27208.248246	3624.054796	11397.634528
78.034500	0.271074	0.143024	0.293849	0.413245	5789.873866	27081.639610	3623.075815	11337.003957
78.534500	0.268827	0.144570	0.294558	0.418144	5739.282674	26894.435061	3613.836393	11239.962497
79.035500	0.276062	0.146219	0.295106	0.419980	5777.431780	26884.026447	3611.013283	11203.879100
79.538500	0.273452	0.147006	0.293593	0.421324	5749.446240	26853.081822	3604.783138	11177.553947
80.036000	0.274538	0.145517	0.295234	0.422038	5752.067111	26731.034613	3606.798423	11163.592386
80.536500	0.275885	0.146029	0.302092	0.427502	5723.173790	26459.040728	3609.841215	11057.601759
81.037000	0.279337	0.148645	0.302886	0.428365	5741.312769	26554.985881	3609.691627	11040.984288
81.537000	0.279061	0.149659	0.300423	0.430095	5727.256459	26515.766734	3600.573390	11007.766401
82.037000	0.279717	0.149738	0.305627	0.431485	5722.118623	26444.058711	3608.862543	10981.159121
82.537500	0.278092	0.149309	0.305506	0.434654	5688.826368	26248.432843	3601.706314	10920.839914
83.037000	0.281337	0.151165	0.310190	0.435472	5705.638829	26304.751875	3610.121386	10905.347337
83.535500	0.282160	0.150912	0.309120	0.436147	5706.663214	26254.383575	3606.312684	10892.576246
84.036000	0.282364	0.151485	0.307142	0.438078	5694.694956	26181.029551	3597.840515	10856.178897
84.538500	0.281335	0.151116	0.309228	0.440872	5668.355359	26010.914047	3596.313292	10803.773629
85.036000	0.283104	0.152468	0.304156	0.441151	5678.591901	26068.455939	3584.855875	10798.554582
85.537000	0.286002	0.152226	0.312915	0.441511	5696.111101	26036.145777	3602.902723	10791.828884
86.039500	0.286205	0.153046	0.314142	0.443506	5683.728009	25973.177533	3601.237566	10754.673652
86.537000	0.287279	0.152679	0.306279	0.443877	5688.575966	25933.723715	3583.573140	10747.781942
87.034500	0.284831	0.151518	0.309575	0.444232	5669.287894	25852.916568	3589.844977	10741.197532
87.537000	0.287519	0.154151	0.312406	0.447383	5666.110041	25825.329828	3589.159920	10682.957525
88.038000	0.288399	0.153731	0.313654	0.448340	5665.587547	25752.316968	3589.784729	10665.364057
88.535500	0.288837	0.152407	0.309638	0.447692	5673.040170	25716.464531	3582.605589	10677.275264
89.038500	0.288152	0.152904	0.320261	0.449229	5657.813522	25661.510652	3602.097532	10649.042582
89.536000	0.287490	0.153901	0.314563	0.450625	5643.774654	25640.463424	3586.842534	10623.473356
90.036000	0.291733	0.153047	0.316305	0.450459	5673.922209	25604.219175	3590.921405	10626.518808
90.536500	0.288850	0.153807	0.318256	0.452974	5637.056241	25511.972523	3589.714169	10580.653491
91.037000	0.292246	0.154082	0.319548	0.454028	5652.998768	25471.199183	3590.224850	10561.525279
91.537500	0.289739	0.154734	0.315465	0.453661	5638.431921	25524.608209	3582.303693	10568.181131
92.034500	0.291452	0.154562	0.310976	0.455187	5639.704979	25435.696371	3569.628231	10540.536791
92.535000	0.289696	0.153701	0.317322	0.456064	5621.870801	25345.015098	3581.146429	10524.690499
93.035000	0.293618	0.154486	0.317895	0.456864	5643.027302	25344.258409	3580.665355	10510.255375
93.535500	0.291349	0.153847	0.319158	0.456047	5633.169822	25353.527073	3585.083149	10524.991514
94.038500	0.294301	0.154328	0.322717	0.457547	5643.024436	25300.512459	3589.475707	10497.962537
94.536000	0.291617	0.153685	0.317093	0.458350	5619.407048	25225.488171	3575.830352	10483.526725
95.036500	0.293153	0.153632	0.317997	0.458757	5627.037986	25201.706610	3576.881080	10476.228892
95.539500	0.294229	0.155070	0.323241	0.459340	5630.368313	25245.964197	3586.764022	10465.763060
96.037000	0.293218	0.152728	0.317242	0.458658	5628.139646	25160.077356	3575.495561	10477.989962
96.537000	0.292756	0.155329	0.322771	0.461656	5604.826713	25139.657983	3580.843948	10424.395850
97.035000	0.292931	0.154586	0.315198	0.461490	5607.120253	25109.881194	3565.283389	10427.351782
97.537000	0.295782	0.154058	0.319524	0.461268	5627.833907	25094.155562	3574.806442	10431.311084
