sample name	sample
index	869
start time	 04-08-2021  01:19:58 PM
880	0.490745
Peak Time (s)	101.537
Peak Height 	0.4907
calc peak height	100,103
Baseline Time (s)	8.537
Baseline Value 	-0.001571
subtract baseline	10,4
Abs	0.359587
Peak Time (s)	102.035
Peak Height 	0.3596
calc peak height	100,103
Baseline Time (s)	9.537
Baseline Value 	0.002261
subtract baseline	10,3
PK_550	0.175108
Peak Time (s)	102.535
Peak Height 	0.1751
calc peak height	100,103
Baseline Time (s)	11.534
Baseline Value 	5.6506E-4
subtract baseline	10,2
PK_880	0.320545
Peak Time (s)	102.035
Peak Height 	0.3205
calc peak height	100,103
Baseline Time (s)	9.037
Baseline Value 	3.1198E-4
subtract baseline	10,1


Time (s)	A880-A510	A880-A775	A880-A975	A880	I510	I775	I975	I880	
0.034500	-0.002158	-0.000901	-0.005859	0.006007	6809.934629	41974.266581	3885.915653	22511.331754
0.543000	-0.003321	-0.000765	0.000828	0.003105	6826.429592	42249.856280	3913.073525	22644.271552
1.037500	-0.002035	-0.001274	-0.002738	0.001882	6850.346494	42314.882168	3906.383118	22700.554576
1.540000	0.001292	-0.000093	-0.001658	0.000411	6896.476448	42557.399688	3913.668639	22768.475640
2.035000	-0.002259	-0.000258	-0.000751	0.005389	6814.829376	42088.367248	3902.059311	22539.554362
2.703000	0.000825	-0.000497	-0.004203	-0.000174	6897.617586	42574.040799	3908.068036	22795.538520
3.208000	-0.001466	-0.001505	-0.000520	-0.002851	6901.353260	42727.476978	3926.339299	22919.884980
3.536500	0.000160	-0.000427	0.002954	-0.000435	6893.711403	42604.420760	3929.403591	22807.620826
4.036000	-0.000979	-0.000391	-0.000651	0.000515	6873.574889	42520.519235	3916.257108	22763.633351
4.536500	-0.001549	-0.000016	-0.000607	-0.000445	6877.329833	42643.026024	3919.143255	22808.069957
5.036500	0.001333	-0.000403	-0.002057	-0.000891	6909.485595	42648.508864	3916.260723	22828.778846
5.537000	0.001473	-0.000346	-0.000282	-0.000482	6906.872480	42616.158325	3920.186323	22809.790509
6.037500	-0.000405	-0.000320	0.000391	-0.000248	6886.454734	42597.069608	3921.451173	22798.970963
6.535000	-0.002002	-0.000408	-0.002552	-0.000796	6876.341120	42639.271199	3914.564375	22824.333652
7.035000	0.000886	0.000112	0.001915	0.000406	6892.606037	42576.631248	3923.960975	22768.702088
7.535500	-0.000581	0.000262	-0.001456	0.000045	6881.939987	42623.623864	3915.298645	22785.412990
8.035500	0.000775	-0.000114	0.001857	-0.000124	6896.650415	42604.623093	3925.327422	22793.228236
8.536500	0.001031	0.000059	0.003264	0.000000	6897.928859	42609.069566	3929.041069	22787.476762
9.036500	0.000000	0.000467	-0.004309	0.000234	6885.708765	42625.075315	3906.602507	22776.639612
9.536500	0.002773	0.000662	0.000000	0.000454	6910.396884	42622.770385	3918.304101	22766.472900
10.037000	0.000667	-0.000301	-0.005038	-0.000018	6894.576495	42577.693560	3905.244857	22788.311410
10.539500	-0.000129	-0.000283	0.000518	-0.000128	6887.959419	42589.430466	3921.471314	22793.408270
11.034500	-0.000884	-0.001541	-0.002845	-0.001086	6889.917575	42561.894795	3914.556938	22837.819038
11.534500	-0.000779	0.000000	0.003881	0.000041	6880.062862	42599.898443	3930.712543	22785.588328
12.035000	0.000227	0.001311	0.001257	0.000531	6885.033945	42675.322014	3921.702650	22762.921103
12.535500	0.000107	0.000016	-0.000050	-0.000334	6892.230088	42635.884530	3920.430724	22802.965307
13.036000	0.001397	-0.000240	-0.001839	-0.002298	6923.763550	42793.025087	3920.930509	22894.108676
13.539000	0.001559	-0.000135	-0.000147	-0.000012	6903.150245	42592.394306	3919.221922	22788.040832
14.036000	-0.001343	0.000179	0.001148	0.002197	6853.956177	42418.795195	3916.594532	22686.042869
14.537000	-0.000992	0.000008	-0.003040	0.002537	6854.056624	42372.064330	3903.660536	22670.378261
15.039500	0.000602	-0.000837	-0.005966	-0.000530	6898.903144	42575.482143	3904.061445	22812.028358
15.540000	0.001492	0.001150	-0.000825	0.000851	6894.162255	42631.176470	3914.796158	22748.138398
16.034500	0.000427	-0.000292	-0.001269	-0.000382	6895.782013	42611.951264	3917.061025	22805.184986
16.535000	-0.003121	-0.000598	-0.004463	0.004109	6818.797221	42173.772811	3895.178967	22598.198377
17.035000	-0.001188	-0.000870	-0.000897	-0.000833	6884.544702	42600.234609	3919.425905	22826.076705
17.538500	0.004240	0.000667	0.001821	-0.002786	6956.298028	42921.964307	3932.941124	22916.845448
18.036000	-0.001384	0.000249	-0.001403	0.000851	6866.468373	42548.460653	3913.141140	22748.146280
18.536500	-0.001541	-0.000110	-0.001301	0.002560	6848.591111	42359.191593	3908.546183	22669.325467
19.036500	0.001560	-0.000107	0.000109	0.001190	6891.536986	42484.649056	3916.500390	22732.455864
19.540000	0.000918	0.000637	-0.000376	0.001364	6883.665578	42536.962573	3914.611558	22724.435648
20.037500	-0.001416	0.000262	-0.001693	0.001175	6863.046689	42519.809770	3911.380326	22733.142816
20.540000	0.000672	-0.000139	-0.000228	0.000541	6889.230995	42541.202520	3917.397400	22762.433616
21.035000	-0.000906	-0.000204	-0.001007	0.000974	6869.871084	42495.654469	3913.921165	22742.459566
21.535000	-0.000946	0.000479	0.000956	0.001520	6864.246228	42508.234839	3917.987866	22717.259100
22.035500	0.000649	-0.000175	-0.002358	0.001036	6884.239951	42492.648936	3909.880009	22739.591078
22.536000	0.000959	0.000396	-0.000647	0.001631	6881.492792	42490.386762	3913.071338	22712.126894
23.036000	-0.000902	0.000645	0.001050	0.001274	6867.026343	42545.961539	3918.967296	22728.599586
23.536500	0.001123	-0.000129	-0.000305	0.001277	6886.482996	42474.769914	3915.064830	22728.465790
24.037000	0.000547	0.001115	0.000522	0.001848	6875.435414	42536.377913	3915.798877	22702.101410
24.540000	-0.000302	0.000014	0.003734	0.002071	6865.138495	42415.166220	3924.405986	22691.847919
25.034500	0.000332	0.000129	-0.000237	0.001117	6880.410499	42513.050163	3915.720589	22735.861141
25.534500	0.000950	0.000266	0.000348	0.001290	6884.683293	42509.718041	3916.900920	22727.837556
26.038000	0.000179	-0.000120	0.003071	0.001050	6879.578659	42496.411396	3925.440792	22738.946989
26.535000	-0.000216	0.000706	-0.000106	0.002112	6865.563013	42474.708390	3913.241358	22689.939665
27.035500	0.000218	-0.000522	0.001842	0.000414	6886.079971	42517.766756	3923.727092	22768.332579
27.536000	0.001921	0.000498	0.003978	0.000284	6903.788652	42623.281839	3930.286468	22774.321178
28.036500	0.000210	-0.000119	0.000412	-0.000102	6890.973829	42602.034219	3921.090682	22792.178244
28.536500	-0.000448	0.000093	0.000362	-0.000396	6887.468447	42648.591024	3921.794382	22805.827899
29.039500	0.000325	0.000716	0.000543	0.000092	6890.220745	42660.985393	3920.909921	22783.233707
29.539000	0.000411	0.000181	0.000952	-0.000090	6892.799125	42628.576664	3922.612948	22791.645275
30.034500	-0.000228	0.000769	0.001606	0.000250	6883.355737	42651.364871	3923.520028	22775.902909
30.538000	-0.000215	-0.000458	-0.000121	-0.000620	6891.875681	42618.557574	3921.048612	22816.211191
31.035000	-0.000100	0.000550	0.003813	0.001389	6873.628597	42526.670579	3926.606921	22723.300704
31.537000	0.001652	0.000077	0.001509	0.002229	6882.405267	42406.551962	3917.540980	22684.576917
32.036000	-0.000727	-0.000112	-0.001766	-0.000591	6886.659483	42647.718703	3916.232544	22814.868541
32.536000	0.000989	-0.000557	-0.000901	-0.001001	6907.214189	42644.413076	3919.898337	22833.869633
33.035500	0.000195	-0.000236	-0.002494	-0.000816	6897.732016	42656.868420	3914.789393	22825.267597
33.539500	0.000414	-0.000426	-0.001475	-0.000197	6893.867089	42582.650370	3915.936071	22796.605329
34.037000	0.000770	-0.000210	0.006897	-0.001447	6909.408468	42717.422310	3943.860816	22854.582402
34.534500	0.000829	0.000324	0.000089	0.001641	6880.142014	42482.937813	3915.151313	22711.679322
35.034500	-0.000267	-0.000149	0.000007	0.001391	6871.994313	42462.447541	3915.631026	22723.171719
35.535000	0.001059	0.000884	-0.000528	0.002232	6876.665734	42480.062890	3911.690174	22684.426364
36.035500	0.000993	-0.000002	0.001845	0.001241	6885.571410	42489.606470	3921.350042	22730.100190
36.535500	-0.001361	0.000325	0.003087	0.001723	6858.325959	42475.472183	3923.543318	22707.885136
37.036000	0.000588	0.000229	-0.001381	0.001839	6875.918777	42456.145446	3910.376110	22702.550274
37.536000	0.001384	0.000483	-0.001524	0.001744	6884.493367	42487.961806	3910.236592	22706.890068
38.039000	-0.000805	-0.000246	0.001245	0.001045	6870.155775	42485.279859	3920.185565	22739.162309
38.539500	0.000646	0.000759	0.000431	0.002680	6868.382950	42427.552937	3913.151434	22663.786450
39.037000	-0.000720	0.000315	0.003046	0.001555	6866.072513	42489.938700	3923.908611	22715.621990
39.537000	0.002045	0.001168	0.002473	0.002244	6886.055563	42504.965266	3920.270532	22683.892104
40.035000	0.000953	0.000301	0.000835	0.001985	6878.021057	42449.283427	3916.303241	22695.808964
40.535000	-0.001613	-0.000069	-0.000662	0.002025	6853.012574	42411.815476	3911.899494	22693.956242
41.035500	-0.003268	-0.000344	0.005284	0.001221	6844.888342	42460.239530	3931.361915	22731.053382
41.535500	0.001602	0.000138	-0.001267	0.002001	6884.118851	42432.929922	3910.238916	22695.072413
42.036000	0.000403	-0.000231	-0.000662	0.001629	6876.153912	42433.184788	3913.032263	22712.204232
42.539500	0.000982	0.000415	-0.000936	0.003465	6864.073694	42324.486632	3907.003863	22627.707926
43.037000	-0.001808	0.000023	0.000067	0.001750	6853.786409	42445.354487	3914.776552	22706.645931
43.537000	-0.000086	0.000504	0.001346	0.001845	6869.384361	42480.698875	3918.174567	22702.275189
44.037500	0.000725	0.000441	-0.002230	0.001833	6877.293123	42476.026979	3907.970744	22702.808876
44.537500	-0.002220	-0.000141	0.000942	0.005326	6815.796992	42104.747413	3907.053146	22542.443999
45.035000	0.000743	0.000513	0.004503	0.000564	6889.698201	42598.958355	3930.999325	22761.394271
45.538500	0.000054	0.000550	0.001803	0.003665	6853.272561	42318.615917	3914.260466	22618.541065
46.036000	0.002006	0.000654	0.000953	0.000414	6903.350893	42625.730929	3921.164100	22768.329960
46.536000	-0.001400	0.000849	-0.002075	0.005768	6819.381427	42154.442796	3897.237373	22522.257547
47.036500	0.000024	0.000613	0.000792	0.000986	6878.700226	42569.410761	3919.054070	22741.906564
47.536000	-0.001912	-0.000127	0.000807	0.002920	6841.610981	42324.788264	3913.541894	22652.772373
48.037000	0.000963	0.000167	0.004045	0.002610	6872.109978	42379.927265	3923.745493	22667.016000
48.553000	-0.001694	-0.000016	-0.006503	0.005145	6822.510711	42132.545770	3886.528050	22550.749259
49.037500	0.001022	-0.000320	-0.002591	0.000139	6896.491370	42561.453892	3911.777259	22781.030723
49.537500	0.001043	0.000421	-0.001089	0.004452	6855.210954	42235.170988	3903.762407	22582.460226
50.035000	0.001560	0.000648	0.001237	-0.000373	6906.657010	42697.510400	3924.252801	22804.765482
50.535500	-0.000912	0.000018	-0.002717	0.005305	6828.420011	42121.119522	3896.732183	22543.430071
51.036000	0.000554	0.000613	0.006497	0.011172	6786.777678	41645.702587	3906.226541	22276.937364
51.536000	-0.002323	-0.002679	-0.001294	-0.020569	7067.731281	44280.837326	3976.339946	23762.466283
52.039000	-0.034428	-0.012979	0.013294	0.086118	5872.495717	34466.838203	3726.622785	19171.602646
52.536000	-0.027735	-0.013395	0.009830	0.010312	6536.546893	40484.886692	3918.222731	22315.765260
53.037000	-0.029827	-0.013226	-0.003778	-0.038523	6972.705883	44995.749951	4023.731486	24652.099110
53.537000	-0.036282	-0.015887	-0.018567	-0.087538	7412.799021	49757.505631	4134.769922	27276.646399
54.037500	-0.016318	-0.011338	-0.018942	-0.109786	7894.030575	52751.102936	4210.459005	28569.246650
54.537000	-0.003991	-0.008382	-0.011679	-0.110982	8058.370843	53231.829492	4240.766360	28640.670034
55.035000	-0.001082	-0.007491	-0.004960	-0.093696	7883.830398	51360.437014	4202.993979	27627.813332
55.535500	-0.003295	-0.006834	-0.004120	-0.069315	7575.812574	48774.670537	4122.087161	26266.118358
56.036000	0.001730	-0.005296	0.000560	-0.053252	7453.417907	47259.918621	4084.511258	25409.894130
56.541500	0.003250	-0.004991	0.004231	-0.035349	7277.381867	45491.342763	4038.893615	24492.155686
57.036500	0.007847	-0.002451	0.007234	-0.026339	7231.086741	44858.801476	4020.081236	24044.399013
57.536500	0.003224	-0.003041	-0.000406	-0.017476	7092.497515	43951.496318	3969.723869	23612.896771
58.037000	0.013552	-0.000485	0.008868	-0.024735	7274.099614	44894.004579	4020.174931	23965.649704
58.537500	0.011118	0.000008	0.013138	0.003564	6961.473613	42278.407224	3947.473729	22623.175892
59.035000	0.019548	0.002451	0.019682	0.020489	6878.893561	40981.081028	3917.289211	21861.103007
59.538000	0.018378	0.002221	0.027459	0.042187	6664.460039	39097.255562	3877.928533	20926.581585
60.035500	0.023039	0.004204	0.030774	0.043713	6693.188831	39135.518746	3882.913124	20862.576839
60.535500	0.026308	0.005620	0.035403	0.052627	6641.616486	38512.266850	3871.003398	20493.319114
61.036500	0.032848	0.008496	0.036949	0.056703	6664.045404	38413.443148	3864.023439	20326.934225
61.539000	0.033407	0.011136	0.043838	0.071810	6533.401156	37403.425175	3841.630321	19723.798658
62.036500	0.040441	0.012641	0.050979	0.078810	6533.705314	36967.451712	3842.012450	19451.388314
62.537000	0.046980	0.015734	0.060204	0.088298	6507.741272	36466.824470	3841.302003	19089.043417
63.037000	0.054685	0.018356	0.068080	0.097699	6492.892105	35944.131818	3837.195400	18737.773034
63.537500	0.059653	0.022871	0.068258	0.113770	6397.116736	35071.844460	3795.238213	18154.620537
64.035000	0.065558	0.026016	0.076818	0.122216	6375.546735	34679.353273	3795.533636	17856.682989
64.535000	0.075991	0.030936	0.088123	0.134265	6361.880505	34158.990691	3793.604454	17441.524181
65.035500	0.086009	0.037538	0.100508	0.134035	6449.363456	34657.536192	3826.737622	17449.357687
65.535500	0.088033	0.039954	0.106988	0.156867	6273.871058	33190.865371	3783.973660	16693.191166
66.036000	0.103463	0.047403	0.117647	0.168910	6301.865837	32870.279523	3780.427176	16310.067930
66.536500	0.114126	0.052804	0.135486	0.176224	6329.765802	32737.774848	3807.679569	16082.539413
67.036500	0.125140	0.058030	0.139760	0.186447	6336.381099	32394.401159	3792.194819	15770.846687
67.534000	0.127296	0.064724	0.154327	0.205591	6196.827717	31555.831249	3780.426505	15206.554773
68.037500	0.141861	0.071042	0.168640	0.213916	6247.456360	31422.827901	3795.847839	14968.798963
68.537500	0.149605	0.075118	0.173557	0.220713	6255.207064	31243.642605	3790.983985	14778.058666
69.034500	0.157813	0.080562	0.181019	0.227674	6265.427845	31144.141609	3792.278667	14585.755618
69.535000	0.159621	0.084498	0.182804	0.243354	6153.289187	30385.806035	3756.925182	14163.751902
70.035500	0.169080	0.088841	0.191865	0.238768	6266.855305	30960.484791	3791.637644	14285.615476
70.538500	0.179828	0.094452	0.204430	0.256877	6206.875568	30159.406545	3777.403922	13811.843539
71.036000	0.184245	0.099449	0.205804	0.271844	6122.674129	29536.677290	3743.266607	13434.908787
71.536500	0.186144	0.099727	0.211081	0.281859	6059.278589	28942.159518	3731.616483	13189.851331
72.067000	0.193235	0.104079	0.214676	0.287688	6069.056324	28853.198736	3726.166207	13049.805129
72.538500	0.199252	0.105748	0.220406	0.293740	6068.778303	28590.692382	3725.382498	12906.349863
73.037500	0.201668	0.108098	0.226158	0.301035	6031.129457	28297.876839	3721.636765	12736.099888
73.534500	0.206199	0.109891	0.231617	0.307232	6018.366019	28039.768801	3719.852368	12593.693353
74.035000	0.207314	0.111594	0.233044	0.312501	5986.758840	27832.717125	3710.600019	12474.201461
74.536000	0.213068	0.114281	0.235830	0.318652	5983.755646	27633.248577	3702.564063	12336.534397
75.038500	0.214895	0.116802	0.241968	0.323371	5961.955352	27507.490618	3705.945932	12232.230602
75.536000	0.216318	0.117372	0.242972	0.333075	5900.310551	26991.600438	3685.390780	12021.267819
76.036000	0.223638	0.119771	0.246739	0.332142	5961.743192	27178.584416	3696.443535	12041.349887
76.536500	0.225038	0.120926	0.253517	0.335107	5950.001125	27076.825384	3705.498580	11977.685413
77.037000	0.226191	0.121732	0.257947	0.338406	5933.978409	26937.438073	3708.200729	11907.364154
77.537500	0.229133	0.124024	0.261062	0.348189	5883.413058	26523.347684	3692.377281	11701.953081
78.037500	0.236352	0.126347	0.260089	0.347025	5945.485687	26715.204153	3692.826199	11726.148916
78.534500	0.238515	0.128161	0.262117	0.351000	5931.963433	26596.097566	3688.246716	11643.763551
79.035500	0.240354	0.129382	0.266801	0.354260	5921.402673	26484.245230	3691.593349	11576.772819
79.538500	0.241738	0.130763	0.266408	0.364047	5859.642158	26028.749947	3667.915843	11378.639394
80.035500	0.244308	0.132386	0.273306	0.361478	5897.271190	26254.805563	3689.916314	11430.204209
80.536000	0.247371	0.133770	0.271743	0.365676	5888.919827	26102.794852	3676.471345	11346.079672
81.036500	0.250368	0.134412	0.274806	0.368462	5890.472784	25987.673639	3677.114331	11290.697805
81.537000	0.249775	0.136995	0.281463	0.379106	5808.936289	25559.781393	3667.905549	11082.346954
82.037000	0.252403	0.136464	0.280915	0.375519	5853.774015	25721.075233	3674.916322	11151.998407
82.537000	0.258094	0.139113	0.283723	0.381617	5850.819685	25539.130500	3667.328836	11033.943736
83.034500	0.259436	0.139301	0.281136	0.384256	5841.416763	25410.761859	3655.394926	10983.369567
83.535000	0.259882	0.140622	0.284651	0.394087	5774.226012	24970.471452	3641.160756	10797.623074
84.035500	0.262822	0.143435	0.295173	0.392934	5803.354962	25174.599664	3667.636274	10819.198193
84.535000	0.265953	0.143809	0.291617	0.396740	5798.523606	24997.784686	3650.856911	10748.207641
85.036000	0.265486	0.144055	0.293310	0.400340	5769.630630	24826.462435	3646.559029	10681.651544
85.536500	0.266458	0.144934	0.294647	0.409222	5714.199238	24422.839198	3629.729867	10519.765517
86.036000	0.269932	0.144886	0.303046	0.406977	5754.173048	24532.874217	3653.554102	10560.372622
86.537000	0.270646	0.147008	0.298053	0.415559	5699.312521	24210.852738	3623.273119	10406.285146
87.037000	0.272087	0.146800	0.306583	0.413300	5724.990094	24312.577127	3647.264225	10446.549390
87.537500	0.274269	0.149083	0.312247	0.421754	5681.590302	24007.961559	3641.002527	10296.923023
88.035500	0.278232	0.150301	0.311331	0.421940	5707.644367	24058.545193	3638.539753	10293.651573
88.535000	0.278437	0.151694	0.313822	0.429361	5658.060713	23764.480312	3627.602107	10164.756834
89.035500	0.282928	0.152923	0.317001	0.427567	5701.208818	23911.478017	3638.636374	10195.716991
89.536000	0.279182	0.151547	0.318219	0.433448	5635.369980	23560.301910	3628.285442	10094.690420
90.036000	0.283751	0.154359	0.320572	0.432946	5669.866714	23719.923931	3634.609729	10103.256902
90.536500	0.282157	0.154882	0.322030	0.439646	5613.652396	23423.395183	3623.031421	9989.691523
91.039500	0.289804	0.156565	0.324229	0.439303	5667.791757	23520.211577	3628.628271	9995.467002
91.537000	0.288084	0.156262	0.323855	0.444441	5621.270587	23261.238672	3616.532672	9909.493050
92.037500	0.292086	0.158078	0.329866	0.444107	5650.591094	23363.132855	3630.467734	9915.038261
92.535000	0.290632	0.157713	0.326260	0.449014	5607.669527	23114.116545	3611.817579	9833.817559
93.035000	0.294683	0.159442	0.324467	0.448934	5635.469736	23199.239411	3608.107082	9835.127329
93.538000	0.291445	0.159276	0.332034	0.452938	5586.899992	23003.511790	3615.839800	9769.509148
94.036000	0.299861	0.162962	0.331057	0.455405	5626.739954	23060.554167	3608.364790	9729.383664
94.536000	0.299374	0.162766	0.334940	0.457050	5612.404141	22974.510147	3613.215424	9702.749859
95.036500	0.301774	0.163013	0.340275	0.459134	5614.526383	22889.048882	3620.307858	9669.164083
95.536000	0.302458	0.164006	0.340561	0.464094	5585.946854	22705.607709	3610.127325	9589.838911
96.036500	0.302420	0.164828	0.345370	0.463803	5587.633609	22756.886178	3621.236799	9594.466033
96.540000	0.303691	0.166125	0.344749	0.465979	5581.620847	22716.430455	3615.127925	9559.937803
97.037500	0.308290	0.168411	0.345355	0.469509	5588.730131	22659.248751	3608.784479	9504.291292
97.535000	0.307387	0.168453	0.347289	0.475872	5540.772953	22371.160897	3599.254213	9405.106887
