sample name	sample
index	83
start time	 02-11-2021  04:30:03 PM


Wavelength (nm)	Absorbance
494.344910	NaN
494.563924	NaN
494.782919	NaN
495.001897	-0.614268
495.220856	NaN
495.439797	NaN
495.658719	NaN
495.877624	NaN
496.096510	NaN
496.315378	1.218892
496.534227	0.158818
496.753059	0.499004
496.971872	NaN
497.190667	0.119218
497.409444	0.094471
497.628203	0.087410
497.846943	0.082231
498.065665	0.081708
498.284369	0.085172
498.503055	0.083545
498.721723	0.079328
498.940372	0.075862
499.159003	0.074057
499.377616	0.072482
499.596210	0.073227
499.814787	0.073733
500.033345	0.073540
500.251885	0.072288
500.470406	0.072823
500.688910	0.072870
500.907395	0.076412
501.125862	0.078691
501.344311	0.080531
501.562742	0.081746
501.781154	0.082338
501.999548	0.082784
502.217924	0.084296
502.436282	0.085906
502.654621	0.086233
502.872942	0.084484
503.091245	0.083567
503.309530	0.083301
503.527797	0.082847
503.746045	0.082914
503.964275	0.080689
504.182487	0.079252
504.400681	0.077795
504.618856	0.080311
504.837013	0.083024
505.055152	0.083802
505.273273	0.085898
505.491376	0.085930
505.709460	0.086695
505.927526	0.088960
506.145574	0.088881
506.363604	0.089061
506.581615	0.087550
506.799608	0.084301
507.017583	0.084889
507.235540	0.083791
507.453478	0.084407
507.671399	0.083282
507.889301	0.081782
508.107185	0.081982
508.325050	0.082662
508.542898	0.082713
508.760727	0.084206
508.978538	0.083573
509.196330	0.084356
509.414105	0.084394
509.631861	0.084222
509.849599	0.086729
510.067319	0.087030
510.285021	0.086762
510.502704	0.086861
510.720369	0.088590
510.938016	0.087677
511.155645	0.088182
511.373255	0.088960
511.590848	0.088391
511.808422	0.086242
512.025977	0.086567
512.243515	0.086441
512.461034	0.087989
512.678536	0.085934
512.896018	0.086454
513.113483	0.084803
513.330930	0.084886
513.548358	0.086226
513.765768	0.088612
513.983160	0.086664
514.200533	0.087725
514.417889	0.086253
514.635226	0.087251
514.852545	0.087670
515.069845	0.088167
515.287128	0.086335
515.504392	0.085128
515.721638	0.083302
515.938866	0.083672
516.156075	0.084928
516.373267	0.086909
516.590440	0.087068
516.807594	0.087543
517.024731	0.087874
517.241850	0.088724
517.458950	0.089655
517.676032	0.091135
517.893095	0.093400
518.110141	0.092260
518.327168	0.090574
518.544177	0.090211
518.761168	0.090533
518.978141	0.091995
519.195095	0.092279
519.412031	0.093233
519.628949	0.092434
519.845849	0.092992
520.062731	0.093462
520.279594	0.094030
520.496439	0.094397
520.713266	0.094339
520.930074	0.093651
521.146865	0.094674
521.363637	0.095197
521.580391	0.095792
521.797127	0.094272
522.013844	0.094561
522.230543	0.094385
522.447224	0.094520
522.663887	0.094837
522.880532	0.094994
523.097158	0.096179
523.313766	0.096249
523.530356	0.096495
523.746928	0.098497
523.963481	0.098529
524.180017	0.099661
524.396534	0.100281
524.613032	0.100963
524.829513	0.101177
525.045975	0.100201
525.262420	0.099868
525.478845	0.100453
525.695253	0.100500
525.911643	0.101336
526.128014	0.102173
526.344367	0.101604
526.560702	0.101500
526.777018	0.101463
526.993316	0.101355
527.209597	0.101976
527.425858	0.102322
527.642102	0.101782
527.858328	0.102128
528.074535	0.102012
528.290724	0.103384
528.506894	0.104032
528.723047	0.105168
528.939181	0.106329
529.155297	0.106281
529.371395	0.106581
529.587475	0.108302
529.803536	0.108388
530.019579	0.107548
530.235604	0.107803
530.451611	0.107618
530.667600	0.107096
530.883570	0.107003
531.099522	0.107299
531.315456	0.108018
531.531372	0.107402
531.747269	0.107864
531.963148	0.108715
532.179009	0.107950
532.394852	0.107796
532.610676	0.108329
532.826482	0.108544
533.042271	0.109557
533.258040	0.109411
533.473792	0.109321
533.689525	0.109119
533.905240	0.109240
534.120937	0.109620
534.336616	0.110958
534.552277	0.110918
534.767919	0.110911
534.983543	0.111258
535.199149	0.111733
535.414736	0.112259
535.630306	0.112615
535.845857	0.113538
536.061390	0.114843
536.276904	0.113968
536.492401	0.114672
536.707879	0.115117
536.923339	0.115624
537.138781	0.115795
537.354204	0.116037
537.569610	0.115985
537.784997	0.116138
538.000366	0.116305
538.215716	0.117261
538.431049	0.116951
538.646363	0.117313
538.861659	0.116882
539.076937	0.117193
539.292196	0.117850
539.507438	0.118220
539.722661	0.117960
539.937866	0.117342
540.153052	0.118160
540.368221	0.118509
540.583371	0.118903
540.798503	0.119789
541.013617	0.120293
541.228712	0.120414
541.443789	0.121388
541.658848	0.121693
541.873889	0.123460
542.088912	0.123258
542.303916	0.124564
542.518902	0.124639
542.733870	0.124036
542.948820	0.124507
543.163752	0.124914
543.378665	0.124742
543.593560	0.125555
543.808437	0.125276
544.023295	0.125765
544.238136	0.126158
544.452958	0.126294
544.667762	0.127083
544.882548	0.127711
545.097315	0.128085
545.312064	0.128121
545.526795	0.127970
545.741508	0.127875
545.956203	0.129134
546.170879	0.128759
546.385537	0.129271
546.600177	0.129590
546.814799	0.129600
547.029402	0.129631
547.243988	0.130373
547.458555	0.130649
547.673103	0.131132
547.887634	0.130769
548.102146	0.131243
548.316640	0.131696
548.531116	0.131814
548.745574	0.131881
548.960013	0.132083
549.174435	0.132818
549.388838	0.132941
549.603222	0.132864
549.817589	0.132428
550.031937	0.132772
550.246267	0.132649
550.460579	0.132555
550.674873	0.132531
550.889148	0.132113
551.103405	0.131952
551.317644	0.133292
551.531865	0.134087
551.746068	0.134505
551.960252	0.134708
552.174418	0.134852
552.388566	0.136077
552.602696	0.136691
552.816807	0.137882
553.030900	0.136644
553.244975	0.135948
553.459032	0.136287
553.673070	0.136878
553.887091	0.136542
554.101093	0.137251
554.315077	0.136969
554.529042	0.136910
554.742990	0.136401
554.956919	0.137513
555.170830	0.137437
555.384722	0.136702
555.598597	0.136292
555.812453	0.136470
556.026291	0.136622
556.240111	0.136182
556.453913	0.135690
556.667696	0.136583
556.881461	0.136861
557.095208	0.137601
557.308937	0.138036
557.522647	0.137597
557.736339	0.137630
557.950013	0.137586
558.163669	0.137690
558.377307	0.138424
558.590926	0.137943
558.804527	0.138235
559.018110	0.138057
559.231675	0.138591
559.445221	0.139648
559.658749	0.140280
559.872259	0.140442
560.085751	0.141368
560.299225	0.141370
560.512680	0.141451
560.726117	0.142101
560.939536	0.142805
561.152937	0.142815
561.366319	0.143111
561.579683	0.142905
561.793029	0.143512
562.006357	0.143832
562.219667	0.144009
562.432958	0.144788
562.646231	0.144486
562.859486	0.144181
563.072723	0.144725
563.285941	0.144961
563.499141	0.145808
563.712323	0.145602
563.925487	0.145529
564.138632	0.145917
564.351760	0.146217
564.564869	0.146307
564.777960	0.146112
564.991032	0.145612
565.204087	0.145466
565.417123	0.145766
565.630141	0.146273
565.843140	0.147542
566.056122	0.147107
566.269085	0.147504
566.482030	0.147445
566.694957	0.148377
566.907866	0.149679
567.120756	0.150419
567.333628	0.150362
567.546482	0.149926
567.759318	0.149778
567.972135	0.151014
568.184935	0.150609
568.397716	0.151575
568.610478	0.151678
568.823223	0.151485
569.035949	0.151063
569.248657	0.151467
569.461347	0.152180
569.674019	0.151721
569.886672	0.151750
570.099308	0.152645
570.311925	0.152769
570.524523	0.152950
570.737104	0.153119
570.949666	0.153467
571.162210	0.153082
571.374736	0.153094
571.587244	0.153984
571.799733	0.153756
572.012205	0.153425
572.224658	0.152531
572.437092	0.152767
572.649509	0.152553
572.861907	0.152704
573.074287	0.153096
573.286649	0.153006
573.498993	0.152152
573.711318	0.152094
573.923625	0.151680
574.135914	0.152317
574.348185	0.152109
574.560438	0.151812
574.772672	0.151653
574.984888	0.151910
575.197086	0.152386
575.409266	0.152717
575.621427	0.153318
575.833570	0.153933
576.045695	0.153833
576.257802	0.154096
576.469890	0.154701
576.681961	0.155066
576.894013	0.154707
577.106046	0.154662
577.318062	0.154377
577.530059	0.154352
577.742039	0.154154
577.954000	0.155183
578.165942	0.155501
578.377867	0.155714
578.589773	0.155636
578.801661	0.155734
579.013531	0.155678
579.225382	0.156209
579.437216	0.156622
579.649031	0.156385
579.860828	0.155589
580.072606	0.155789
580.284367	0.155866
580.496109	0.156447
580.707833	0.156456
580.919539	0.156837
581.131227	0.157065
581.342896	0.156565
581.554547	0.157110
581.766180	0.158334
581.977795	0.158116
582.189391	0.158090
582.400969	0.158019
582.612529	0.158995
582.824071	0.159456
583.035595	0.159758
583.247100	0.160951
583.458587	0.162041
583.670056	0.161322
583.881506	0.161969
584.092939	0.162444
584.304353	0.163019
584.515749	0.163069
584.727127	0.163085
584.938486	0.163099
585.149828	0.163171
585.361151	0.163047
585.572456	0.163643
585.783742	0.164085
585.995011	0.164460
586.206261	0.164668
586.417493	0.164688
586.628706	0.164547
586.839902	0.164714
587.051079	0.164384
587.262238	0.164106
587.473379	0.164372
587.684502	0.163688
587.895606	0.163119
588.106692	0.163356
588.317760	0.163391
588.528810	0.163832
588.739841	0.164231
588.950855	0.164954
589.161850	0.165405
589.372827	0.165667
589.583785	0.166321
589.794726	0.167161
590.005648	0.166886
590.216552	0.167086
590.427437	0.166825
590.638305	0.166630
590.849154	0.166578
591.059985	0.166863
591.270798	0.167100
591.481592	0.167057
591.692369	0.167251
591.903127	0.167447
592.113867	0.167959
592.324588	0.168575
592.535292	0.169044
592.745977	0.168904
592.956644	0.168690
593.167293	0.168925
593.377923	0.169228
593.588536	0.168973
593.799130	0.169284
594.009706	0.169370
594.220263	0.169221
594.430803	0.169297
594.641324	0.169528
594.851827	0.170144
595.062312	0.169645
595.272778	0.169967
595.483227	0.170614
595.693657	0.170695
595.904069	0.170659
596.114462	0.171218
596.324838	0.171153
596.535195	0.171511
596.745534	0.171383
596.955855	0.172063
597.166157	0.172472
597.376441	0.172489
597.586707	0.172642
597.796955	0.173007
598.007185	0.172878
598.217396	0.172993
598.427589	0.173379
598.637764	0.173836
598.847921	0.173785
599.058060	0.173734
599.268180	0.173361
599.478282	0.173625
599.688366	0.173717
599.898431	0.173996
600.108479	0.174415
600.318508	0.174550
600.528519	0.174719
600.738511	0.174864
600.948486	0.175425
601.158442	0.176452
601.368380	0.176973
601.578300	0.177300
601.788202	0.177054
601.998085	0.176798
602.207950	0.176594
602.417797	0.176717
602.627626	0.176860
602.837436	0.176756
603.047228	0.176174
603.257002	0.175537
603.466758	0.175750
603.676496	0.176731
603.886215	0.176932
604.095916	0.177258
604.305599	0.177233
604.515264	0.177417
604.724910	0.177867
604.934538	0.178345
605.144148	0.178907
605.353740	0.178880
605.563314	0.178644
605.772869	0.179134
605.982406	0.178907
606.191925	0.179029
606.401425	0.179361
606.610908	0.178813
606.820372	0.179147
607.029818	0.179827
607.239246	0.179934
607.448655	0.180050
607.658047	0.180306
607.867420	0.180409
608.076775	0.180965
608.286111	0.181374
608.495430	0.181483
608.704730	0.181940
608.914012	0.181371
609.123275	0.182219
609.332521	0.182407
609.541748	0.182455
609.750957	0.183080
609.960148	0.183159
610.169321	0.182880
610.378475	0.182909
610.587611	0.182402
610.796729	0.182777
611.005829	0.181870
611.214910	0.182082
611.423974	0.182106
611.633019	0.181820
611.842045	0.181686
612.051054	0.182082
612.260044	0.182758
612.469017	0.183170
612.677970	0.183631
612.886906	0.184223
613.095824	0.184468
613.304723	0.184856
613.513604	0.185698
613.722467	0.185801
613.931311	0.185513
614.140138	0.185437
614.348946	0.185136
614.557736	0.185154
614.766507	0.185440
614.975261	0.185355
615.183996	0.185212
615.392713	0.185232
615.601412	0.185338
615.810092	0.185765
616.018754	0.185852
616.227399	0.186258
616.436024	0.186124
616.644632	0.186058
616.853222	0.186443
617.061793	0.187092
617.270346	0.186466
617.478880	0.187008
617.687397	0.187189
617.895895	0.187825
618.104375	0.188513
618.312837	0.188793
618.521281	0.189128
618.729706	0.189171
618.938113	0.188996
619.146502	0.189435
619.354873	0.189382
619.563226	0.189280
619.771560	0.189385
619.979876	0.189443
620.188174	0.189903
620.396453	0.190097
620.604715	0.190290
620.812958	0.190599
621.021183	0.190817
621.229390	0.191150
621.437578	0.191672
621.645748	0.191752
621.853900	0.191866
622.062034	0.191958
622.270150	0.191781
622.478247	0.191956
622.686326	0.192281
622.894387	0.192810
623.102430	0.192750
623.310454	0.192745
623.518461	0.192509
623.726449	0.192634
623.934418	0.192823
624.142370	0.193398
624.350303	0.193360
624.558218	0.193037
624.766115	0.193229
624.973994	0.193805
625.181855	0.194193
625.389697	0.194210
625.597521	0.194180
625.805327	0.194017
626.013114	0.194250
626.220883	0.194890
626.428634	0.195160
626.636367	0.194961
626.844082	0.194798
627.051778	0.194976
627.259457	0.195993
627.467117	0.196259
627.674758	0.196592
627.882382	0.196587
628.089987	0.196807
628.297574	0.197247
628.505143	0.197284
628.712694	0.197892
628.920226	0.197965
629.127740	0.197658
629.335236	0.198421
629.542714	0.198406
629.750174	0.198436
629.957615	0.197989
630.165038	0.197782
630.372443	0.197977
630.579829	0.197898
630.787198	0.198030
630.994548	0.198622
631.201880	0.198505
631.409194	0.198748
631.616489	0.199134
631.823766	0.199654
632.031025	0.199871
632.238266	0.200669
632.445489	0.200792
632.652693	0.201273
632.859879	0.201076
633.067047	0.200890
633.274197	0.201559
633.481329	0.201598
633.688442	0.201756
633.895537	0.202585
634.102614	0.202328
634.309672	0.201923
634.516713	0.201872
634.723735	0.202126
634.930739	0.202631
635.137724	0.202171
635.344692	0.202446
635.551641	0.203073
635.758572	0.202745
635.965485	0.203113
636.172379	0.203821
636.379256	0.204305
636.586114	0.204504
636.792954	0.204457
636.999775	0.204699
637.206579	0.204758
637.413364	0.204680
637.620131	0.205109
637.826880	0.205462
638.033610	0.205674
638.240323	0.205889
638.447017	0.206595
638.653692	0.206926
638.860350	0.207094
639.066990	0.207447
639.273611	0.207601
639.480214	0.207539
639.686798	0.207730
639.893365	0.208183
640.099913	0.208051
640.306443	0.207740
640.512955	0.207696
640.719449	0.208048
640.925924	0.208134
641.132381	0.208394
641.338820	0.208549
641.545241	0.208467
641.751644	0.208501
641.958028	0.208545
642.164394	0.208486
642.370742	0.208485
642.577071	0.208472
642.783383	0.208824
642.989676	0.208507
643.195951	0.208706
643.402207	0.208644
643.608446	0.208879
643.814666	0.209043
644.020868	0.209120
644.227052	0.209606
644.433218	0.210484
644.639365	0.210586
644.845494	0.211001
645.051605	0.211095
645.257698	0.211736
645.463772	0.211524
645.669828	0.211984
645.875866	0.212261
646.081886	0.212653
646.287888	0.212276
646.493871	0.212323
646.699836	0.212507
646.905783	0.212799
647.111712	0.212683
647.317622	0.212792
647.523514	0.212970
647.729388	0.213497
647.935244	0.213366
648.141082	0.213955
648.346901	0.214538
648.552702	0.215346
648.758485	0.215857
648.964250	0.216540
649.169996	0.217127
649.375724	0.216924
649.581434	0.217127
649.787126	0.217633
649.992800	0.217709
650.198455	0.217795
650.404092	0.217226
650.609711	0.217515
650.815311	0.217698
651.020894	0.217834
651.226458	0.218004
651.432004	0.218145
651.637532	0.218632
651.843041	0.219123
652.048532	0.219129
652.254006	0.219567
652.459460	0.219577
652.664897	0.219653
652.870315	0.220148
653.075716	0.221023
653.281097	0.221440
653.486461	0.221422
653.691807	0.221586
653.897134	0.222112
654.102443	0.223048
654.307734	0.223459
654.513006	0.224008
654.718261	0.224230
654.923497	0.224352
655.128715	0.224538
655.333915	0.224908
655.539096	0.225053
655.744259	0.225442
655.949404	0.225188
656.154531	0.225109
656.359640	0.225423
656.564730	0.225419
656.769802	0.225936
656.974856	0.226145
657.179892	0.226128
657.384909	0.226132
657.589908	0.226374
657.794889	0.226355
657.999852	0.226446
658.204797	0.226109
658.409723	0.226090
658.614631	0.225982
658.819521	0.226287
659.024393	0.226342
659.229246	0.226888
659.434081	0.226830
659.638898	0.227214
659.843697	0.228127
660.048478	0.228529
660.253240	0.228908
660.457984	0.229122
660.662710	0.228858
660.867417	0.229410
661.072107	0.229457
661.276778	0.229832
661.481431	0.230233
661.686066	0.230131
661.890682	0.230522
662.095281	0.231065
662.299861	0.231398
662.504422	0.231838
662.708966	0.231925
662.913491	0.232442
663.117999	0.232884
663.322488	0.232888
663.526958	0.233190
663.731411	0.233496
663.935845	0.234088
664.140261	0.234172
664.344659	0.234765
664.549038	0.235006
664.753400	0.234823
664.957743	0.234511
665.162068	0.235074
665.366375	0.235844
665.570663	0.236323
665.774933	0.236547
665.979185	0.237046
666.183419	0.237270
666.387635	0.237592
666.591832	0.238076
666.796011	0.239063
667.000172	0.238931
667.204315	0.238848
667.408439	0.238778
667.612545	0.238701
667.816634	0.239034
668.020703	0.239229
668.224755	0.239235
668.428788	0.239235
668.632803	0.239558
668.836800	0.240147
669.040779	0.240346
669.244739	0.240739
669.448681	0.241017
669.652605	0.240884
669.856511	0.241306
670.060399	0.241859
670.264268	0.242232
670.468119	0.241989
670.671952	0.242185
670.875767	0.242264
671.079563	0.242246
671.283341	0.242391
671.487101	0.242601
671.690843	0.242833
671.894567	0.242996
672.098272	0.243416
672.301959	0.243470
672.505628	0.243445
672.709278	0.243523
672.912911	0.243823
673.116525	0.244166
673.320121	0.244514
673.523699	0.244638
673.727258	0.245055
673.930799	0.245149
674.134322	0.245358
674.337827	0.245703
674.541314	0.245763
674.744782	0.245865
674.948232	0.245862
675.151664	0.246037
675.355078	0.246268
675.558474	0.246465
675.761851	0.246737
675.965210	0.247286
676.168551	0.247403
676.371873	0.247833
676.575178	0.247946
676.778464	0.248490
676.981732	0.248914
677.184981	0.249059
677.388213	0.249141
677.591426	0.249132
677.794621	0.249150
677.997798	0.249980
678.200956	0.250283
678.404097	0.250558
678.607219	0.250771
678.810323	0.250821
679.013408	0.250741
679.216476	0.251464
679.419525	0.251763
679.622556	0.252214
679.825569	0.252125
680.028563	0.252613
680.231540	0.252972
680.434498	0.253088
680.637438	0.253701
680.840359	0.254433
681.043263	0.254544
681.246148	0.254926
681.449015	0.254850
681.651864	0.254994
681.854694	0.254874
682.057506	0.254797
682.260301	0.255332
682.463076	0.255597
682.665834	0.255567
682.868573	0.255619
683.071295	0.255862
683.273998	0.256409
683.476682	0.256598
683.679349	0.257152
683.881997	0.257744
684.084627	0.257947
684.287239	0.257830
684.489833	0.258283
684.692408	0.258071
684.894965	0.258541
685.097504	0.258741
685.300025	0.258889
685.502527	0.258808
685.705012	0.258796
685.907478	0.259073
686.109925	0.259462
686.312355	0.259581
686.514766	0.260254
686.717159	0.260196
686.919534	0.260268
687.121891	0.260519
687.324230	0.260736
687.526550	0.261102
687.728852	0.260627
687.931136	0.260716
688.133401	0.260593
688.335649	0.260538
688.537878	0.260612
688.740089	0.260743
688.942281	0.260993
689.144456	0.261420
689.346612	0.261615
689.548750	0.261813
689.750870	0.261924
689.952971	0.262163
690.155055	0.262632
690.357120	0.263152
690.559167	0.263092
690.761195	0.263192
690.963206	0.263581
691.165198	0.263679
691.367172	0.264385
691.569128	0.264635
691.771065	0.265150
691.972984	0.265259
692.174885	0.265244
692.376768	0.266111
692.578633	0.266410
692.780479	0.266171
692.982308	0.266659
693.184118	0.266465
693.385909	0.266490
693.587683	0.266737
693.789438	0.266726
