sample name	sample
index	1447
start time	 05-10-2021  01:17:18 PM
880	0.290369
Peak Time (s)	92.535
Peak Height 	0.2904
calc peak height	90,93
Baseline Time (s)	9.537
Baseline Value 	-0.005306
subtract baseline	10,4
Abs	0.184867
Peak Time (s)	91.535
Peak Height 	0.1849
calc peak height	90,93
Baseline Time (s)	10.037
Baseline Value 	0.001627
subtract baseline	10,3
PK_550	0.102030
Peak Time (s)	92.035
Peak Height 	0.102
calc peak height	90,93
Baseline Time (s)	9.537
Baseline Value 	1.9761E-4
subtract baseline	10,2
PK_880	0.167760
Peak Time (s)	91.038
Peak Height 	0.1678
calc peak height	90,93
Baseline Time (s)	10.037
Baseline Value 	0.001521
subtract baseline	10,1


Time (s)	A880-A510	A880-A775	A880-A975	A880	I510	I775	I975	I880	
0.034500	-0.001626	0.000062	0.002504	0.006716	6438.971772	43598.636178	3940.596001	22444.759838
0.534500	-0.000952	-0.000079	-0.001644	0.005542	6454.273767	43695.419924	3932.916784	22497.770054
1.035000	-0.000986	-0.000011	-0.000153	0.004888	6459.421189	43763.238136	3938.448790	22527.356728
1.535500	-0.000333	0.000590	-0.006850	0.006441	6451.953991	43673.828192	3917.316254	22457.168218
2.036000	-0.002216	-0.000158	-0.003942	0.005789	6441.756976	43664.814925	3926.384829	22486.597328
2.539000	-0.000003	-0.000305	-0.002623	0.001940	6492.234182	44013.441710	3939.685479	22661.311147
3.036500	0.003260	0.000647	-0.004678	-0.000295	6538.632127	44315.914323	3940.150698	22763.489869
3.536500	-0.001833	-0.000368	0.000934	0.004906	6452.233692	43727.995665	3941.217659	22526.539257
4.037000	-0.002358	0.000113	-0.003523	0.004159	6454.081222	43843.446488	3931.638850	22560.404753
4.537000	0.000295	-0.000357	-0.004282	0.000485	6506.965954	44146.347645	3939.159099	22727.797306
5.076500	-0.000223	0.000800	0.004883	0.000869	6499.380621	44219.824699	3962.115486	22710.250496
5.537000	0.000281	0.000629	-0.005213	0.000673	6505.259535	44222.098720	3936.265068	22719.169073
6.035000	-0.000998	-0.000342	-0.004309	0.000496	6496.005430	44146.739567	3939.060894	22727.289006
6.535500	-0.000818	0.000018	0.000956	0.000561	6496.967116	44174.824687	3952.597011	22724.331899
7.038500	0.001995	0.000487	0.003191	0.000618	6520.187409	44213.932506	3958.314599	22721.719875
7.536000	0.000934	0.000308	0.002156	-0.000061	6516.959061	44261.453184	3957.377619	22752.790189
8.036000	0.001913	-0.000753	0.000763	-0.000154	6526.018940	44169.431112	3953.963595	22757.049093
8.536500	-0.000353	0.000751	0.001375	0.000953	6497.583586	44207.099656	3952.666434	22706.387481
9.037000	0.001136	0.000609	0.003658	0.000819	6511.232127	44206.376879	3959.014614	22712.497609
9.537500	-0.000558	0.000000	-0.003297	0.000000	6503.867501	44226.332460	3942.968093	22749.992058
10.037000	0.000000	-0.000460	0.000000	-0.000634	6513.913227	44242.888170	3953.223919	22779.072777
10.535000	0.001365	0.000725	-0.002651	0.000243	6518.029001	44272.197890	3944.015516	22738.870108
11.035000	-0.001322	-0.000656	-0.002402	-0.000899	6504.999844	44249.398019	3947.635779	22791.195510
11.538500	0.000669	-0.000178	0.000739	-0.000213	6515.998214	44229.606703	3954.056085	22759.736768
12.036000	0.000084	-0.000076	-0.004094	-0.000022	6509.461575	44221.195857	3940.957921	22751.009445
12.536000	0.000761	0.000459	0.002698	0.000398	6511.618649	44232.146851	3957.597164	22731.762176
13.036500	0.000959	0.000017	0.001156	0.000209	6514.887364	44208.049761	3954.041281	22740.408342
13.540000	-0.002943	-0.000613	-0.001054	0.005312	6439.689578	43666.921606	3935.028982	22508.189411
14.037000	-0.000764	0.000461	-0.004161	0.002496	6481.206907	44033.337745	3934.279236	22636.008619
14.538000	-0.000979	-0.000499	-0.003330	0.001981	6483.720117	43991.286448	3937.753147	22659.479000
15.034500	0.000202	0.000190	0.001637	0.000618	6505.064124	44185.681711	3954.231596	22721.706493
15.535000	-0.002163	0.000420	-0.000073	0.006436	6436.845529	43658.309453	3934.658886	22457.367560
16.035500	-0.002181	-0.000253	-0.004490	0.003196	6463.554403	43899.701873	3931.630140	22604.139545
16.536000	-0.001258	-0.000750	0.001868	-0.000347	6500.898152	44188.048109	3957.374314	22765.905072
17.036500	0.002300	0.000317	0.003550	-0.002941	6552.983751	44537.227510	3968.673949	22885.162518
17.536500	0.001284	0.000299	0.001750	0.001453	6507.137105	44116.774929	3952.339459	22683.549517
18.036500	-0.002115	-0.000154	0.002252	0.002229	6472.155822	44000.419393	3951.623073	22648.160442
18.537000	-0.000485	0.000985	0.002848	0.002236	6485.712118	44107.559732	3953.165237	22647.835477
19.037500	-0.000688	0.000514	0.002081	0.001455	6490.560273	44136.917719	3953.200629	22683.455124
19.535000	0.000539	0.000876	-0.002455	0.001912	6497.012375	44127.900717	3940.194197	22662.596224
20.035000	-0.003463	-0.000472	0.000825	0.001844	6464.135546	44006.780083	3948.900337	22665.720336
20.535500	-0.001935	-0.000758	0.001743	0.000624	6487.071394	44095.110173	3954.492677	22721.417599
21.035500	-0.000893	0.000046	0.003875	0.001816	6485.823584	44058.436027	3956.963111	22667.008361
21.536000	0.001266	0.000151	0.000907	0.001680	6505.080874	44081.243478	3949.543323	22673.213571
22.036500	-0.000327	0.000273	0.004047	0.002810	6482.231539	43985.865865	3954.803730	22621.692916
22.536500	-0.001844	0.000700	0.004484	0.002018	6476.185329	44101.221564	3958.033756	22657.794544
23.036500	-0.000011	0.000678	0.000089	0.002070	6491.082323	44094.211650	3946.392635	22655.416972
23.534500	-0.001326	0.000309	0.001874	0.001985	6480.788813	44067.390956	3951.273324	22659.300197
24.037500	-0.000335	0.000002	-0.000832	0.002156	6487.640975	44022.035790	3943.772389	22651.491871
24.535000	0.000962	0.000581	0.002434	0.002445	6496.093427	44049.512593	3951.533889	22638.310479
25.035500	0.000353	0.000307	-0.001331	0.002087	6493.986947	44057.438205	3942.653219	22654.623804
25.538000	-0.001180	-0.000287	-0.001967	0.001340	6487.395316	44071.906900	3942.940740	22688.689124
26.036000	0.000441	0.000998	0.001287	0.003863	6479.855833	43954.812913	3944.841295	22573.836530
26.536000	0.001482	0.000000	0.004963	0.001841	6505.543831	44051.736901	3959.761055	22665.850558
27.036500	-0.000361	0.000650	-0.001408	-0.000818	6512.416201	44366.169262	3950.021693	22787.500615
27.536500	-0.002541	0.000541	0.001611	0.006699	6431.561789	43645.086964	3938.329034	22445.533569
28.037000	-0.002439	-0.000589	-0.001675	0.004774	6448.307746	43719.626825	3934.812984	22532.521844
28.537500	0.001181	0.001069	0.001805	0.001809	6503.283048	44156.097331	3951.552514	22667.330433
29.040000	0.001563	0.001107	0.003454	0.001459	6509.436179	44192.851916	3956.794589	22683.270126
29.535500	-0.002126	-0.000061	-0.001980	0.005001	6449.026194	43747.936708	3933.443990	22522.267391
30.035000	0.000542	-0.000309	0.000543	0.000472	6509.154699	44152.186902	3951.747787	22728.392094
30.538000	-0.002595	0.000187	-0.002421	0.003074	6461.126324	43952.736830	3937.274621	22609.690056
31.036000	-0.001254	0.001170	0.002093	0.002760	6474.914000	44075.447343	3949.820637	22623.997694
31.536500	-0.000794	0.000356	-0.002084	0.005582	6455.251461	43732.523896	3931.681523	22495.952404
32.036500	0.001640	0.001109	0.003158	0.001377	6510.777026	44200.857161	3956.231854	22687.014054
32.536500	0.000583	0.000105	0.001276	0.000209	6511.724482	44216.524840	3954.358117	22740.441429
33.037000	0.001860	0.000576	0.003019	-0.000213	6526.066323	44301.413804	3960.050918	22759.750333
33.540000	-0.001077	-0.000450	-0.001324	0.002441	6479.049635	43952.420294	3941.754936	22638.498571
34.035000	-0.001083	-0.000111	0.001807	0.001909	6483.444616	44034.704509	3951.295495	22662.741514
34.535000	-0.000193	0.000245	0.000012	0.001825	6491.606843	44076.442089	3946.830588	22666.589545
35.035500	0.000865	0.001044	-0.000851	0.002646	6493.590246	44074.320449	3942.449907	22629.156403
35.536000	0.000553	0.000543	0.005333	0.003048	6487.612120	43988.864678	3957.555541	22610.873424
36.035500	0.000842	0.000279	0.003770	0.002308	6496.237798	44033.839073	3955.393818	22644.540419
36.536000	-0.002584	0.000608	-0.002010	0.002259	6468.002004	44069.718097	3940.448600	22646.794177
37.036500	-0.000624	0.000217	-0.002487	0.002051	6486.100765	44052.339303	3939.750392	22656.251918
37.537000	-0.000217	0.000776	-0.002759	0.002634	6484.627751	44050.093023	3937.540368	22629.706847
38.040000	-0.000751	0.000631	0.000527	0.002030	6485.219911	44093.527801	3947.637965	22657.235316
38.537500	0.000561	0.000012	0.004345	0.002018	6496.313443	44036.043294	3957.667258	22657.762206
39.035000	0.001644	-0.000011	0.002505	0.002122	6504.543359	44024.005543	3952.563806	22653.028387
39.535000	0.001596	0.000273	-0.000681	0.001926	6505.788847	44069.482420	3944.763317	22661.988627
40.035500	0.002187	0.001040	0.004888	0.003881	6494.317736	43957.078805	3954.199665	22573.006579
40.535500	0.001112	0.000577	0.000142	0.002352	6498.134045	44057.911866	3945.794732	22642.543423
41.036000	-0.000121	0.000446	0.000146	0.002793	6484.104268	44003.772555	3944.658881	22622.469778
41.536500	-0.000096	0.000378	0.003279	0.002827	6484.022744	43994.115210	3952.745394	22620.917918
42.037000	-0.000434	0.000256	0.002616	0.003866	6472.522976	43884.607172	3948.298750	22573.717474
42.536000	-0.001789	-0.000384	0.001954	0.002045	6476.419969	43996.138540	3951.326893	22656.568276
43.034000	-0.001334	0.000085	0.001074	0.002371	6477.492330	44009.615657	3948.175913	22641.701045
43.534500	0.003007	0.000827	0.002715	-0.001966	6550.697227	44492.694439	3963.877866	22840.246995
44.035500	-0.001689	0.000506	0.006247	0.004793	6454.363147	43820.733996	3955.372559	22531.647488
44.535500	0.000782	0.000986	0.002429	0.001542	6502.171852	44173.533399	3953.886512	22679.496089
45.036000	0.001596	0.000274	0.001473	0.001289	6511.147737	44129.921648	3952.042986	22691.034870
45.536000	0.000622	0.000417	-0.000084	0.001395	6502.060634	44133.485712	3947.700313	22686.194987
46.036500	-0.001040	0.000331	0.001969	0.004502	6462.185197	43831.733184	3944.954975	22544.870330
46.536500	0.000417	0.000221	0.002312	0.001500	6499.447816	44104.871633	3953.687778	22681.387892
47.037000	-0.000600	0.000313	0.001340	0.003077	6477.726378	43964.398059	3947.028787	22609.574576
47.537500	0.001912	0.000404	0.002056	0.003200	6497.733293	43961.438907	3948.574945	22603.973083
48.035000	-0.003081	0.000525	-0.001407	0.004232	6447.487467	43875.443813	3936.903544	22557.109688
48.537500	0.001656	0.001247	0.000807	0.001861	6506.840506	44168.034300	3948.809655	22664.954969
49.035500	0.002145	0.001064	0.001729	0.001203	6516.512902	44213.148808	3952.939996	22694.983977
49.535500	0.001876	0.000702	-0.002295	0.003103	6498.245906	43998.659810	3937.526098	22608.365905
50.035500	-0.002069	0.000274	0.000968	0.005595	6444.573801	43723.507077	3939.519211	22495.354881
50.536000	-0.003276	-0.010730	0.007039	0.006625	6426.116681	42609.007200	3952.646604	22448.872222
51.037000	0.008964	-0.022280	0.027420	0.225740	5071.081435	26263.120827	3535.000082	14686.876850
51.537000	-0.009787	-0.032838	-0.024085	-0.120076	7566.161423	53411.236420	4232.631597	29085.206367
52.037000	-0.027145	-0.110096	-0.045132	-0.290830	9563.904580	65535.000000	4815.999779	41718.157645
52.537000	-0.013813	-0.070598	-0.023342	-0.242253	9040.593972	64240.091308	4696.324850	37605.869908
53.035000	0.000531	-0.036269	-0.008100	-0.176519	8349.786488	59963.756711	4489.864893	32725.221444
53.534500	-0.008836	-0.025191	-0.007156	-0.102668	7390.813742	52289.591717	4231.070945	28054.754211
54.035500	-0.013412	-0.020705	-0.014577	-0.118805	7513.301939	54689.406937	4259.771894	29008.571575
54.535500	-0.005528	-0.030936	-0.007578	-0.173841	8240.252743	60313.482100	4481.573933	32541.621927
55.036000	0.008994	-0.022831	0.010252	-0.149822	8123.664607	58249.186167	4457.994769	30944.554825
55.539000	0.012745	-0.011163	0.024862	-0.056863	7144.486324	48807.609415	4186.831385	25532.615302
56.036000	0.022114	-0.000520	0.037721	0.021709	6511.974884	42166.219510	3994.238634	21780.094103
56.539500	0.030519	0.004122	0.040785	0.051154	6338.812440	39988.821702	3924.754530	20539.733523
57.037000	0.046018	0.012605	0.056135	0.069935	6312.551601	39120.650145	3916.024274	19791.409047
57.534500	0.049415	0.018098	0.052281	0.061415	6408.866856	40307.090022	3927.913860	20126.876123
58.035000	0.060679	0.024795	0.073738	0.092664	6248.822603	38253.158666	3903.107406	18927.990413
58.535500	0.075327	0.036131	0.079557	0.108190	6241.964512	37914.184758	3879.062059	18363.665863
59.035500	0.086488	0.044201	0.095779	0.142722	6064.276896	35846.769967	3835.145860	17178.540774
59.536000	0.096194	0.047135	0.111304	0.163144	5985.944391	34548.022716	3823.710907	16520.738628
60.039000	0.104160	0.052401	0.111876	0.183003	5901.240714	33503.564095	3779.905014	15910.062840
60.536500	0.108567	0.056635	0.119722	0.196454	5838.372956	32861.803949	3767.535784	15512.033865
61.036500	0.114860	0.062237	0.129433	0.205322	5820.708050	32637.600422	3769.386299	15256.267341
61.537000	0.118169	0.064930	0.132459	0.242580	5597.356846	30365.652258	3697.068567	14236.999344
62.034000	0.124037	0.073723	0.132037	0.243655	5627.843640	30857.402117	3694.033883	14208.873596
62.534500	0.120844	0.073150	0.133317	0.234982	5663.104624	31382.921590	3714.403900	14437.805284
63.047000	0.129321	0.078584	0.142802	0.231631	5740.770560	31964.201859	3741.377774	14527.521148
63.535000	0.131802	0.082036	0.137467	0.232507	5751.468330	32136.806389	3728.224991	14503.992170
64.038500	0.129502	0.082098	0.137310	0.234707	5721.568015	31993.489002	3723.285775	14445.163997
64.538500	0.133109	0.086105	0.142670	0.230174	5775.888853	32570.400946	3744.206289	14566.724838
65.036500	0.135428	0.086564	0.145527	0.229785	5794.181987	32628.302168	3751.174234	14577.202493
65.536500	0.138746	0.087818	0.146672	0.231076	5807.960867	32625.798896	3750.861528	14542.442041
66.036500	0.138803	0.087538	0.141586	0.233508	5791.826784	32440.973491	3734.804576	14477.179591
66.537000	0.142099	0.089382	0.150137	0.229606	5840.987156	32833.913270	3761.552674	14582.050197
67.037500	0.144516	0.092446	0.151060	0.231616	5843.785207	32906.520951	3759.186676	14527.903984
67.537500	0.146920	0.092167	0.149034	0.233067	5850.363547	32787.425607	3751.659972	14488.993640
68.035000	0.142592	0.093403	0.149948	0.237019	5793.707616	32601.315817	3745.133354	14383.628658
68.535500	0.150765	0.094000	0.154594	0.233931	5871.022950	32854.068182	3761.839076	14465.860552
69.036000	0.151375	0.095441	0.155788	0.235439	5864.788789	32849.472531	3761.156946	14425.648228
69.536000	0.152360	0.096490	0.159488	0.238337	5851.537640	32722.397705	3762.906261	14348.713834
70.036500	0.153152	0.096765	0.157833	0.239288	5850.443292	32676.073428	3757.235254	14323.581198
70.536500	0.151207	0.096591	0.159714	0.240992	5825.339401	32547.793557	3757.619706	14278.689564
71.037000	0.151476	0.097232	0.157408	0.244332	5804.378409	32364.323160	3745.446575	14191.182457
71.537000	0.153895	0.096838	0.165453	0.248051	5795.546549	32086.979609	3754.758141	14094.543239
72.035000	0.152867	0.097003	0.156660	0.250339	5773.143670	31944.785984	3731.091376	14035.500258
72.535000	0.155385	0.097182	0.166543	0.253147	5771.191839	31769.763420	3746.131563	13963.468376
73.034500	0.152486	0.097640	0.163531	0.255546	5735.784704	31641.299875	3734.607805	13902.314429
73.535500	0.157038	0.099822	0.163896	0.260015	5736.331013	31490.538593	3725.961845	13789.250041
74.036000	0.153831	0.098251	0.165980	0.265632	5678.286606	31021.799562	3718.581493	13648.767165
74.536500	0.154939	0.100451	0.164298	0.264625	5692.090537	31229.989852	3717.179225	13673.818400
75.036500	0.156780	0.100781	0.169343	0.266062	5694.735668	31157.935794	3724.703226	13638.090886
75.537000	0.158667	0.099942	0.167487	0.267000	5700.964196	31042.741467	3718.872405	13614.850473
76.037000	0.159839	0.101611	0.167523	0.270683	5684.519482	30912.681927	3711.314528	13523.995547
76.534500	0.159651	0.101769	0.166757	0.272070	5674.264017	30833.635369	3706.883136	13489.991053
77.035000	0.162027	0.101454	0.174419	0.274352	5674.873322	30667.342109	3717.997567	13434.276253
77.535500	0.161705	0.102531	0.172139	0.276393	5659.549983	30605.940636	3709.061005	13384.703439
78.035500	0.158232	0.102164	0.172702	0.282018	5601.318811	30226.824064	3698.703445	13249.245529
78.535500	0.163014	0.102645	0.170058	0.278083	5657.088404	30505.683648	3701.332710	13343.807082
79.036000	0.162846	0.102352	0.175247	0.277904	5657.157774	30498.442012	3712.353379	13348.125788
79.536500	0.161643	0.102750	0.168894	0.278365	5646.420724	30494.410880	3698.387968	13336.994963
80.036500	0.157402	0.101359	0.168232	0.282586	5592.473859	30140.700191	3688.515389	13235.655012
80.537000	0.159689	0.101838	0.173197	0.277895	5636.891464	30466.454447	3708.149191	13348.361921
81.037500	0.159944	0.102423	0.170836	0.277597	5640.432716	30522.387674	3703.915619	13355.542196
81.534000	0.159622	0.102172	0.169103	0.277915	5636.329690	30486.354273	3699.729230	13347.877260
82.038000	0.159956	0.102335	0.174099	0.282835	5607.063087	30186.224181	3699.883173	13229.696521
82.535000	0.163239	0.102970	0.173384	0.278023	5658.928029	30530.165153	3708.268723	13345.264067
83.041000	0.162757	0.102214	0.170094	0.278039	5655.709711	30481.086511	3701.495449	13344.866222
83.536000	0.163047	0.103870	0.175833	0.279400	5648.798209	30499.784625	3710.474616	13312.050632
84.036500	0.160547	0.101897	0.170553	0.282586	5612.402017	30174.363109	3693.192921	13235.646168
84.536500	0.162964	0.102591	0.177178	0.278540	5653.813612	30473.216141	3715.031256	13332.776875
85.039500	0.164614	0.102250	0.176883	0.278352	5665.696740	30463.540394	3714.809474	13337.308824
85.534000	0.163583	0.104505	0.169902	0.281019	5641.835126	30437.450919	3695.048772	13273.169525
86.037000	0.161866	0.102848	0.176193	0.285415	5602.818852	30056.865079	3698.895481	13168.278015
86.540500	0.161935	0.102550	0.179197	0.280316	5635.762184	30358.341830	3715.536601	13290.037236
87.035000	0.165907	0.103336	0.178952	0.281932	5650.917190	30306.005663	3711.686276	13251.298471
87.535000	0.163449	0.103075	0.177514	0.282451	5631.785298	30256.861047	3707.654966	13238.874182
88.036000	0.169063	0.102941	0.177768	0.282593	5667.050285	30239.550132	3707.887576	13235.495134
88.535500	0.168307	0.102733	0.180380	0.283497	5656.301772	30169.642727	3711.403557	13213.898866
89.036000	0.165017	0.100574	0.175243	0.283205	5637.002633	30052.900304	3701.462692	13220.883046
89.535500	0.167781	0.103136	0.176651	0.286923	5630.883643	29980.780585	3696.759701	13132.527550
90.037000	0.164777	0.101687	0.177330	0.285677	5619.658488	29968.201735	3700.678002	13162.065313
90.537500	0.164534	0.101575	0.178759	0.287331	5607.584198	29858.492646	3700.217516	13122.894167
91.037500	0.167760	0.101517	0.180879	0.288279	5622.085184	29796.185380	3702.609438	13100.498239
91.535000	0.165699	0.101282	0.184867	0.289588	5600.666126	29700.920982	3708.101182	13069.692698
92.035500	0.165062	0.102030	0.184772	0.289901	5594.651338	29727.733528	3707.262097	13062.333320
92.535500	0.165277	0.100742	0.179690	0.290369	5593.050702	29619.646746	3695.934059	13051.335634
93.068500	0.167870	0.101429	0.184991	0.291283	5603.679597	29605.684305	3704.877542	13029.915880
93.535500	0.166849	0.099946	0.182859	0.291218	5597.627160	29518.797755	3700.653059	13031.435853
94.036000	0.168889	0.100893	0.183621	0.293343	5597.085347	29446.737399	3697.877063	12981.765399
94.536500	0.166000	0.099029	0.172452	0.292964	5581.255126	29356.271020	3676.220179	12990.612534
95.037500	0.163062	0.098756	0.178934	0.294262	5554.752433	29260.899083	3686.558270	12960.386102
95.537000	0.166305	0.098844	0.188121	0.295082	5569.881795	29216.560580	3703.507877	12941.325695
96.038000	0.165537	0.099726	0.179892	0.296150	5558.410437	29205.329341	3684.694001	12916.560223
