sample name	sample
index	1230
start time	 04-29-2021  11:07:49 AM


Wavelength (nm)	Absorbance
494.344910	0.427619
494.563924	0.427619
494.782919	0.427619
495.001897	-0.220584
495.220856	0.035489
495.439797	-0.003982
495.658719	-0.037528
495.877624	-0.042698
496.096510	-0.045031
496.315378	0.002406
496.534227	-0.009749
496.753059	0.029912
496.971872	0.051681
497.190667	0.112654
497.409444	0.129551
497.628203	0.138560
497.846943	0.137104
498.065665	0.139569
498.284369	0.138349
498.503055	0.138933
498.721723	0.139847
498.940372	0.141589
499.159003	0.142097
499.377616	0.142519
499.596210	0.141698
499.814787	0.141727
500.033345	0.141665
500.251885	0.142442
500.470406	0.141075
500.688910	0.140267
500.907395	0.139482
501.125862	0.139584
501.344311	0.138807
501.562742	0.138340
501.781154	0.139291
501.999548	0.138648
502.217924	0.138627
502.436282	0.139203
502.654621	0.139497
502.872942	0.139651
503.091245	0.139228
503.309530	0.139129
503.527797	0.140811
503.746045	0.140013
503.964275	0.139978
504.182487	0.139325
504.400681	0.140516
504.618856	0.140498
504.837013	0.139482
505.055152	0.139860
505.273273	0.141441
505.491376	0.140144
505.709460	0.140492
505.927526	0.141412
506.145574	0.142473
506.363604	0.142544
506.581615	0.142668
506.799608	0.143012
507.017583	0.143143
507.235540	0.142193
507.453478	0.141876
507.671399	0.141555
507.889301	0.142157
508.107185	0.141435
508.325050	0.140957
508.542898	0.140366
508.760727	0.140756
508.978538	0.141034
509.196330	0.141155
509.414105	0.142179
509.631861	0.142210
509.849599	0.141948
510.067319	0.143202
510.285021	0.143003
510.502704	0.143568
510.720369	0.143181
510.938016	0.142777
511.155645	0.142968
511.373255	0.142758
511.590848	0.143330
511.808422	0.144429
512.025977	0.143639
512.243515	0.145488
512.461034	0.145475
512.678536	0.146224
512.896018	0.146490
513.113483	0.146684
513.330930	0.146420
513.548358	0.146261
513.765768	0.145512
513.983160	0.145541
514.200533	0.144372
514.417889	0.145296
514.635226	0.146001
514.852545	0.146352
515.069845	0.147378
515.287128	0.148308
515.504392	0.148981
515.721638	0.148916
515.938866	0.148614
516.156075	0.148620
516.373267	0.149312
516.590440	0.149075
516.807594	0.148880
517.024731	0.148111
517.241850	0.147175
517.458950	0.146974
517.676032	0.147342
517.893095	0.148396
518.110141	0.150105
518.327168	0.150253
518.544177	0.150535
518.761168	0.151163
518.978141	0.152251
519.195095	0.153177
519.412031	0.154664
519.628949	0.155154
519.845849	0.155195
520.062731	0.154852
520.279594	0.154629
520.496439	0.154581
520.713266	0.154434
520.930074	0.153544
521.146865	0.153272
521.363637	0.153163
521.580391	0.153214
521.797127	0.153779
522.013844	0.154017
522.230543	0.154240
522.447224	0.154326
522.663887	0.155296
522.880532	0.156592
523.097158	0.157609
523.313766	0.157513
523.530356	0.156932
523.746928	0.157392
523.963481	0.157122
524.180017	0.157021
524.396534	0.158224
524.613032	0.157924
524.829513	0.157301
525.045975	0.157306
525.262420	0.157315
525.478845	0.158782
525.695253	0.158490
525.911643	0.159019
526.128014	0.159436
526.344367	0.159888
526.560702	0.160722
526.777018	0.161244
526.993316	0.161707
527.209597	0.162100
527.425858	0.161940
527.642102	0.162597
527.858328	0.163179
528.074535	0.163844
528.290724	0.163815
528.506894	0.164059
528.723047	0.164836
528.939181	0.164902
529.155297	0.165238
529.371395	0.166009
529.587475	0.166172
529.803536	0.165861
530.019579	0.165526
530.235604	0.165328
530.451611	0.165443
530.667600	0.165882
530.883570	0.166469
531.099522	0.167092
531.315456	0.166461
531.531372	0.166949
531.747269	0.167912
531.963148	0.168316
532.179009	0.168912
532.394852	0.169123
532.610676	0.168822
532.826482	0.168899
533.042271	0.168960
533.258040	0.169655
533.473792	0.169914
533.689525	0.169794
533.905240	0.170519
534.120937	0.170543
534.336616	0.170460
534.552277	0.171178
534.767919	0.171927
534.983543	0.172445
535.199149	0.173192
535.414736	0.173352
535.630306	0.173107
535.845857	0.173531
536.061390	0.173958
536.276904	0.174630
536.492401	0.174714
536.707879	0.174603
536.923339	0.174553
537.138781	0.174505
537.354204	0.174896
537.569610	0.175594
537.784997	0.175350
538.000366	0.175270
538.215716	0.175724
538.431049	0.175818
538.646363	0.176224
538.861659	0.177172
539.076937	0.177313
539.292196	0.177398
539.507438	0.178017
539.722661	0.178093
539.937866	0.179170
540.153052	0.179005
540.368221	0.180065
540.583371	0.180736
540.798503	0.180468
541.013617	0.180719
541.228712	0.181291
541.443789	0.181266
541.658848	0.181437
541.873889	0.181564
542.088912	0.182159
542.303916	0.181270
542.518902	0.181530
542.733870	0.181458
542.948820	0.181753
543.163752	0.182342
543.378665	0.181936
543.593560	0.182923
543.808437	0.182594
544.023295	0.182596
544.238136	0.183096
544.452958	0.182654
544.667762	0.183401
544.882548	0.183824
545.097315	0.183251
545.312064	0.184098
545.526795	0.184146
545.741508	0.185012
545.956203	0.185462
546.170879	0.185664
546.385537	0.186543
546.600177	0.186606
546.814799	0.186553
547.029402	0.187322
547.243988	0.187539
547.458555	0.187167
547.673103	0.186857
547.887634	0.187383
548.102146	0.187831
548.316640	0.187547
548.531116	0.187499
548.745574	0.187658
548.960013	0.187784
549.174435	0.187971
549.388838	0.188685
549.603222	0.189047
549.817589	0.188852
550.031937	0.189213
550.246267	0.189484
550.460579	0.190191
550.674873	0.190354
550.889148	0.190717
551.103405	0.190880
551.317644	0.191373
551.531865	0.191916
551.746068	0.192369
551.960252	0.192572
552.174418	0.193008
552.388566	0.192878
552.602696	0.193103
552.816807	0.193182
553.030900	0.193238
553.244975	0.193052
553.459032	0.193394
553.673070	0.193541
553.887091	0.193898
554.101093	0.193618
554.315077	0.193857
554.529042	0.194508
554.742990	0.194619
554.956919	0.195324
555.170830	0.195329
555.384722	0.195260
555.598597	0.195194
555.812453	0.195043
556.026291	0.195128
556.240111	0.195195
556.453913	0.195235
556.667696	0.195469
556.881461	0.195339
557.095208	0.196043
557.308937	0.196195
557.522647	0.196288
557.736339	0.196495
557.950013	0.196523
558.163669	0.196814
558.377307	0.196978
558.590926	0.197257
558.804527	0.197550
559.018110	0.196951
559.231675	0.196936
559.445221	0.197332
559.658749	0.197063
559.872259	0.197643
560.085751	0.197514
560.299225	0.197510
560.512680	0.197430
560.726117	0.197332
560.939536	0.197762
561.152937	0.198038
561.366319	0.197836
561.579683	0.198409
561.793029	0.198734
562.006357	0.199119
562.219667	0.198868
562.432958	0.198844
562.646231	0.198890
562.859486	0.198882
563.072723	0.198948
563.285941	0.199468
563.499141	0.199269
563.712323	0.199029
563.925487	0.198978
564.138632	0.199270
564.351760	0.199602
564.564869	0.200281
564.777960	0.200749
564.991032	0.200797
565.204087	0.201039
565.417123	0.201577
565.630141	0.202073
565.843140	0.202154
566.056122	0.202525
566.269085	0.202514
566.482030	0.202622
566.694957	0.202635
566.907866	0.202907
567.120756	0.202844
567.333628	0.203321
567.546482	0.203351
567.759318	0.203946
567.972135	0.204252
568.184935	0.204527
568.397716	0.204497
568.610478	0.204747
568.823223	0.204744
569.035949	0.204952
569.248657	0.204494
569.461347	0.204488
569.674019	0.204673
569.886672	0.204585
570.099308	0.204974
570.311925	0.204922
570.524523	0.205159
570.737104	0.205249
570.949666	0.205125
571.162210	0.205332
571.374736	0.205521
571.587244	0.205160
571.799733	0.205518
572.012205	0.205662
572.224658	0.206294
572.437092	0.206704
572.649509	0.207212
572.861907	0.207561
573.074287	0.207837
573.286649	0.208190
573.498993	0.208623
573.711318	0.208593
573.923625	0.208056
574.135914	0.207793
574.348185	0.207934
574.560438	0.207932
574.772672	0.208113
574.984888	0.208190
575.197086	0.207988
575.409266	0.207807
575.621427	0.207666
575.833570	0.207851
576.045695	0.207623
576.257802	0.207538
576.469890	0.207816
576.681961	0.208106
576.894013	0.208371
577.106046	0.208988
577.318062	0.209262
577.530059	0.209454
577.742039	0.209993
577.954000	0.210531
578.165942	0.210494
578.377867	0.209956
578.589773	0.209935
578.801661	0.210154
579.013531	0.210460
579.225382	0.210702
579.437216	0.211206
579.649031	0.211514
579.860828	0.211561
580.072606	0.211599
580.284367	0.212162
580.496109	0.212401
580.707833	0.212254
580.919539	0.211866
581.131227	0.212456
581.342896	0.212510
581.554547	0.212650
581.766180	0.213136
581.977795	0.213427
582.189391	0.213634
582.400969	0.213323
582.612529	0.213549
582.824071	0.213700
583.035595	0.213284
583.247100	0.213432
583.458587	0.213532
583.670056	0.213099
583.881506	0.213200
584.092939	0.213327
584.304353	0.214349
584.515749	0.214711
584.727127	0.214937
584.938486	0.214903
585.149828	0.214843
585.361151	0.214794
585.572456	0.215186
585.783742	0.215221
585.995011	0.215341
586.206261	0.214788
586.417493	0.214690
586.628706	0.214646
586.839902	0.215373
587.051079	0.215614
587.262238	0.215750
587.473379	0.216209
587.684502	0.216202
587.895606	0.216731
588.106692	0.216835
588.317760	0.217076
588.528810	0.217652
588.739841	0.217357
588.950855	0.218101
589.161850	0.218178
589.372827	0.218296
589.583785	0.218652
589.794726	0.218429
590.005648	0.218640
590.216552	0.218431
590.427437	0.218534
590.638305	0.219114
590.849154	0.218892
591.059985	0.219217
591.270798	0.219085
591.481592	0.219227
591.692369	0.219479
591.903127	0.219503
592.113867	0.220317
592.324588	0.220229
592.535292	0.220162
592.745977	0.220010
592.956644	0.220347
593.167293	0.220816
593.377923	0.221280
593.588536	0.221056
593.799130	0.221596
594.009706	0.221327
594.220263	0.221465
594.430803	0.221593
594.641324	0.221946
594.851827	0.221918
595.062312	0.222093
595.272778	0.221776
595.483227	0.221987
595.693657	0.222180
595.904069	0.222821
596.114462	0.222858
596.324838	0.222948
596.535195	0.223456
596.745534	0.223285
596.955855	0.223191
597.166157	0.223690
597.376441	0.223964
597.586707	0.224053
597.796955	0.223560
598.007185	0.224058
598.217396	0.224321
598.427589	0.224097
598.637764	0.224206
598.847921	0.224067
599.058060	0.224192
599.268180	0.224440
599.478282	0.224385
599.688366	0.224581
599.898431	0.224635
600.108479	0.224916
600.318508	0.224969
600.528519	0.225224
600.738511	0.225647
600.948486	0.225887
601.158442	0.226097
601.368380	0.226432
601.578300	0.227035
601.788202	0.227365
601.998085	0.227254
602.207950	0.227561
602.417797	0.227984
602.627626	0.228113
602.837436	0.228310
603.047228	0.228755
603.257002	0.228599
603.466758	0.228477
603.676496	0.228577
603.886215	0.228797
604.095916	0.228819
604.305599	0.228757
604.515264	0.228991
604.724910	0.228853
604.934538	0.228684
605.144148	0.229132
605.353740	0.229433
605.563314	0.229649
605.772869	0.229905
605.982406	0.230242
606.191925	0.230362
606.401425	0.230362
606.610908	0.230617
606.820372	0.230703
607.029818	0.230725
607.239246	0.230509
607.448655	0.230194
607.658047	0.230010
607.867420	0.229970
608.076775	0.230091
608.286111	0.230214
608.495430	0.230153
608.704730	0.230040
608.914012	0.230214
609.123275	0.230264
609.332521	0.230678
609.541748	0.230875
609.750957	0.231212
609.960148	0.231714
610.169321	0.231813
610.378475	0.231942
610.587611	0.232056
610.796729	0.232000
611.005829	0.232506
611.214910	0.232408
611.423974	0.232633
611.633019	0.232923
611.842045	0.232910
612.051054	0.233108
612.260044	0.233407
612.469017	0.233527
612.677970	0.233911
612.886906	0.234191
613.095824	0.234296
613.304723	0.234494
613.513604	0.234215
613.722467	0.234089
613.931311	0.234334
614.140138	0.234413
614.348946	0.234734
614.557736	0.234983
614.766507	0.235100
614.975261	0.235213
615.183996	0.235126
615.392713	0.235067
615.601412	0.235334
615.810092	0.235374
616.018754	0.235604
616.227399	0.235514
616.436024	0.235256
616.644632	0.234971
616.853222	0.235002
617.061793	0.235179
617.270346	0.235300
617.478880	0.235692
617.687397	0.235421
617.895895	0.235460
618.104375	0.235679
618.312837	0.235783
618.521281	0.235840
618.729706	0.235933
618.938113	0.235747
619.146502	0.235933
619.354873	0.235634
619.563226	0.235973
619.771560	0.235922
619.979876	0.236138
620.188174	0.236380
620.396453	0.236279
620.604715	0.236649
620.812958	0.236985
621.021183	0.237186
621.229390	0.237385
621.437578	0.237378
621.645748	0.237557
621.853900	0.237563
622.062034	0.237732
622.270150	0.238430
622.478247	0.238516
622.686326	0.238836
622.894387	0.239044
623.102430	0.239280
623.310454	0.239607
623.518461	0.239737
623.726449	0.240031
623.934418	0.240260
624.142370	0.240139
624.350303	0.240515
624.558218	0.240505
624.766115	0.240401
624.973994	0.240452
625.181855	0.240759
625.389697	0.240850
625.597521	0.240897
625.805327	0.240660
626.013114	0.240955
626.220883	0.240753
626.428634	0.241273
626.636367	0.241545
626.844082	0.241593
627.051778	0.241670
627.259457	0.242000
627.467117	0.242153
627.674758	0.242598
627.882382	0.242740
628.089987	0.242855
628.297574	0.242519
628.505143	0.242876
628.712694	0.242847
628.920226	0.242999
629.127740	0.242931
629.335236	0.243112
629.542714	0.243177
629.750174	0.243151
629.957615	0.243041
630.165038	0.243567
630.372443	0.243480
630.579829	0.243542
630.787198	0.243596
630.994548	0.243717
631.201880	0.243714
631.409194	0.243792
631.616489	0.244007
631.823766	0.244437
632.031025	0.244312
632.238266	0.244507
632.445489	0.244780
632.652693	0.244636
632.859879	0.244782
633.067047	0.244883
633.274197	0.245038
633.481329	0.245035
633.688442	0.244999
633.895537	0.245253
634.102614	0.245318
634.309672	0.245517
634.516713	0.246151
634.723735	0.246256
634.930739	0.246300
635.137724	0.246546
635.344692	0.246527
635.551641	0.246985
635.758572	0.247075
635.965485	0.247340
636.172379	0.247512
636.379256	0.247553
636.586114	0.247775
636.792954	0.248006
636.999775	0.248333
637.206579	0.248622
637.413364	0.248483
637.620131	0.248528
637.826880	0.248633
638.033610	0.248621
638.240323	0.248550
638.447017	0.248561
638.653692	0.248915
638.860350	0.248692
639.066990	0.249216
639.273611	0.249328
639.480214	0.249532
639.686798	0.249665
639.893365	0.249981
640.099913	0.250219
640.306443	0.250481
640.512955	0.250566
640.719449	0.250695
640.925924	0.250634
641.132381	0.250692
641.338820	0.250799
641.545241	0.250953
641.751644	0.251232
641.958028	0.251222
642.164394	0.251289
642.370742	0.251367
642.577071	0.251526
642.783383	0.251498
642.989676	0.251822
643.195951	0.251990
643.402207	0.252014
643.608446	0.252021
643.814666	0.252360
644.020868	0.252630
644.227052	0.252902
644.433218	0.253234
644.639365	0.253244
644.845494	0.253221
645.051605	0.253319
645.257698	0.253668
645.463772	0.253924
645.669828	0.253672
645.875866	0.253575
646.081886	0.253442
646.287888	0.253380
646.493871	0.253531
646.699836	0.253830
646.905783	0.254079
647.111712	0.254015
647.317622	0.254154
647.523514	0.254751
647.729388	0.255281
647.935244	0.255652
648.141082	0.256025
648.346901	0.256277
648.552702	0.256487
648.758485	0.256596
648.964250	0.256755
649.169996	0.256716
649.375724	0.256504
649.581434	0.256642
649.787126	0.256690
649.992800	0.256711
650.198455	0.256921
650.404092	0.257102
650.609711	0.257087
650.815311	0.257105
651.020894	0.257262
651.226458	0.257625
651.432004	0.257379
651.637532	0.257445
651.843041	0.257358
652.048532	0.257515
652.254006	0.257375
652.459460	0.257703
652.664897	0.257824
652.870315	0.258121
653.075716	0.258074
653.281097	0.258418
653.486461	0.258792
653.691807	0.259137
653.897134	0.259349
654.102443	0.259915
654.307734	0.260241
654.513006	0.260805
654.718261	0.260863
654.923497	0.261217
655.128715	0.261763
655.333915	0.262090
655.539096	0.262317
655.744259	0.262598
655.949404	0.262933
656.154531	0.263051
656.359640	0.263479
656.564730	0.263993
656.769802	0.264430
656.974856	0.264460
657.179892	0.264514
657.384909	0.264841
657.589908	0.264873
657.794889	0.264942
657.999852	0.265176
658.204797	0.264769
658.409723	0.264744
658.614631	0.264936
658.819521	0.265060
659.024393	0.265182
659.229246	0.265304
659.434081	0.265607
659.638898	0.265801
659.843697	0.265898
660.048478	0.266208
660.253240	0.266629
660.457984	0.266645
660.662710	0.266816
660.867417	0.267028
661.072107	0.267292
661.276778	0.267554
661.481431	0.267509
661.686066	0.267594
661.890682	0.268115
662.095281	0.267813
662.299861	0.268005
662.504422	0.268208
662.708966	0.268357
662.913491	0.268531
663.117999	0.268484
663.322488	0.268709
663.526958	0.268967
663.731411	0.268928
663.935845	0.269182
664.140261	0.269295
664.344659	0.269376
664.549038	0.269647
664.753400	0.269752
664.957743	0.270243
665.162068	0.270726
665.366375	0.270952
665.570663	0.270923
665.774933	0.271493
665.979185	0.271750
666.183419	0.271645
666.387635	0.271682
666.591832	0.272057
666.796011	0.272279
667.000172	0.272141
667.204315	0.272167
667.408439	0.272477
667.612545	0.272593
667.816634	0.272861
668.020703	0.273721
668.224755	0.274030
668.428788	0.274203
668.632803	0.274551
668.836800	0.275012
669.040779	0.275430
669.244739	0.275862
669.448681	0.276160
669.652605	0.276437
669.856511	0.276261
670.060399	0.276640
670.264268	0.276867
670.468119	0.276877
670.671952	0.276933
670.875767	0.276990
671.079563	0.277101
671.283341	0.277111
671.487101	0.277234
671.690843	0.277385
671.894567	0.277313
672.098272	0.277447
672.301959	0.277645
672.505628	0.277816
672.709278	0.278246
672.912911	0.278392
673.116525	0.278538
673.320121	0.278685
673.523699	0.279145
673.727258	0.279247
673.930799	0.279366
674.134322	0.279501
674.337827	0.279774
674.541314	0.279735
674.744782	0.280106
674.948232	0.280365
675.151664	0.280607
675.355078	0.280646
675.558474	0.280774
675.761851	0.280847
675.965210	0.281148
676.168551	0.281501
676.371873	0.281491
676.575178	0.281696
676.778464	0.281993
676.981732	0.282119
677.184981	0.282244
677.388213	0.282645
677.591426	0.282984
677.794621	0.282930
677.997798	0.282679
678.200956	0.282997
678.404097	0.282940
678.607219	0.283080
678.810323	0.283010
679.013408	0.283323
679.216476	0.283687
679.419525	0.283712
679.622556	0.284055
679.825569	0.284506
680.028563	0.284680
680.231540	0.284842
680.434498	0.285133
680.637438	0.285697
680.840359	0.285683
681.043263	0.285724
681.246148	0.285963
681.449015	0.286210
681.651864	0.286303
681.854694	0.286610
682.057506	0.287121
682.260301	0.287127
682.463076	0.287155
682.665834	0.287310
682.868573	0.287636
683.071295	0.287889
683.273998	0.287845
683.476682	0.288099
683.679349	0.288268
683.881997	0.288242
684.084627	0.288357
684.287239	0.288409
684.489833	0.288507
684.692408	0.288598
684.894965	0.288620
685.097504	0.288905
685.300025	0.289120
685.502527	0.289063
685.705012	0.289135
685.907478	0.289405
686.109925	0.289606
686.312355	0.290044
686.514766	0.290243
686.717159	0.290583
686.919534	0.290620
687.121891	0.290637
687.324230	0.290966
687.526550	0.291301
687.728852	0.291112
687.931136	0.291236
688.133401	0.291307
688.335649	0.291332
688.537878	0.291307
688.740089	0.291440
688.942281	0.291710
689.144456	0.291971
689.346612	0.291927
689.548750	0.292211
689.750870	0.292641
689.952971	0.292851
690.155055	0.292954
690.357120	0.293086
690.559167	0.293406
690.761195	0.293581
690.963206	0.293592
691.165198	0.293772
691.367172	0.293854
691.569128	0.293655
691.771065	0.294070
691.972984	0.294295
692.174885	0.294631
692.376768	0.294640
692.578633	0.294868
692.780479	0.295189
692.982308	0.295463
693.184118	0.296061
693.385909	0.296250
