sample name	sample
index	515
start time	 03-11-2021  03:32:24 PM


Wavelength (nm)	Absorbance
494.344910	-0.028319
494.563924	-0.028319
494.782919	-0.028319
495.001897	-0.159533
495.220856	0.116109
495.439797	0.028115
495.658719	0.240347
495.877624	0.310530
496.096510	0.657902
496.315378	0.299270
496.534227	0.187771
496.753059	0.129006
496.971872	0.046886
497.190667	0.080334
497.409444	0.084554
497.628203	0.078864
497.846943	0.078527
498.065665	0.079374
498.284369	0.080405
498.503055	0.080954
498.721723	0.081347
498.940372	0.080918
499.159003	0.081651
499.377616	0.080533
499.596210	0.080007
499.814787	0.080756
500.033345	0.080822
500.251885	0.079939
500.470406	0.080500
500.688910	0.080140
500.907395	0.080451
501.125862	0.078424
501.344311	0.079046
501.562742	0.080271
501.781154	0.079406
501.999548	0.078909
502.217924	0.078478
502.436282	0.077898
502.654621	0.077870
502.872942	0.077913
503.091245	0.078538
503.309530	0.079344
503.527797	0.078644
503.746045	0.079634
503.964275	0.079859
504.182487	0.080774
504.400681	0.080922
504.618856	0.080683
504.837013	0.081079
505.055152	0.081194
505.273273	0.079867
505.491376	0.080352
505.709460	0.078766
505.927526	0.078057
506.145574	0.078191
506.363604	0.078583
506.581615	0.078418
506.799608	0.078249
507.017583	0.079143
507.235540	0.079939
507.453478	0.079932
507.671399	0.080230
507.889301	0.080884
508.107185	0.081019
508.325050	0.080527
508.542898	0.080243
508.760727	0.080771
508.978538	0.079772
509.196330	0.080146
509.414105	0.080487
509.631861	0.080937
509.849599	0.079981
510.067319	0.080308
510.285021	0.080709
510.502704	0.081429
510.720369	0.081127
510.938016	0.081599
511.155645	0.080480
511.373255	0.081142
511.590848	0.081334
511.808422	0.082048
512.025977	0.081986
512.243515	0.082214
512.461034	0.082527
512.678536	0.082885
512.896018	0.083212
513.113483	0.083586
513.330930	0.083343
513.548358	0.083529
513.765768	0.083902
513.983160	0.084252
514.200533	0.083982
514.417889	0.084338
514.635226	0.083654
514.852545	0.082930
515.069845	0.083731
515.287128	0.082998
515.504392	0.083004
515.721638	0.082784
515.938866	0.082039
516.156075	0.081818
516.373267	0.081332
516.590440	0.081571
516.807594	0.082156
517.024731	0.082368
517.241850	0.083314
517.458950	0.083171
517.676032	0.083355
517.893095	0.083871
518.110141	0.084075
518.327168	0.084046
518.544177	0.084317
518.761168	0.084575
518.978141	0.084237
519.195095	0.083217
519.412031	0.083774
519.628949	0.083968
519.845849	0.083223
520.062731	0.083735
520.279594	0.083783
520.496439	0.083519
520.713266	0.083098
520.930074	0.083261
521.146865	0.083355
521.363637	0.083189
521.580391	0.082716
521.797127	0.083495
522.013844	0.082479
522.230543	0.082954
522.447224	0.083048
522.663887	0.083611
522.880532	0.083166
523.097158	0.083953
523.313766	0.084349
523.530356	0.085058
523.746928	0.085512
523.963481	0.086502
524.180017	0.086312
524.396534	0.087313
524.613032	0.087383
524.829513	0.087936
525.045975	0.088133
525.262420	0.087682
525.478845	0.087551
525.695253	0.087547
525.911643	0.087403
526.128014	0.087237
526.344367	0.086662
526.560702	0.086686
526.777018	0.086553
526.993316	0.086216
527.209597	0.086575
527.425858	0.087093
527.642102	0.087310
527.858328	0.087256
528.074535	0.087805
528.290724	0.088129
528.506894	0.087540
528.723047	0.087409
528.939181	0.087761
529.155297	0.087600
529.371395	0.087132
529.587475	0.087254
529.803536	0.087252
530.019579	0.087352
530.235604	0.087553
530.451611	0.088160
530.667600	0.088897
530.883570	0.089287
531.099522	0.089265
531.315456	0.089676
531.531372	0.089736
531.747269	0.089994
531.963148	0.090044
532.179009	0.090253
532.394852	0.091025
532.610676	0.091664
532.826482	0.091871
533.042271	0.092751
533.258040	0.092843
533.473792	0.092663
533.689525	0.093086
533.905240	0.093110
534.120937	0.093278
534.336616	0.092797
534.552277	0.092195
534.767919	0.091931
534.983543	0.091693
535.199149	0.091877
535.414736	0.092339
535.630306	0.092236
535.845857	0.091934
536.061390	0.091703
536.276904	0.092076
536.492401	0.092397
536.707879	0.092393
536.923339	0.092612
537.138781	0.092297
537.354204	0.091921
537.569610	0.092673
537.784997	0.093026
538.000366	0.092996
538.215716	0.092730
538.431049	0.092846
538.646363	0.092853
538.861659	0.092539
539.076937	0.092350
539.292196	0.093005
539.507438	0.092701
539.722661	0.093205
539.937866	0.093224
540.153052	0.093403
540.368221	0.093522
540.583371	0.093853
540.798503	0.093974
541.013617	0.095075
541.228712	0.094886
541.443789	0.094412
541.658848	0.094414
541.873889	0.094836
542.088912	0.095534
542.303916	0.095376
542.518902	0.095222
542.733870	0.095362
542.948820	0.095007
543.163752	0.095002
543.378665	0.095643
543.593560	0.095262
543.808437	0.095660
544.023295	0.095741
544.238136	0.095983
544.452958	0.096409
544.667762	0.096802
544.882548	0.097088
545.097315	0.097331
545.312064	0.097067
545.526795	0.097626
545.741508	0.097425
545.956203	0.097244
546.170879	0.097131
546.385537	0.097258
546.600177	0.097144
546.814799	0.097097
547.029402	0.097318
547.243988	0.097313
547.458555	0.097516
547.673103	0.097520
547.887634	0.097409
548.102146	0.097561
548.316640	0.097655
548.531116	0.097924
548.745574	0.098002
548.960013	0.097568
549.174435	0.097917
549.388838	0.098311
549.603222	0.098448
549.817589	0.098535
550.031937	0.098531
550.246267	0.098347
550.460579	0.098330
550.674873	0.098320
550.889148	0.098641
551.103405	0.098996
551.317644	0.098764
551.531865	0.099187
551.746068	0.099321
551.960252	0.099639
552.174418	0.099416
552.388566	0.099499
552.602696	0.099523
552.816807	0.099701
553.030900	0.099556
553.244975	0.099339
553.459032	0.099284
553.673070	0.099592
553.887091	0.099797
554.101093	0.100286
554.315077	0.100166
554.529042	0.100256
554.742990	0.100264
554.956919	0.100425
555.170830	0.100525
555.384722	0.100564
555.598597	0.100113
555.812453	0.099942
556.026291	0.100207
556.240111	0.100724
556.453913	0.101065
556.667696	0.101370
556.881461	0.101598
557.095208	0.102028
557.308937	0.102058
557.522647	0.102397
557.736339	0.102629
557.950013	0.102509
558.163669	0.102623
558.377307	0.102546
558.590926	0.102580
558.804527	0.102852
559.018110	0.102569
559.231675	0.102778
559.445221	0.102722
559.658749	0.102807
559.872259	0.103103
560.085751	0.102968
560.299225	0.103113
560.512680	0.103321
560.726117	0.103291
560.939536	0.103406
561.152937	0.103345
561.366319	0.103541
561.579683	0.103397
561.793029	0.103356
562.006357	0.103655
562.219667	0.103733
562.432958	0.103881
562.646231	0.103680
562.859486	0.103533
563.072723	0.103666
563.285941	0.104181
563.499141	0.104568
563.712323	0.104793
563.925487	0.104622
564.138632	0.104804
564.351760	0.104481
564.564869	0.104780
564.777960	0.105551
564.991032	0.105185
565.204087	0.105001
565.417123	0.104553
565.630141	0.104571
565.843140	0.104551
566.056122	0.104369
566.269085	0.104682
566.482030	0.104565
566.694957	0.104278
566.907866	0.104643
567.120756	0.105111
567.333628	0.105592
567.546482	0.105631
567.759318	0.106001
567.972135	0.106477
568.184935	0.106645
568.397716	0.106787
568.610478	0.106583
568.823223	0.106957
569.035949	0.106774
569.248657	0.106517
569.461347	0.106419
569.674019	0.106542
569.886672	0.106324
570.099308	0.106245
570.311925	0.105993
570.524523	0.106630
570.737104	0.106442
570.949666	0.106051
571.162210	0.106304
571.374736	0.106379
571.587244	0.106244
571.799733	0.106506
572.012205	0.106720
572.224658	0.107244
572.437092	0.106884
572.649509	0.106885
572.861907	0.107431
573.074287	0.107606
573.286649	0.107387
573.498993	0.107406
573.711318	0.107424
573.923625	0.107215
574.135914	0.107046
574.348185	0.107286
574.560438	0.107454
574.772672	0.107588
574.984888	0.107718
575.197086	0.108399
575.409266	0.108902
575.621427	0.108570
575.833570	0.108613
576.045695	0.108839
576.257802	0.108624
576.469890	0.108743
576.681961	0.108750
576.894013	0.108739
577.106046	0.108540
577.318062	0.108413
577.530059	0.108721
577.742039	0.108810
577.954000	0.108428
578.165942	0.109066
578.377867	0.109139
578.589773	0.108987
578.801661	0.109225
579.013531	0.109583
579.225382	0.109494
579.437216	0.109846
579.649031	0.109899
579.860828	0.110632
580.072606	0.110414
580.284367	0.110574
580.496109	0.110795
580.707833	0.110993
580.919539	0.110972
581.131227	0.111113
581.342896	0.111162
581.554547	0.111309
581.766180	0.111478
581.977795	0.111491
582.189391	0.111155
582.400969	0.111144
582.612529	0.111086
582.824071	0.110953
583.035595	0.111104
583.247100	0.110989
583.458587	0.111227
583.670056	0.110970
583.881506	0.111395
584.092939	0.111895
584.304353	0.112223
584.515749	0.112256
584.727127	0.112261
584.938486	0.112236
585.149828	0.112385
585.361151	0.112427
585.572456	0.112509
585.783742	0.112125
585.995011	0.111923
586.206261	0.112075
586.417493	0.112372
586.628706	0.112461
586.839902	0.112337
587.051079	0.112679
587.262238	0.112825
587.473379	0.113227
587.684502	0.113305
587.895606	0.113489
588.106692	0.113461
588.317760	0.113716
588.528810	0.114059
588.739841	0.114253
588.950855	0.114207
589.161850	0.114132
589.372827	0.114056
589.583785	0.114548
589.794726	0.115041
590.005648	0.115210
590.216552	0.114958
590.427437	0.115152
590.638305	0.115531
590.849154	0.115682
591.059985	0.115814
591.270798	0.115684
591.481592	0.115785
591.692369	0.115635
591.903127	0.115645
592.113867	0.115675
592.324588	0.115807
592.535292	0.115880
592.745977	0.115892
592.956644	0.116139
593.167293	0.116333
593.377923	0.116271
593.588536	0.116266
593.799130	0.116170
594.009706	0.116383
594.220263	0.116132
594.430803	0.116331
594.641324	0.116360
594.851827	0.116415
595.062312	0.116477
595.272778	0.116778
595.483227	0.116793
595.693657	0.116866
595.904069	0.116875
596.114462	0.117019
596.324838	0.116886
596.535195	0.116754
596.745534	0.116818
596.955855	0.117018
597.166157	0.116735
597.376441	0.116768
597.586707	0.116706
597.796955	0.116992
598.007185	0.117081
598.217396	0.117059
598.427589	0.117077
598.637764	0.117294
598.847921	0.117437
599.058060	0.117841
599.268180	0.118014
599.478282	0.118090
599.688366	0.117809
599.898431	0.118354
600.108479	0.118612
600.318508	0.119038
600.528519	0.118965
600.738511	0.119048
600.948486	0.118975
601.158442	0.119102
601.368380	0.119420
601.578300	0.119625
601.788202	0.119280
601.998085	0.119100
602.207950	0.118986
602.417797	0.118914
602.627626	0.118950
602.837436	0.119103
603.047228	0.118919
603.257002	0.119079
603.466758	0.119096
603.676496	0.119134
603.886215	0.119384
604.095916	0.119661
604.305599	0.120018
604.515264	0.119956
604.724910	0.119779
604.934538	0.120495
605.144148	0.120429
605.353740	0.120441
605.563314	0.120541
605.772869	0.120560
605.982406	0.120579
606.191925	0.120665
606.401425	0.120673
606.610908	0.120944
606.820372	0.120572
607.029818	0.120516
607.239246	0.120564
607.448655	0.120595
607.658047	0.120671
607.867420	0.120706
608.076775	0.120573
608.286111	0.120609
608.495430	0.120573
608.704730	0.120627
608.914012	0.120771
609.123275	0.121003
609.332521	0.121400
609.541748	0.121354
609.750957	0.121167
609.960148	0.121159
610.169321	0.121386
610.378475	0.121351
610.587611	0.121300
610.796729	0.121458
611.005829	0.121764
611.214910	0.121576
611.423974	0.121869
611.633019	0.122163
611.842045	0.122158
612.051054	0.122256
612.260044	0.122526
612.469017	0.122721
612.677970	0.122691
612.886906	0.122664
613.095824	0.122950
613.304723	0.122982
613.513604	0.123145
613.722467	0.123242
613.931311	0.123196
614.140138	0.123190
614.348946	0.123311
614.557736	0.123816
614.766507	0.123872
614.975261	0.123814
615.183996	0.123668
615.392713	0.123503
615.601412	0.123457
615.810092	0.123579
616.018754	0.123651
616.227399	0.123851
616.436024	0.123393
616.644632	0.123311
616.853222	0.123212
617.061793	0.123498
617.270346	0.123855
617.478880	0.124071
617.687397	0.124005
617.895895	0.124145
618.104375	0.124159
618.312837	0.124565
618.521281	0.124665
618.729706	0.124674
618.938113	0.124812
619.146502	0.124838
619.354873	0.125049
619.563226	0.125413
619.771560	0.125220
619.979876	0.125446
620.188174	0.125389
620.396453	0.125394
620.604715	0.125773
620.812958	0.125714
621.021183	0.125664
621.229390	0.125816
621.437578	0.125577
621.645748	0.125862
621.853900	0.125872
622.062034	0.125865
622.270150	0.126145
622.478247	0.125981
622.686326	0.126043
622.894387	0.126274
623.102430	0.126131
623.310454	0.126374
623.518461	0.126220
623.726449	0.126015
623.934418	0.126175
624.142370	0.126130
624.350303	0.126213
624.558218	0.126184
624.766115	0.126186
624.973994	0.126289
625.181855	0.126432
625.389697	0.127066
625.597521	0.127169
625.805327	0.127233
626.013114	0.127352
626.220883	0.127564
626.428634	0.127824
626.636367	0.127974
626.844082	0.128222
627.051778	0.128129
627.259457	0.127901
627.467117	0.128113
627.674758	0.128109
627.882382	0.128293
628.089987	0.128232
628.297574	0.128416
628.505143	0.128450
628.712694	0.128414
628.920226	0.128707
629.127740	0.128813
629.335236	0.128778
629.542714	0.128815
629.750174	0.128614
629.957615	0.128562
630.165038	0.128309
630.372443	0.128392
630.579829	0.128554
630.787198	0.128667
630.994548	0.128732
631.201880	0.128859
631.409194	0.128958
631.616489	0.129150
631.823766	0.129371
632.031025	0.129393
632.238266	0.129367
632.445489	0.129278
632.652693	0.129058
632.859879	0.128826
633.067047	0.128833
633.274197	0.128720
633.481329	0.128609
633.688442	0.128708
633.895537	0.129043
634.102614	0.129131
634.309672	0.129395
634.516713	0.129519
634.723735	0.129907
634.930739	0.130080
635.137724	0.130591
635.344692	0.130899
635.551641	0.131156
635.758572	0.131070
635.965485	0.130972
636.172379	0.130921
636.379256	0.130996
636.586114	0.131096
636.792954	0.131194
636.999775	0.130950
637.206579	0.131007
637.413364	0.130854
637.620131	0.130997
637.826880	0.131193
638.033610	0.131180
638.240323	0.131049
638.447017	0.130842
638.653692	0.130854
638.860350	0.131091
639.066990	0.130950
639.273611	0.130898
639.480214	0.131009
639.686798	0.131129
639.893365	0.131289
640.099913	0.131501
640.306443	0.131785
640.512955	0.131746
640.719449	0.131708
640.925924	0.132045
641.132381	0.132342
641.338820	0.132392
641.545241	0.132451
641.751644	0.132694
641.958028	0.132828
642.164394	0.132719
642.370742	0.132867
642.577071	0.133050
642.783383	0.132953
642.989676	0.132883
643.195951	0.132886
643.402207	0.132749
643.608446	0.132688
643.814666	0.132830
644.020868	0.133203
644.227052	0.133401
644.433218	0.133570
644.639365	0.133734
644.845494	0.133930
645.051605	0.134272
645.257698	0.134673
645.463772	0.134767
645.669828	0.134803
645.875866	0.134714
646.081886	0.134719
646.287888	0.134555
646.493871	0.134407
646.699836	0.134423
646.905783	0.134410
647.111712	0.134340
647.317622	0.134418
647.523514	0.134505
647.729388	0.134563
647.935244	0.134510
648.141082	0.134620
648.346901	0.134802
648.552702	0.134906
648.758485	0.134973
648.964250	0.135088
649.169996	0.135058
649.375724	0.135081
649.581434	0.135120
649.787126	0.135280
649.992800	0.135265
650.198455	0.135584
650.404092	0.135758
650.609711	0.135817
650.815311	0.135787
651.020894	0.135946
651.226458	0.136207
651.432004	0.136346
651.637532	0.136404
651.843041	0.136319
652.048532	0.136320
652.254006	0.136532
652.459460	0.136622
652.664897	0.136836
652.870315	0.137012
653.075716	0.137062
653.281097	0.137049
653.486461	0.137298
653.691807	0.137763
653.897134	0.137681
654.102443	0.137388
654.307734	0.137417
654.513006	0.137399
654.718261	0.137215
654.923497	0.137342
655.128715	0.137488
655.333915	0.137470
655.539096	0.137498
655.744259	0.137694
655.949404	0.137886
656.154531	0.138013
656.359640	0.138313
656.564730	0.138411
656.769802	0.138382
656.974856	0.138553
657.179892	0.138627
657.384909	0.138656
657.589908	0.138682
657.794889	0.138745
657.999852	0.138838
658.204797	0.138792
658.409723	0.138961
658.614631	0.139270
658.819521	0.139341
659.024393	0.139477
659.229246	0.139829
659.434081	0.140280
659.638898	0.140413
659.843697	0.140594
660.048478	0.140822
660.253240	0.140909
660.457984	0.140850
660.662710	0.140928
660.867417	0.141040
661.072107	0.140958
661.276778	0.140669
661.481431	0.140815
661.686066	0.140986
661.890682	0.140960
662.095281	0.141090
662.299861	0.141127
662.504422	0.141372
662.708966	0.141455
662.913491	0.141427
663.117999	0.141631
663.322488	0.141768
663.526958	0.141604
663.731411	0.141786
663.935845	0.141801
664.140261	0.141889
664.344659	0.141866
664.549038	0.141925
664.753400	0.142014
664.957743	0.142324
665.162068	0.142285
665.366375	0.142450
665.570663	0.142426
665.774933	0.142625
665.979185	0.142728
666.183419	0.142738
666.387635	0.142805
666.591832	0.142812
666.796011	0.142696
667.000172	0.142677
667.204315	0.142862
667.408439	0.143058
667.612545	0.143246
667.816634	0.143310
668.020703	0.143484
668.224755	0.143757
668.428788	0.144164
668.632803	0.144280
668.836800	0.144489
669.040779	0.144678
669.244739	0.144624
669.448681	0.144656
669.652605	0.144828
669.856511	0.145086
670.060399	0.145065
670.264268	0.144903
670.468119	0.145073
670.671952	0.145390
670.875767	0.145313
671.079563	0.145523
671.283341	0.145632
671.487101	0.145854
671.690843	0.145746
671.894567	0.145878
672.098272	0.146180
672.301959	0.146099
672.505628	0.146130
672.709278	0.146196
672.912911	0.146201
673.116525	0.146077
673.320121	0.146087
673.523699	0.146100
673.727258	0.146091
673.930799	0.146211
674.134322	0.146450
674.337827	0.146526
674.541314	0.146713
674.744782	0.147011
674.948232	0.147381
675.151664	0.147424
675.355078	0.147653
675.558474	0.147863
675.761851	0.147998
675.965210	0.147937
676.168551	0.147947
676.371873	0.148041
676.575178	0.148104
676.778464	0.148169
676.981732	0.148305
677.184981	0.148745
677.388213	0.148973
677.591426	0.149152
677.794621	0.149477
677.997798	0.149598
678.200956	0.149482
678.404097	0.149605
678.607219	0.149703
678.810323	0.149931
679.013408	0.149739
679.216476	0.149668
679.419525	0.149500
679.622556	0.149601
679.825569	0.149806
680.028563	0.150139
680.231540	0.149943
680.434498	0.150036
680.637438	0.149938
680.840359	0.150124
681.043263	0.150456
681.246148	0.150770
681.449015	0.150850
681.651864	0.150855
681.854694	0.150823
682.057506	0.150921
682.260301	0.150947
682.463076	0.151040
682.665834	0.151153
682.868573	0.151261
683.071295	0.151249
683.273998	0.151276
683.476682	0.151400
683.679349	0.151739
683.881997	0.152207
684.084627	0.152697
684.287239	0.152972
684.489833	0.152769
684.692408	0.152617
684.894965	0.152790
685.097504	0.152901
685.300025	0.153161
685.502527	0.152915
685.705012	0.152801
685.907478	0.152598
686.109925	0.152573
686.312355	0.152931
686.514766	0.153132
686.717159	0.153331
686.919534	0.153282
687.121891	0.153201
687.324230	0.153494
687.526550	0.153667
687.728852	0.153677
687.931136	0.153767
688.133401	0.153728
688.335649	0.153756
688.537878	0.153582
688.740089	0.153778
688.942281	0.153821
689.144456	0.153898
689.346612	0.153769
689.548750	0.153933
689.750870	0.154020
689.952971	0.154039
690.155055	0.154197
690.357120	0.154425
690.559167	0.154555
690.761195	0.154628
690.963206	0.154565
691.165198	0.154972
691.367172	0.155110
691.569128	0.155104
691.771065	0.155286
691.972984	0.155401
692.174885	0.155497
692.376768	0.155603
692.578633	0.155757
692.780479	0.155958
692.982308	0.155808
693.184118	0.156049
693.385909	0.156084
