sample name	sample
index	1207
start time	 04-26-2021  01:03:00 PM


Wavelength (nm)	Absorbance
494.344910	-0.239467
494.563924	-0.239467
494.782919	-0.239467
495.001897	NaN
495.220856	-0.345504
495.439797	-0.293320
495.658719	-0.294325
495.877624	-0.319461
496.096510	-0.217371
496.315378	-0.360463
496.534227	-0.492641
496.753059	-0.334292
496.971872	-0.117728
497.190667	0.189734
497.409444	0.197857
497.628203	0.198181
497.846943	0.195663
498.065665	0.194316
498.284369	0.191990
498.503055	0.190732
498.721723	0.189581
498.940372	0.189882
499.159003	0.189396
499.377616	0.186404
499.596210	0.184728
499.814787	0.186760
500.033345	0.186462
500.251885	0.189051
500.470406	0.189978
500.688910	0.189663
500.907395	0.189762
501.125862	0.190171
501.344311	0.191619
501.562742	0.193090
501.781154	0.192080
501.999548	0.192387
502.217924	0.191083
502.436282	0.191224
502.654621	0.191918
502.872942	0.191318
503.091245	0.191210
503.309530	0.190586
503.527797	0.189604
503.746045	0.188623
503.964275	0.189064
504.182487	0.190036
504.400681	0.188449
504.618856	0.187970
504.837013	0.187627
505.055152	0.187231
505.273273	0.188323
505.491376	0.189227
505.709460	0.190649
505.927526	0.190333
506.145574	0.190292
506.363604	0.191345
506.581615	0.191287
506.799608	0.192324
507.017583	0.192450
507.235540	0.192415
507.453478	0.191079
507.671399	0.189770
507.889301	0.190281
508.107185	0.189376
508.325050	0.189990
508.542898	0.190384
508.760727	0.189858
508.978538	0.190547
509.196330	0.191210
509.414105	0.193233
509.631861	0.194977
509.849599	0.194410
510.067319	0.194608
510.285021	0.194693
510.502704	0.195038
510.720369	0.195294
510.938016	0.195962
511.155645	0.194570
511.373255	0.193826
511.590848	0.193551
511.808422	0.194814
512.025977	0.196415
512.243515	0.195691
512.461034	0.195109
512.678536	0.194846
512.896018	0.194050
513.113483	0.195101
513.330930	0.194783
513.548358	0.195354
513.765768	0.195168
513.983160	0.194501
514.200533	0.194858
514.417889	0.195341
514.635226	0.196569
514.852545	0.197352
515.069845	0.198046
515.287128	0.199078
515.504392	0.198762
515.721638	0.199823
515.938866	0.200396
516.156075	0.201251
516.373267	0.202219
516.590440	0.201990
516.807594	0.200769
517.024731	0.200874
517.241850	0.200384
517.458950	0.199856
517.676032	0.199768
517.893095	0.199655
518.110141	0.199990
518.327168	0.200048
518.544177	0.200293
518.761168	0.201895
518.978141	0.201097
519.195095	0.201046
519.412031	0.201145
519.628949	0.201055
519.845849	0.200784
520.062731	0.200475
520.279594	0.200711
520.496439	0.201427
520.713266	0.200464
520.930074	0.201499
521.146865	0.201828
521.363637	0.202324
521.580391	0.202801
521.797127	0.202868
522.013844	0.203445
522.230543	0.204196
522.447224	0.203834
522.663887	0.205674
522.880532	0.205200
523.097158	0.205929
523.313766	0.206453
523.530356	0.205466
523.746928	0.206868
523.963481	0.206475
524.180017	0.206210
524.396534	0.205962
524.613032	0.205530
524.829513	0.206259
525.045975	0.206985
525.262420	0.207011
525.478845	0.208124
525.695253	0.207437
525.911643	0.207943
526.128014	0.207423
526.344367	0.208544
526.560702	0.208488
526.777018	0.208528
526.993316	0.208265
527.209597	0.208766
527.425858	0.208650
527.642102	0.208292
527.858328	0.208620
528.074535	0.209923
528.290724	0.210100
528.506894	0.211101
528.723047	0.211953
528.939181	0.212027
529.155297	0.212260
529.371395	0.212641
529.587475	0.213387
529.803536	0.214238
530.019579	0.214584
530.235604	0.215061
530.451611	0.214587
530.667600	0.214642
530.883570	0.215100
531.099522	0.215394
531.315456	0.215869
531.531372	0.217164
531.747269	0.216944
531.963148	0.216137
532.179009	0.216627
532.394852	0.216899
532.610676	0.216970
532.826482	0.216940
533.042271	0.217585
533.258040	0.218099
533.473792	0.217406
533.689525	0.217673
533.905240	0.218283
534.120937	0.217334
534.336616	0.217709
534.552277	0.217397
534.767919	0.218247
534.983543	0.218698
535.199149	0.218624
535.414736	0.219334
535.630306	0.219720
535.845857	0.220263
536.061390	0.220984
536.276904	0.221551
536.492401	0.221869
536.707879	0.222034
536.923339	0.221814
537.138781	0.222384
537.354204	0.222543
537.569610	0.222763
537.784997	0.223536
538.000366	0.224070
538.215716	0.224146
538.431049	0.225162
538.646363	0.225291
538.861659	0.225656
539.076937	0.226152
539.292196	0.226613
539.507438	0.227739
539.722661	0.228285
539.937866	0.228559
540.153052	0.230001
540.368221	0.230588
540.583371	0.231198
540.798503	0.232049
541.013617	0.232467
541.228712	0.233376
541.443789	0.233498
541.658848	0.234100
541.873889	0.234600
542.088912	0.233870
542.303916	0.233756
542.518902	0.233987
542.733870	0.233691
542.948820	0.233278
543.163752	0.232826
543.378665	0.232704
543.593560	0.232225
543.808437	0.232388
544.023295	0.232619
544.238136	0.233071
544.452958	0.232987
544.667762	0.233007
544.882548	0.233740
545.097315	0.234529
545.312064	0.234922
545.526795	0.235591
545.741508	0.235410
545.956203	0.235703
546.170879	0.235524
546.385537	0.236058
546.600177	0.237107
546.814799	0.237590
547.029402	0.237405
547.243988	0.236853
547.458555	0.236492
547.673103	0.237248
547.887634	0.237805
548.102146	0.238356
548.316640	0.238902
548.531116	0.238710
548.745574	0.237800
548.960013	0.238316
549.174435	0.239038
549.388838	0.239844
549.603222	0.239802
549.817589	0.239570
550.031937	0.239243
550.246267	0.238964
550.460579	0.238799
550.674873	0.239599
550.889148	0.239377
551.103405	0.239587
551.317644	0.239409
551.531865	0.240042
551.746068	0.240524
551.960252	0.241159
552.174418	0.241539
552.388566	0.241778
552.602696	0.241998
552.816807	0.242362
553.030900	0.242217
553.244975	0.241960
553.459032	0.241768
553.673070	0.241705
553.887091	0.241854
554.101093	0.241927
554.315077	0.241924
554.529042	0.242161
554.742990	0.242295
554.956919	0.242795
555.170830	0.243537
555.384722	0.244020
555.598597	0.244633
555.812453	0.244770
556.026291	0.245234
556.240111	0.246017
556.453913	0.245995
556.667696	0.246183
556.881461	0.246519
557.095208	0.246711
557.308937	0.246390
557.522647	0.246172
557.736339	0.246091
557.950013	0.246096
558.163669	0.245915
558.377307	0.246192
558.590926	0.246411
558.804527	0.246458
559.018110	0.246584
559.231675	0.246444
559.445221	0.246759
559.658749	0.247161
559.872259	0.247139
560.085751	0.247630
560.299225	0.247787
560.512680	0.247952
560.726117	0.247786
560.939536	0.248167
561.152937	0.249406
561.366319	0.249645
561.579683	0.249971
561.793029	0.250458
562.006357	0.250197
562.219667	0.250732
562.432958	0.251395
562.646231	0.252059
562.859486	0.251968
563.072723	0.251477
563.285941	0.252088
563.499141	0.251976
563.712323	0.252012
563.925487	0.252385
564.138632	0.252220
564.351760	0.251456
564.564869	0.251645
564.777960	0.252033
564.991032	0.252438
565.204087	0.252103
565.417123	0.252503
565.630141	0.253087
565.843140	0.253661
566.056122	0.253945
566.269085	0.254650
566.482030	0.254510
566.694957	0.254356
566.907866	0.254041
567.120756	0.254128
567.333628	0.254063
567.546482	0.253187
567.759318	0.252891
567.972135	0.252813
568.184935	0.252480
568.397716	0.252613
568.610478	0.252848
568.823223	0.252950
569.035949	0.253233
569.248657	0.253069
569.461347	0.253443
569.674019	0.253654
569.886672	0.254040
570.099308	0.254290
570.311925	0.254433
570.524523	0.254424
570.737104	0.255252
570.949666	0.255477
571.162210	0.256098
571.374736	0.256317
571.587244	0.256434
571.799733	0.256381
572.012205	0.256825
572.224658	0.256854
572.437092	0.257323
572.649509	0.257309
572.861907	0.257121
573.074287	0.257371
573.286649	0.257773
573.498993	0.258352
573.711318	0.258477
573.923625	0.258702
574.135914	0.258811
574.348185	0.258784
574.560438	0.258791
574.772672	0.259284
574.984888	0.259347
575.197086	0.259760
575.409266	0.259677
575.621427	0.259947
575.833570	0.259838
576.045695	0.260114
576.257802	0.260280
576.469890	0.260406
576.681961	0.260302
576.894013	0.260453
577.106046	0.260421
577.318062	0.260429
577.530059	0.260470
577.742039	0.260800
577.954000	0.261010
578.165942	0.261243
578.377867	0.261146
578.589773	0.261217
578.801661	0.261261
579.013531	0.261317
579.225382	0.261721
579.437216	0.261991
579.649031	0.262204
579.860828	0.262416
580.072606	0.262364
580.284367	0.262953
580.496109	0.263539
580.707833	0.263922
580.919539	0.264195
581.131227	0.264007
581.342896	0.263791
581.554547	0.263897
581.766180	0.263909
581.977795	0.264195
582.189391	0.264444
582.400969	0.264238
582.612529	0.264269
582.824071	0.264453
583.035595	0.265005
583.247100	0.265686
583.458587	0.265846
583.670056	0.266302
583.881506	0.266283
584.092939	0.266367
584.304353	0.266810
584.515749	0.267330
584.727127	0.267328
584.938486	0.267559
585.149828	0.267597
585.361151	0.267808
585.572456	0.267886
585.783742	0.268528
585.995011	0.269002
586.206261	0.269209
586.417493	0.269464
586.628706	0.270020
586.839902	0.270129
587.051079	0.270655
587.262238	0.270846
587.473379	0.271300
587.684502	0.271608
587.895606	0.271821
588.106692	0.272466
588.317760	0.272582
588.528810	0.272334
588.739841	0.272408
588.950855	0.272161
589.161850	0.272336
589.372827	0.272903
589.583785	0.272809
589.794726	0.272754
590.005648	0.272544
590.216552	0.272392
590.427437	0.272956
590.638305	0.273308
590.849154	0.273923
591.059985	0.274210
591.270798	0.273862
591.481592	0.273743
591.692369	0.273789
591.903127	0.273799
592.113867	0.274278
592.324588	0.274348
592.535292	0.274580
592.745977	0.274434
592.956644	0.274341
593.167293	0.274414
593.377923	0.274828
593.588536	0.275070
593.799130	0.275399
594.009706	0.275142
594.220263	0.275107
594.430803	0.274941
594.641324	0.275652
594.851827	0.276246
595.062312	0.276821
595.272778	0.277230
595.483227	0.277518
595.693657	0.277564
595.904069	0.278024
596.114462	0.278311
596.324838	0.278874
596.535195	0.278572
596.745534	0.278954
596.955855	0.278554
597.166157	0.278096
597.376441	0.277978
597.586707	0.278040
597.796955	0.278017
598.007185	0.278321
598.217396	0.278202
598.427589	0.278130
598.637764	0.278030
598.847921	0.278263
599.058060	0.278575
599.268180	0.278899
599.478282	0.279254
599.688366	0.279293
599.898431	0.279264
600.108479	0.279590
600.318508	0.280143
600.528519	0.280631
600.738511	0.281092
600.948486	0.281320
601.158442	0.281290
601.368380	0.281268
601.578300	0.282021
601.788202	0.282218
601.998085	0.282258
602.207950	0.282338
602.417797	0.282093
602.627626	0.281815
602.837436	0.282182
603.047228	0.282726
603.257002	0.283060
603.466758	0.282875
603.676496	0.283289
603.886215	0.283468
604.095916	0.283576
604.305599	0.283465
604.515264	0.283784
604.724910	0.284100
604.934538	0.284042
605.144148	0.284100
605.353740	0.284565
605.563314	0.284472
605.772869	0.284696
605.982406	0.284615
606.191925	0.285172
606.401425	0.285090
606.610908	0.284924
606.820372	0.284907
607.029818	0.285205
607.239246	0.285024
607.448655	0.285296
607.658047	0.285366
607.867420	0.285718
608.076775	0.286018
608.286111	0.286272
608.495430	0.286726
608.704730	0.287128
608.914012	0.287237
609.123275	0.287648
609.332521	0.287896
609.541748	0.288327
609.750957	0.288446
609.960148	0.288141
610.169321	0.288551
610.378475	0.288477
610.587611	0.288670
610.796729	0.288884
611.005829	0.288886
611.214910	0.288523
611.423974	0.288307
611.633019	0.288861
611.842045	0.289179
612.051054	0.289205
612.260044	0.289204
612.469017	0.289258
612.677970	0.289327
612.886906	0.289605
613.095824	0.290000
613.304723	0.290064
613.513604	0.289963
613.722467	0.290025
613.931311	0.290053
614.140138	0.290481
614.348946	0.290549
614.557736	0.290710
614.766507	0.290624
614.975261	0.290763
615.183996	0.290854
615.392713	0.290961
615.601412	0.291402
615.810092	0.291674
616.018754	0.292148
616.227399	0.292578
616.436024	0.292837
616.644632	0.292690
616.853222	0.292833
617.061793	0.292834
617.270346	0.293053
617.478880	0.293018
617.687397	0.293070
617.895895	0.292788
618.104375	0.292918
618.312837	0.292979
618.521281	0.293299
618.729706	0.293319
618.938113	0.293727
619.146502	0.293494
619.354873	0.293509
619.563226	0.293795
619.771560	0.293918
619.979876	0.293782
620.188174	0.293705
620.396453	0.293937
620.604715	0.294165
620.812958	0.294510
621.021183	0.295008
621.229390	0.295418
621.437578	0.295593
621.645748	0.295687
621.853900	0.295967
622.062034	0.296315
622.270150	0.296668
622.478247	0.297142
622.686326	0.297390
622.894387	0.297702
623.102430	0.297571
623.310454	0.297799
623.518461	0.298205
623.726449	0.298426
623.934418	0.298468
624.142370	0.298602
624.350303	0.298804
624.558218	0.299018
624.766115	0.298973
624.973994	0.299231
625.181855	0.299343
625.389697	0.299427
625.597521	0.299172
625.805327	0.299339
626.013114	0.299182
626.220883	0.299079
626.428634	0.299297
626.636367	0.299480
626.844082	0.299504
627.051778	0.299682
627.259457	0.299766
627.467117	0.300283
627.674758	0.300569
627.882382	0.300901
628.089987	0.301048
628.297574	0.301086
628.505143	0.301223
628.712694	0.301594
628.920226	0.301808
629.127740	0.302338
629.335236	0.302483
629.542714	0.302491
629.750174	0.302594
629.957615	0.302874
630.165038	0.302780
630.372443	0.302939
630.579829	0.303289
630.787198	0.303376
630.994548	0.302886
631.201880	0.302943
631.409194	0.302951
631.616489	0.303160
631.823766	0.303403
632.031025	0.303687
632.238266	0.303742
632.445489	0.303419
632.652693	0.303483
632.859879	0.303857
633.067047	0.304127
633.274197	0.304309
633.481329	0.304501
633.688442	0.304419
633.895537	0.304605
634.102614	0.304918
634.309672	0.305522
634.516713	0.305836
634.723735	0.305942
634.930739	0.305923
635.137724	0.306181
635.344692	0.306353
635.551641	0.306500
635.758572	0.306761
635.965485	0.306807
636.172379	0.306838
636.379256	0.306851
636.586114	0.307049
636.792954	0.307233
636.999775	0.307536
637.206579	0.307547
637.413364	0.307677
637.620131	0.307859
637.826880	0.307967
638.033610	0.308046
638.240323	0.308321
638.447017	0.308469
638.653692	0.308521
638.860350	0.308736
639.066990	0.309187
639.273611	0.309713
639.480214	0.309589
639.686798	0.309877
639.893365	0.310076
640.099913	0.310015
640.306443	0.310106
640.512955	0.310450
640.719449	0.310712
640.925924	0.310854
641.132381	0.310630
641.338820	0.310877
641.545241	0.311234
641.751644	0.311385
641.958028	0.311756
642.164394	0.312052
642.370742	0.312394
642.577071	0.312603
642.783383	0.312503
642.989676	0.313015
643.195951	0.313030
643.402207	0.312920
643.608446	0.313205
643.814666	0.313694
644.020868	0.314092
644.227052	0.313821
644.433218	0.313538
644.639365	0.313891
644.845494	0.314013
645.051605	0.314469
645.257698	0.314962
645.463772	0.315068
645.669828	0.314988
645.875866	0.314931
646.081886	0.315321
646.287888	0.315616
646.493871	0.315864
646.699836	0.316023
646.905783	0.316082
647.111712	0.315814
647.317622	0.315946
647.523514	0.315959
647.729388	0.316348
647.935244	0.316557
648.141082	0.316883
648.346901	0.317061
648.552702	0.316859
648.758485	0.316978
648.964250	0.317133
649.169996	0.317463
649.375724	0.317781
649.581434	0.317985
649.787126	0.318366
649.992800	0.318498
650.198455	0.318396
650.404092	0.318532
650.609711	0.318731
650.815311	0.318874
651.020894	0.318541
651.226458	0.318388
651.432004	0.318312
651.637532	0.318099
651.843041	0.318341
652.048532	0.318750
652.254006	0.319170
652.459460	0.319150
652.664897	0.319730
652.870315	0.319987
653.075716	0.320695
653.281097	0.321077
653.486461	0.321402
653.691807	0.321555
653.897134	0.321642
654.102443	0.321971
654.307734	0.322256
654.513006	0.322126
654.718261	0.322753
654.923497	0.322686
655.128715	0.322532
655.333915	0.323002
655.539096	0.323335
655.744259	0.323469
655.949404	0.323907
656.154531	0.324217
656.359640	0.324423
656.564730	0.324573
656.769802	0.325219
656.974856	0.325589
657.179892	0.325795
657.384909	0.325905
657.589908	0.326708
657.794889	0.326715
657.999852	0.327058
658.204797	0.327548
658.409723	0.327789
658.614631	0.327812
658.819521	0.328180
659.024393	0.328311
659.229246	0.328428
659.434081	0.328211
659.638898	0.328342
659.843697	0.328282
660.048478	0.328355
660.253240	0.328215
660.457984	0.328196
660.662710	0.328451
660.867417	0.328587
661.072107	0.329002
661.276778	0.329355
661.481431	0.329538
661.686066	0.330088
661.890682	0.330484
662.095281	0.331070
662.299861	0.331295
662.504422	0.331492
662.708966	0.331904
662.913491	0.332036
663.117999	0.332072
663.322488	0.332339
663.526958	0.332576
663.731411	0.332725
663.935845	0.332837
664.140261	0.333197
664.344659	0.333325
664.549038	0.333364
664.753400	0.333356
664.957743	0.333533
665.162068	0.334078
665.366375	0.334126
665.570663	0.334282
665.774933	0.334549
665.979185	0.334745
666.183419	0.335036
666.387635	0.335241
666.591832	0.335817
666.796011	0.336028
667.000172	0.335925
667.204315	0.336183
667.408439	0.336596
667.612545	0.336653
667.816634	0.336789
668.020703	0.336657
668.224755	0.337033
668.428788	0.337075
668.632803	0.337565
668.836800	0.337583
669.040779	0.337895
669.244739	0.337966
669.448681	0.338325
669.652605	0.338437
669.856511	0.339151
670.060399	0.339460
670.264268	0.339899
670.468119	0.340214
670.671952	0.340600
670.875767	0.340683
671.079563	0.340960
671.283341	0.341265
671.487101	0.341734
671.690843	0.341982
671.894567	0.342050
672.098272	0.342325
672.301959	0.342429
672.505628	0.342576
672.709278	0.342817
672.912911	0.343123
673.116525	0.343480
673.320121	0.343592
673.523699	0.343453
673.727258	0.343912
673.930799	0.343962
674.134322	0.344217
674.337827	0.344776
674.541314	0.345181
674.744782	0.345210
674.948232	0.345056
675.151664	0.345225
675.355078	0.345582
675.558474	0.345758
675.761851	0.346054
675.965210	0.346016
676.168551	0.345939
676.371873	0.346085
676.575178	0.346204
676.778464	0.346620
676.981732	0.347059
677.184981	0.347215
677.388213	0.347264
677.591426	0.347142
677.794621	0.347596
677.997798	0.347822
678.200956	0.348121
678.404097	0.348318
678.607219	0.348542
678.810323	0.348532
679.013408	0.348795
679.216476	0.349032
679.419525	0.349589
679.622556	0.349645
679.825569	0.349929
680.028563	0.350326
680.231540	0.350728
680.434498	0.351091
680.637438	0.351713
680.840359	0.351977
681.043263	0.352150
681.246148	0.352468
681.449015	0.352775
681.651864	0.353088
681.854694	0.353105
682.057506	0.353438
682.260301	0.353900
682.463076	0.353758
682.665834	0.353855
682.868573	0.354134
683.071295	0.354066
683.273998	0.354114
683.476682	0.354483
683.679349	0.354842
683.881997	0.354678
684.084627	0.354460
684.287239	0.354761
684.489833	0.354824
684.692408	0.355008
684.894965	0.354990
685.097504	0.354969
685.300025	0.355104
685.502527	0.355205
685.705012	0.355498
685.907478	0.355449
686.109925	0.355506
686.312355	0.355833
686.514766	0.355813
686.717159	0.356256
686.919534	0.356718
687.121891	0.356665
687.324230	0.356659
687.526550	0.356983
687.728852	0.357374
687.931136	0.357686
688.133401	0.357908
688.335649	0.358430
688.537878	0.358803
688.740089	0.359295
688.942281	0.359694
689.144456	0.359903
689.346612	0.360115
689.548750	0.360500
689.750870	0.360828
689.952971	0.361212
690.155055	0.361340
690.357120	0.361483
690.559167	0.361513
690.761195	0.361783
690.963206	0.362169
691.165198	0.362402
691.367172	0.362579
691.569128	0.362618
691.771065	0.362872
691.972984	0.363092
692.174885	0.363303
692.376768	0.363407
692.578633	0.363444
692.780479	0.363297
692.982308	0.363287
693.184118	0.363143
693.385909	0.363337
