sample name	sample
index	932
start time	 04-12-2021  12:25:06 PM
880	0.372684
Peak Time (s)	102.035
Peak Height 	0.3727
calc peak height	100,103
Baseline Time (s)	9.537
Baseline Value 	-0.003964
subtract baseline	10,4
Abs	0.341425
Peak Time (s)	101.04
Peak Height 	0.3414
calc peak height	100,103
Baseline Time (s)	11.536
Baseline Value 	0.001421
subtract baseline	10,3
PK_550	0.199222
Peak Time (s)	100.537
Peak Height 	0.1992
calc peak height	100,103
Baseline Time (s)	9.04
Baseline Value 	-7.4617E-5
subtract baseline	10,2
PK_880	0.341348
Peak Time (s)	100.537
Peak Height 	0.3413
calc peak height	100,103
Baseline Time (s)	10.034
Baseline Value 	0.001609
subtract baseline	10,1


Time (s)	A880-A510	A880-A775	A880-A975	A880	I510	I775	I975	I880	
0.034500	0.001166	0.000377	0.002264	0.002286	7189.510319	43508.767607	3943.041424	23323.860440
0.537000	-0.004906	-0.000803	-0.002744	0.006249	7091.162845	43031.119278	3920.799925	23138.181327
1.037500	-0.002073	-0.000447	0.000718	0.003920	7141.460401	43279.668409	3935.102915	23247.067091
1.537500	-0.001276	-0.000262	-0.002055	0.000947	7178.587839	43574.207811	3935.601116	23386.970920
2.038000	-0.000129	0.000005	0.001956	0.001217	7187.263717	43573.812428	3944.948434	23374.197934
2.535500	-0.002557	0.000428	-0.004051	0.006044	7115.975522	43163.817900	3918.096813	23147.717728
3.044000	0.000416	0.000126	0.002911	-0.001170	7216.416186	43809.248495	3953.367792	23487.166120
3.536500	0.001847	0.000670	0.001093	0.001325	7205.810612	43626.004893	3942.515044	23369.115328
4.036000	-0.000129	0.000410	-0.002188	0.000415	7195.225740	43687.042167	3936.594901	23412.112851
4.537000	-0.003438	-0.000949	-0.005851	0.004239	7124.985549	43203.502578	3918.109361	23232.118435
5.037000	-0.000672	-0.000104	0.000200	-0.000013	7194.071707	43678.898785	3943.630014	23432.322277
5.537500	-0.000840	-0.000536	0.000332	-0.000289	7195.140659	43664.185972	3944.650756	23445.377992
6.037500	-0.001386	0.000291	0.004613	0.000365	7183.256839	43680.521313	3953.789891	23414.469366
6.535500	-0.001009	0.000456	0.000789	0.000706	7183.606898	43663.986972	3943.305362	23398.353099
7.035500	0.000146	-0.000603	-0.002657	-0.000605	7208.099952	43687.676119	3937.967579	23460.385580
7.536000	0.000753	-0.000307	0.006709	-0.000606	7214.152438	43715.518000	3961.578880	23460.435996
8.036500	-0.001357	0.000020	0.000036	-0.000008	7187.234714	43689.998462	3943.204834	23432.085091
8.536500	0.000811	0.000526	0.004836	0.000323	7205.482243	43706.502536	3954.462622	23416.467561
9.039500	-0.002484	0.000000	-0.002200	-0.000447	7180.417484	43729.378066	3938.711989	23452.865934
9.537000	0.001744	-0.000314	-0.000229	0.000000	7217.987671	43657.988320	3942.522101	23431.722051
10.034500	0.000000	-0.000291	0.000086	-0.000171	7202.325587	43676.222222	3943.740302	23439.828901
10.535000	-0.000595	-0.000138	0.000973	-0.000314	7197.832135	43703.916006	3946.323883	23446.572556
11.035000	0.001072	0.000810	-0.000005	0.000315	7208.145013	43733.850413	3942.294983	23416.805458
11.536000	-0.000767	0.000277	0.000000	0.004242	7151.119902	43317.062348	3932.521503	23231.999104
12.035500	0.001274	0.001023	0.000021	0.000852	7204.817798	43703.432659	3941.014503	23391.429410
12.536000	0.000925	0.000438	0.001972	0.000260	7207.235848	43704.151262	3947.392944	23419.402375
13.035500	-0.000081	0.000038	-0.001829	-0.000720	7206.972797	43758.636662	3940.320650	23465.812094
13.539500	-0.002908	-0.000156	-0.002200	0.004344	7129.137884	43267.379581	3926.824882	23227.216075
14.036500	-0.000653	0.000344	-0.004553	0.002896	7165.488522	43448.687213	3924.594649	23295.146672
14.537000	-0.001283	-0.001027	0.000429	0.001323	7174.799792	43467.553456	3940.859200	23369.215648
15.034500	-0.000770	-0.000735	0.001886	-0.000072	7193.692744	43625.310351	3948.012055	23435.131871
15.535000	-0.002347	-0.000002	-0.003921	0.004003	7137.965692	43313.332335	3923.425059	23243.189671
16.036500	0.001467	0.000987	0.003046	0.000459	7210.650565	43736.967000	3949.594861	23409.996226
16.535500	-0.000192	0.000980	0.004940	0.000670	7192.062414	43716.502583	3953.845870	23400.043811
17.041000	0.002002	0.000355	0.003595	-0.003408	7254.724238	44042.070803	3960.782399	23593.592649
17.536000	-0.001114	0.000356	0.003771	0.002500	7164.843989	43486.719041	3946.284291	23313.754433
18.039500	-0.000391	0.000242	-0.001597	0.001608	7180.802623	43559.453524	3935.096150	23355.785941
18.536500	-0.000995	0.000434	0.002009	0.001274	7178.127451	43608.699416	3944.937469	23371.509900
19.034000	-0.000513	-0.000010	-0.003045	0.001200	7183.623500	43574.066105	3932.512415	23375.007524
19.537500	0.000396	0.000375	-0.001190	0.003047	7174.349879	43437.481261	3932.532555	23288.063196
20.035000	0.001498	0.000047	0.000673	0.001723	7198.386646	43530.511519	3940.468585	23350.360389
20.534500	0.000135	0.000256	-0.002420	0.001531	7186.772745	43568.040554	3933.242864	23359.423891
21.037000	-0.000870	-0.000472	-0.001556	0.001047	7181.614206	43545.215470	3936.596399	23382.264266
21.536000	-0.001761	-0.000172	0.003567	0.002615	7157.352284	43426.821535	3945.484660	23308.373729
22.038500	0.000922	0.000071	0.000624	0.001663	7193.257258	43538.275357	3940.496006	23353.169800
22.536500	-0.001577	0.000635	0.000716	0.001768	7167.508735	43581.265643	3940.464609	23348.257847
23.036500	-0.000594	0.000101	0.000877	0.001735	7177.537860	43534.401934	3940.949434	23349.783290
23.537000	-0.000544	0.000264	0.004565	0.003236	7163.218945	43409.524920	3946.430350	23279.196210
24.037000	0.000286	0.000669	0.003113	0.002369	7179.967669	43528.268498	3944.962119	23319.939578
24.534500	0.000985	0.000876	0.000886	0.001862	7191.910878	43594.989003	3940.652962	23343.809187
25.034500	0.000083	0.000434	-0.000368	0.002154	7180.085904	43526.283071	3936.795580	23330.037254
25.535500	-0.001541	-0.000276	0.001998	0.002846	7157.243734	43395.537851	3940.974377	23297.521753
26.035500	-0.001107	-0.000852	-0.002293	0.000864	7181.077433	43526.746148	3935.216819	23390.890545
26.535500	-0.000491	0.000318	0.002806	0.001670	7179.197737	43560.741296	3945.945972	23352.858796
27.041000	0.002351	0.000751	0.002688	-0.000584	7229.893823	43812.933519	3951.323743	23459.385096
27.536500	-0.001562	0.000809	-0.000645	0.005185	7134.086487	43278.943709	3928.589225	23187.876810
28.037000	0.000538	0.000020	0.006555	0.000510	7200.899016	43641.519275	3958.346754	23407.606411
28.537000	-0.001090	0.000080	0.000610	0.003797	7152.325567	43340.113038	3935.140630	23252.852589
29.037500	0.001907	0.001338	0.000886	0.001455	7205.123093	43676.501075	3941.671156	23363.003969
29.535000	0.000326	0.000618	0.004064	0.001078	7193.151425	43644.294460	3950.601866	23380.766611
30.035000	0.003063	0.000193	0.002190	0.000699	7224.184973	43639.959937	3946.837508	23398.673246
30.535500	-0.001310	0.000066	0.003378	0.003546	7152.620733	43362.160120	3942.675907	23264.619682
31.036000	-0.000592	0.000283	0.001704	0.002773	7167.306259	43454.449895	3940.421402	23300.918155
31.536000	0.001287	0.000322	-0.000320	0.000714	7206.315961	43650.700707	3940.507505	23397.960578
32.039500	0.001572	0.000359	-0.000559	0.000741	7208.889450	43651.639751	3939.843105	23396.691807
32.536500	-0.003060	-0.000221	-0.001923	0.005627	7115.137456	43142.361172	3924.345738	23167.188710
33.036500	0.001828	0.000962	-0.000131	0.001543	7203.456398	43632.979907	3938.910412	23358.834189
33.537000	0.001705	0.000387	0.007268	-0.000930	7226.893742	43811.223631	3963.829564	23475.783489
34.042500	0.000755	0.000563	0.003494	0.003300	7175.398227	43431.400669	3943.582676	23276.167362
34.537500	-0.002017	0.000546	0.001459	0.003093	7150.126002	43449.126779	3939.010716	23285.898026
35.035500	-0.000076	0.000068	0.002373	0.002704	7173.073510	43440.786522	3942.266201	23304.171886
35.535500	-0.001750	0.000150	0.001167	0.004244	7141.457882	43305.071069	3935.415689	23231.908621
36.035500	0.000307	0.000382	0.000039	0.003004	7173.894530	43442.189577	3935.694655	23290.080798
36.539000	-0.000398	0.000560	-0.001341	0.003289	7164.127764	43432.123483	3931.558307	23276.688478
37.036500	-0.000223	-0.001001	0.003725	0.002309	7175.526245	43378.082922	3946.649740	23322.771070
37.536500	-0.001179	0.000304	0.001098	0.004587	7143.684325	43287.496151	3934.390661	23215.810281
38.034000	-0.002195	-0.000482	-0.001825	0.002171	7157.442257	43439.260400	3933.131732	23329.249294
38.537000	0.000873	0.000762	0.002590	0.002889	7180.622579	43488.266074	3942.345092	23295.462068
39.041000	0.000272	0.000007	0.000586	0.002466	7178.877077	43457.426680	3938.398302	23315.388321
39.535000	-0.002067	0.000007	-0.000701	0.004111	7139.646321	43304.111736	3931.106084	23238.114434
40.035000	-0.002025	-0.000402	0.002770	0.002680	7154.104173	43399.284600	3943.320011	23305.300666
40.535500	-0.000972	-0.000194	0.001869	0.002600	7165.266085	43426.090133	3941.267321	23309.073252
41.036500	0.000452	0.000376	-0.001710	0.002730	7178.037627	43467.174205	3932.030223	23302.957922
41.536000	0.001125	0.000116	0.002225	0.004326	7168.922064	43294.300435	3937.845258	23228.046240
42.036500	-0.000347	0.000597	0.000578	0.003385	7163.680371	43426.674720	3936.086252	23272.171452
42.536500	-0.000749	0.000958	-0.000936	0.003530	7158.302261	43446.832891	3931.965155	23265.388211
43.040500	-0.001104	-0.000076	0.002395	0.002900	7161.005891	43409.107638	3941.832311	23294.970043
43.537500	-0.001489	0.000093	0.000144	0.004059	7145.828059	43316.969385	3933.331670	23240.562639
44.035000	0.001125	0.000097	0.006246	0.000233	7209.496285	43674.650232	3958.265161	23420.701864
44.535000	-0.001775	0.001008	-0.000793	0.003260	7150.874886	43476.706579	3932.991767	23278.071615
45.038000	-0.001679	0.000531	0.004308	0.001209	7172.014984	43623.893049	3950.886393	23374.585796
45.536000	-0.003479	-0.000106	0.001526	0.004323	7123.771187	43273.938192	3936.112623	23228.193425
46.036000	-0.000701	0.000373	-0.000225	0.001451	7179.286821	43586.501655	3938.906952	23363.206083
46.536500	0.002012	0.000189	-0.002128	0.002138	7199.362858	43504.897993	3932.459379	23330.790866
47.036500	0.000686	0.000549	0.000370	0.000763	7199.850569	43667.372836	3942.110606	23395.631643
47.536500	-0.001846	-0.000549	0.000029	0.004682	7136.214509	43199.449491	3931.500314	23211.365270
48.037000	0.001511	0.000817	0.003805	0.002428	7191.515907	43536.536117	3946.550348	23317.150414
48.537500	0.000484	0.000341	0.000779	0.001889	7186.680450	43542.416006	3940.318618	23342.535306
49.035500	-0.000265	0.000345	0.002602	0.000843	7189.622723	43640.735120	3947.512786	23391.880466
49.537500	-0.002112	0.000375	0.000802	0.004270	7137.649330	43323.595140	3934.441373	23230.665360
50.035500	0.000821	0.000384	0.006564	-0.000225	7211.034617	43744.670358	3960.238668	23442.393426
50.538500	-0.003978	-0.000949	0.005049	0.011405	7050.400476	42544.527263	3927.289499	22899.137346
51.036000	-0.045266	-0.005415	-0.000964	0.301873	4824.902785	23019.813878	3396.852454	13137.598449
51.536500	-0.083590	-0.019474	-0.013690	0.034976	6169.317042	38885.373254	3827.762358	21841.721515
52.036500	-0.081609	-0.041435	-0.009350	-0.190457	8430.154968	60369.762607	4506.037918	34742.525357
52.537000	-0.052861	-0.140623	0.006773	-0.327044	10999.735441	65535.000000	5201.699920	46517.034421
53.037000	-0.033781	-0.133320	0.018584	-0.319741	11222.821223	65535.000000	5226.181343	45789.423317
53.535000	-0.035373	-0.064924	0.021210	-0.244648	9873.070162	64576.981149	4861.789990	38976.587025
54.035000	-0.021818	-0.039940	0.019357	-0.207610	9505.198445	62889.742661	4689.907935	36026.051732
54.535000	-0.005534	-0.019922	0.022060	-0.170015	9188.126572	60511.565023	4548.261006	33277.655697
55.038500	0.011847	-0.009884	0.030585	-0.147263	9110.641026	58850.507307	4493.693494	31726.347488
55.536000	0.028512	0.001022	0.036997	-0.117134	8920.572937	56429.531242	4406.613784	29793.215001
56.035500	0.048151	0.011852	0.042343	-0.097605	8922.106279	55368.640088	4356.763911	28609.953471
56.536500	0.058930	0.021683	0.057283	-0.052758	8466.542613	51306.995834	4256.834656	26085.873885
57.037000	0.071929	0.030157	0.072707	-0.033252	8383.528508	50093.744472	4243.721620	25066.831129
57.537000	0.090697	0.038609	0.085765	-0.014684	8386.067461	49008.083860	4226.218211	24138.390027
58.038000	0.107121	0.048897	0.109186	0.019714	8162.991857	46519.873473	4191.995619	22519.808777
58.534500	0.123205	0.060341	0.123998	0.052919	7958.936679	44389.864800	4136.560326	21074.424205
59.035500	0.135219	0.069275	0.135525	0.073211	7863.113928	43319.771669	4110.957168	20244.017969
59.538500	0.144264	0.077873	0.153597	0.100162	7661.998553	41648.701510	4085.542672	19199.417511
60.036000	0.149443	0.082691	0.167295	0.132956	7367.642512	39233.524729	4032.614255	18012.738760
60.536000	0.156622	0.089788	0.177855	0.153589	7230.876557	38119.656754	4005.617917	17310.769227
61.036500	0.162018	0.097272	0.191466	0.174368	7079.602255	37058.892420	3986.784591	16636.735211
61.539500	0.158517	0.101915	0.199171	0.223152	6603.706913	33761.036111	3884.647411	15175.413620
62.037500	0.158372	0.101447	0.203793	0.256732	6325.778787	31436.596323	3818.240578	14260.789361
62.537500	0.165665	0.104542	0.204770	0.267895	6295.249156	30912.067219	3795.914336	13972.086382
63.037500	0.175350	0.108920	0.210052	0.274386	6320.436498	30776.272005	3793.300545	13807.591707
63.535000	0.182808	0.112934	0.207009	0.283552	6306.942704	30447.921148	3767.292726	13579.439196
64.035000	0.193539	0.117656	0.225078	0.280347	6418.561239	30954.696712	3813.087533	13658.660411
64.535500	0.201652	0.122361	0.220561	0.281381	6476.649422	31192.605214	3800.922441	13633.044984
65.036000	0.211831	0.126596	0.223205	0.281137	6563.916903	31485.477246	3807.231477	13639.080509
65.536500	0.215267	0.127953	0.228724	0.278625	6614.664077	31740.990789	3825.001905	13701.481329
66.036500	0.218929	0.129016	0.231747	0.274997	6677.814057	32053.782183	3839.968383	13792.219483
66.536500	0.223047	0.133230	0.233928	0.274319	6719.935849	32383.644130	3846.472245	13809.260278
67.037500	0.226072	0.134251	0.233357	0.269758	6787.538618	32764.615006	3855.624600	13924.625624
67.537500	0.228250	0.138162	0.238753	0.274112	6768.017685	32734.161437	3858.026505	13814.470121
68.035000	0.241182	0.140790	0.243790	0.268417	6938.241215	33310.784476	3883.118759	13958.771225
68.535500	0.244880	0.143985	0.252603	0.268806	6969.237558	33507.684693	3903.253533	13948.842181
69.035500	0.248441	0.145176	0.250533	0.267423	7016.020741	33689.394813	3901.597621	13984.141528
69.536000	0.251251	0.147474	0.254266	0.272663	6992.963101	33481.831023	3897.972693	13851.018023
70.036000	0.257655	0.149478	0.259848	0.267420	7104.647597	33995.807701	3924.291032	13984.214384
70.536500	0.259936	0.151354	0.257415	0.267351	7127.553454	34135.214165	3918.488099	13985.987124
71.036500	0.266955	0.154052	0.260374	0.267150	7198.693522	34344.212395	3926.253953	13991.133468
71.537000	0.265157	0.154862	0.262951	0.271525	7137.788118	34087.370267	3921.827363	13879.783888
72.037000	0.270747	0.156437	0.267211	0.266272	7245.331395	34580.993967	3945.450095	14013.594613
72.534500	0.274315	0.158668	0.266499	0.266361	7280.410704	34737.485722	3943.441059	14011.312939
73.035000	0.276221	0.159883	0.268342	0.266082	7302.592233	34847.114812	3948.774263	14018.482445
73.538500	0.278177	0.162089	0.273516	0.271990	7262.557652	34576.234637	3946.925332	13868.026243
74.035500	0.284523	0.163714	0.268496	0.266559	7382.926967	35094.518023	3947.959449	14006.256956
74.535000	0.286326	0.165992	0.280610	0.267641	7390.395648	35183.233572	3976.075715	13978.578598
75.036500	0.289945	0.166591	0.281000	0.266761	7437.315841	35293.195769	3979.356900	14001.073640
75.535500	0.289274	0.168222	0.280465	0.272813	7367.374076	34965.439917	3962.433217	13847.209395
76.036500	0.293362	0.169359	0.282592	0.268894	7450.806670	35340.534842	3977.959298	13946.614650
76.537000	0.298631	0.172301	0.282855	0.269848	7496.403606	35489.214090	3976.172112	13922.324184
77.037500	0.300800	0.172460	0.284524	0.269879	7519.158570	35498.800023	3980.407560	13921.529902
77.535000	0.299186	0.173148	0.280204	0.277240	7424.361537	35002.324179	3950.547179	13736.037620
78.038500	0.305751	0.175449	0.286294	0.273726	7530.971637	35434.569862	3975.042579	13824.206528
78.535500	0.305848	0.176193	0.287663	0.275079	7517.535552	35389.018497	3975.082240	13790.158178
79.035500	0.308767	0.176613	0.294412	0.276505	7533.492110	35313.873231	3988.893329	13754.406026
79.536000	0.305047	0.177255	0.294467	0.283495	7420.239884	34844.021919	3970.932361	13580.828473
80.036500	0.311811	0.179520	0.292648	0.281858	7508.840751	35132.080989	3970.465644	13621.234876
80.536500	0.313880	0.180064	0.296161	0.280728	7543.030708	35256.385794	3982.453950	13649.210613
81.037000	0.315423	0.180963	0.299726	0.282186	7543.946148	35214.784775	3987.934264	13613.122429
81.536500	0.317417	0.182462	0.298519	0.284275	7542.926308	35170.967340	3979.370946	13561.640671
82.034500	0.317461	0.183287	0.299363	0.288084	7502.708767	34950.283088	3971.721182	13468.391386
82.535500	0.320345	0.183386	0.301902	0.287098	7544.055341	35030.354898	3980.821534	13492.454204
83.035500	0.322048	0.184875	0.302120	0.288492	7547.376429	35037.408647	3977.777021	13458.464840
83.535000	0.321974	0.185862	0.303233	0.288912	7542.065563	35079.290076	3979.569680	13448.228824
84.036000	0.322754	0.186952	0.308886	0.292842	7508.401164	34869.783121	3984.040595	13353.057354
84.536000	0.326157	0.187866	0.309761	0.291986	7553.981400	35000.209900	3988.547797	13373.712130
85.036500	0.324979	0.187786	0.312679	0.292477	7536.074986	34958.138845	3994.899729	13361.870318
85.536500	0.327754	0.188901	0.308669	0.295086	7537.849985	34848.121936	3977.662446	13299.113797
86.037000	0.325245	0.189414	0.309014	0.300169	7457.203484	34514.107787	3965.481724	13177.912177
86.534500	0.328344	0.189702	0.312302	0.299013	7502.228368	34619.287766	3976.901494	13205.358015
87.035000	0.329127	0.190638	0.315635	0.301396	7485.249352	34513.845047	3979.359689	13148.875290
87.537500	0.329890	0.191833	0.312221	0.310303	7399.766504	33958.068935	3947.912421	12940.479346
88.036000	0.329970	0.189414	0.311483	0.307600	7428.786509	33978.284565	3952.867112	13003.254908
88.535500	0.333743	0.192155	0.321106	0.308077	7463.419660	34140.544312	3976.230415	12992.150494
89.036000	0.334486	0.192098	0.318456	0.310027	7450.708347	33996.726733	3964.418292	12946.872953
89.539000	0.329130	0.191828	0.319147	0.317468	7318.110736	33450.068112	3947.310301	12775.911541
90.036500	0.333264	0.192442	0.316779	0.317369	7361.534590	33500.211978	3941.619550	12778.170234
90.537000	0.336236	0.194089	0.327976	0.316363	7402.736693	33687.485485	3972.580253	12801.112397
91.037500	0.336125	0.194146	0.321592	0.317976	7384.833936	33577.478481	3952.192574	12764.345058
91.537500	0.333852	0.193202	0.320958	0.324806	7291.475974	33033.926176	3933.499211	12610.172154
92.038000	0.334378	0.194754	0.321947	0.327408	7270.462856	32961.248511	3929.501554	12552.067510
92.538500	0.335456	0.194940	0.329150	0.325112	7304.671637	33133.257596	3953.257659	12603.309078
93.035500	0.337315	0.195355	0.327720	0.326922	7305.165376	33036.409030	3945.094958	12562.882671
93.536000	0.334396	0.195110	0.323501	0.335500	7189.657507	32431.088544	3913.448354	12373.570780
94.036000	0.335266	0.194381	0.324533	0.336155	7191.787703	32337.214200	3914.366623	12359.267290
94.536500	0.337445	0.195887	0.326065	0.335206	7222.928417	32503.905590	3920.434408	12380.000604
95.037000	0.337420	0.196570	0.327569	0.337391	7200.913345	32401.844742	3918.768046	12332.352228
95.537000	0.335571	0.197091	0.326861	0.346424	7094.090938	31829.975961	3895.175060	12137.849535
96.037000	0.338639	0.197001	0.331658	0.342233	7165.054716	32104.125032	3916.926086	12227.591658
96.537500	0.338024	0.196037	0.329539	0.343954	7142.086110	31924.337205	3907.578992	12190.633698
97.035500	0.339226	0.197043	0.331450	0.346655	7127.413925	31811.401042	3905.664993	12132.921605
97.535500	0.336902	0.196246	0.326936	0.354972	7024.700620	31211.661192	3875.079877	11957.467288
