sample name	sample
index	224
start time	 02-22-2021  10:38:34 AM


Wavelength (nm)	Absorbance
494.344910	0.010092
494.563924	0.010092
494.782919	0.010092
495.001897	-0.124738
495.220856	-0.013148
495.439797	-0.003217
495.658719	-0.004858
495.877624	-0.001442
496.096510	0.030131
496.315378	0.018340
496.534227	-0.000297
496.753059	-0.011881
496.971872	0.006550
497.190667	0.115310
497.409444	0.131248
497.628203	0.138260
497.846943	0.138602
498.065665	0.140569
498.284369	0.143838
498.503055	0.146530
498.721723	0.149004
498.940372	0.149935
499.159003	0.150598
499.377616	0.151075
499.596210	0.150803
499.814787	0.152811
500.033345	0.153332
500.251885	0.154010
500.470406	0.154536
500.688910	0.154970
500.907395	0.154902
501.125862	0.154436
501.344311	0.153644
501.562742	0.154940
501.781154	0.155131
501.999548	0.154660
502.217924	0.153856
502.436282	0.153480
502.654621	0.152711
502.872942	0.152495
503.091245	0.152912
503.309530	0.154263
503.527797	0.153123
503.746045	0.153921
503.964275	0.153470
504.182487	0.153016
504.400681	0.153693
504.618856	0.154157
504.837013	0.154677
505.055152	0.154602
505.273273	0.154655
505.491376	0.155989
505.709460	0.155741
505.927526	0.156798
506.145574	0.157664
506.363604	0.157627
506.581615	0.157692
506.799608	0.157498
507.017583	0.158243
507.235540	0.158738
507.453478	0.159257
507.671399	0.159314
507.889301	0.159749
508.107185	0.160656
508.325050	0.160685
508.542898	0.161047
508.760727	0.161587
508.978538	0.161157
509.196330	0.161977
509.414105	0.161715
509.631861	0.161781
509.849599	0.161018
510.067319	0.160835
510.285021	0.160778
510.502704	0.160717
510.720369	0.160688
510.938016	0.160275
511.155645	0.160151
511.373255	0.161137
511.590848	0.161160
511.808422	0.161489
512.025977	0.160748
512.243515	0.161449
512.461034	0.161446
512.678536	0.162381
512.896018	0.163404
513.113483	0.163382
513.330930	0.162358
513.548358	0.162838
513.765768	0.164962
513.983160	0.165981
514.200533	0.165457
514.417889	0.165814
514.635226	0.165431
514.852545	0.165527
515.069845	0.164824
515.287128	0.165913
515.504392	0.165163
515.721638	0.163872
515.938866	0.163965
516.156075	0.164951
516.373267	0.165017
516.590440	0.165365
516.807594	0.165711
517.024731	0.166632
517.241850	0.166365
517.458950	0.167406
517.676032	0.168531
517.893095	0.169341
518.110141	0.169164
518.327168	0.169976
518.544177	0.169262
518.761168	0.169854
518.978141	0.169934
519.195095	0.169824
519.412031	0.170192
519.628949	0.170092
519.845849	0.169808
520.062731	0.170588
520.279594	0.170321
520.496439	0.171599
520.713266	0.171241
520.930074	0.171829
521.146865	0.173041
521.363637	0.172959
521.580391	0.172771
521.797127	0.173436
522.013844	0.173601
522.230543	0.174213
522.447224	0.174356
522.663887	0.174956
522.880532	0.175612
523.097158	0.175160
523.313766	0.175188
523.530356	0.175945
523.746928	0.177046
523.963481	0.177163
524.180017	0.176905
524.396534	0.177256
524.613032	0.177389
524.829513	0.176884
525.045975	0.177049
525.262420	0.177760
525.478845	0.177419
525.695253	0.176940
525.911643	0.177243
526.128014	0.177737
526.344367	0.177443
526.560702	0.177695
526.777018	0.178397
526.993316	0.179256
527.209597	0.178773
527.425858	0.179153
527.642102	0.179757
527.858328	0.180327
528.074535	0.180945
528.290724	0.181626
528.506894	0.181918
528.723047	0.182221
528.939181	0.182693
529.155297	0.184042
529.371395	0.184738
529.587475	0.184199
529.803536	0.184198
530.019579	0.184344
530.235604	0.184384
530.451611	0.184627
530.667600	0.185668
530.883570	0.185821
531.099522	0.185751
531.315456	0.186073
531.531372	0.186763
531.747269	0.186819
531.963148	0.187957
532.179009	0.188500
532.394852	0.189018
532.610676	0.189145
532.826482	0.189253
533.042271	0.189600
533.258040	0.190114
533.473792	0.190097
533.689525	0.190159
533.905240	0.189957
534.120937	0.190184
534.336616	0.190510
534.552277	0.190789
534.767919	0.191199
534.983543	0.191897
535.199149	0.192081
535.414736	0.192699
535.630306	0.193754
535.845857	0.193613
536.061390	0.193920
536.276904	0.194801
536.492401	0.194927
536.707879	0.195339
536.923339	0.195434
537.138781	0.195777
537.354204	0.196388
537.569610	0.196694
537.784997	0.196953
538.000366	0.196912
538.215716	0.196707
538.431049	0.196557
538.646363	0.197112
538.861659	0.197927
539.076937	0.198406
539.292196	0.198934
539.507438	0.199200
539.722661	0.200413
539.937866	0.201423
540.153052	0.202063
540.368221	0.202518
540.583371	0.202338
540.798503	0.202028
541.013617	0.202323
541.228712	0.202678
541.443789	0.203174
541.658848	0.202890
541.873889	0.203221
542.088912	0.203691
542.303916	0.204142
542.518902	0.204810
542.733870	0.205575
542.948820	0.206168
543.163752	0.206046
543.378665	0.206131
543.593560	0.206666
543.808437	0.207104
544.023295	0.206926
544.238136	0.207310
544.452958	0.207508
544.667762	0.206856
544.882548	0.207264
545.097315	0.207565
545.312064	0.207705
545.526795	0.207807
545.741508	0.207776
545.956203	0.208352
546.170879	0.208575
546.385537	0.209147
546.600177	0.210287
546.814799	0.210266
547.029402	0.210209
547.243988	0.210943
547.458555	0.211509
547.673103	0.211769
547.887634	0.211687
548.102146	0.212026
548.316640	0.212115
548.531116	0.211949
548.745574	0.212597
548.960013	0.213256
549.174435	0.212962
549.388838	0.212825
549.603222	0.213432
549.817589	0.213743
550.031937	0.214010
550.246267	0.214480
550.460579	0.215188
550.674873	0.215226
550.889148	0.215151
551.103405	0.215939
551.317644	0.216186
551.531865	0.216097
551.746068	0.216408
551.960252	0.216367
552.174418	0.216284
552.388566	0.216325
552.602696	0.216535
552.816807	0.217166
553.030900	0.216949
553.244975	0.217179
553.459032	0.217656
553.673070	0.217713
553.887091	0.217862
554.101093	0.218547
554.315077	0.218574
554.529042	0.218641
554.742990	0.218677
554.956919	0.219076
555.170830	0.219714
555.384722	0.219945
555.598597	0.220198
555.812453	0.220709
556.026291	0.220836
556.240111	0.220993
556.453913	0.221226
556.667696	0.221367
556.881461	0.221977
557.095208	0.221943
557.308937	0.221936
557.522647	0.222584
557.736339	0.223303
557.950013	0.223225
558.163669	0.223570
558.377307	0.223841
558.590926	0.224111
558.804527	0.223989
559.018110	0.224180
559.231675	0.225080
559.445221	0.224841
559.658749	0.224770
559.872259	0.225111
560.085751	0.225416
560.299225	0.225089
560.512680	0.225506
560.726117	0.225766
560.939536	0.225783
561.152937	0.225790
561.366319	0.225853
561.579683	0.225494
561.793029	0.225715
562.006357	0.225648
562.219667	0.226289
562.432958	0.226320
562.646231	0.226858
562.859486	0.227043
563.072723	0.227056
563.285941	0.227882
563.499141	0.228416
563.712323	0.228683
563.925487	0.229256
564.138632	0.229072
564.351760	0.229216
564.564869	0.229203
564.777960	0.229952
564.991032	0.229814
565.204087	0.229781
565.417123	0.229802
565.630141	0.229905
565.843140	0.229801
566.056122	0.230410
566.269085	0.230364
566.482030	0.230698
566.694957	0.230855
566.907866	0.231247
567.120756	0.231129
567.333628	0.231800
567.546482	0.232061
567.759318	0.232643
567.972135	0.233177
568.184935	0.233728
568.397716	0.233727
568.610478	0.233558
568.823223	0.233824
569.035949	0.233912
569.248657	0.233918
569.461347	0.233632
569.674019	0.233816
569.886672	0.233732
570.099308	0.234134
570.311925	0.234134
570.524523	0.234193
570.737104	0.234552
570.949666	0.235126
571.162210	0.235632
571.374736	0.236406
571.587244	0.236748
571.799733	0.237013
572.012205	0.236945
572.224658	0.236910
572.437092	0.237271
572.649509	0.237385
572.861907	0.237953
573.074287	0.237564
573.286649	0.237207
573.498993	0.237410
573.711318	0.237425
573.923625	0.238177
574.135914	0.239009
574.348185	0.239029
574.560438	0.239168
574.772672	0.239034
574.984888	0.239345
575.197086	0.239834
575.409266	0.239963
575.621427	0.240384
575.833570	0.239944
576.045695	0.239370
576.257802	0.239993
576.469890	0.239865
576.681961	0.239988
576.894013	0.239931
577.106046	0.239955
577.318062	0.239830
577.530059	0.240205
577.742039	0.240718
577.954000	0.241369
578.165942	0.241603
578.377867	0.242156
578.589773	0.242620
578.801661	0.242953
579.013531	0.243304
579.225382	0.243266
579.437216	0.243143
579.649031	0.243210
579.860828	0.243264
580.072606	0.243249
580.284367	0.243423
580.496109	0.243529
580.707833	0.243882
580.919539	0.243897
581.131227	0.244451
581.342896	0.244728
581.554547	0.244976
581.766180	0.245509
581.977795	0.245487
582.189391	0.245476
582.400969	0.245422
582.612529	0.245617
582.824071	0.246196
583.035595	0.246352
583.247100	0.246824
583.458587	0.246958
583.670056	0.247234
583.881506	0.247778
584.092939	0.248133
584.304353	0.248222
584.515749	0.248367
584.727127	0.248274
584.938486	0.248574
585.149828	0.248390
585.361151	0.248600
585.572456	0.248544
585.783742	0.248636
585.995011	0.248871
586.206261	0.249430
586.417493	0.250048
586.628706	0.250169
586.839902	0.250479
587.051079	0.250537
587.262238	0.250720
587.473379	0.250773
587.684502	0.251261
587.895606	0.251402
588.106692	0.251136
588.317760	0.251171
588.528810	0.251487
588.739841	0.251360
588.950855	0.251899
589.161850	0.252082
589.372827	0.252245
589.583785	0.252373
589.794726	0.252454
590.005648	0.252891
590.216552	0.253217
590.427437	0.253968
590.638305	0.254105
590.849154	0.254076
591.059985	0.254668
591.270798	0.254868
591.481592	0.255009
591.692369	0.255371
591.903127	0.255850
592.113867	0.255807
592.324588	0.255704
592.535292	0.256256
592.745977	0.256465
592.956644	0.256715
593.167293	0.257268
593.377923	0.257455
593.588536	0.257659
593.799130	0.257408
594.009706	0.257589
594.220263	0.257448
594.430803	0.257575
594.641324	0.257881
594.851827	0.257777
595.062312	0.257413
595.272778	0.257312
595.483227	0.257215
595.693657	0.257892
595.904069	0.257892
596.114462	0.258409
596.324838	0.258202
596.535195	0.258494
596.745534	0.258615
596.955855	0.259059
597.166157	0.259477
597.376441	0.259998
597.586707	0.259990
597.796955	0.260309
598.007185	0.260471
598.217396	0.261234
598.427589	0.261289
598.637764	0.261132
598.847921	0.261491
599.058060	0.261745
599.268180	0.261692
599.478282	0.261732
599.688366	0.261984
599.898431	0.262063
600.108479	0.262216
600.318508	0.262319
600.528519	0.262691
600.738511	0.263109
600.948486	0.263407
601.158442	0.263755
601.368380	0.264067
601.578300	0.264032
601.788202	0.264378
601.998085	0.264283
602.207950	0.264211
602.417797	0.264679
602.627626	0.264630
602.837436	0.264618
603.047228	0.264753
603.257002	0.264825
603.466758	0.265039
603.676496	0.265304
603.886215	0.265748
604.095916	0.265862
604.305599	0.265670
604.515264	0.265884
604.724910	0.265792
604.934538	0.265654
605.144148	0.265874
605.353740	0.266230
605.563314	0.266057
605.772869	0.265990
605.982406	0.266432
606.191925	0.266576
606.401425	0.266518
606.610908	0.267013
606.820372	0.267355
607.029818	0.267353
607.239246	0.267540
607.448655	0.267762
607.658047	0.267889
607.867420	0.268209
608.076775	0.268344
608.286111	0.268700
608.495430	0.268771
608.704730	0.269377
608.914012	0.269735
609.123275	0.269994
609.332521	0.270331
609.541748	0.270551
609.750957	0.270566
609.960148	0.270799
610.169321	0.270876
610.378475	0.270833
610.587611	0.270592
610.796729	0.270849
611.005829	0.270837
611.214910	0.270619
611.423974	0.270650
611.633019	0.270565
611.842045	0.270677
612.051054	0.270691
612.260044	0.270840
612.469017	0.271322
612.677970	0.271240
612.886906	0.271407
613.095824	0.271633
613.304723	0.272149
613.513604	0.272479
613.722467	0.272589
613.931311	0.272801
614.140138	0.273146
614.348946	0.272940
614.557736	0.273093
614.766507	0.273218
614.975261	0.273614
615.183996	0.273484
615.392713	0.273729
615.601412	0.273914
615.810092	0.274353
616.018754	0.274344
616.227399	0.274945
616.436024	0.275252
616.644632	0.275390
616.853222	0.275283
617.061793	0.275436
617.270346	0.275591
617.478880	0.275691
617.687397	0.275534
617.895895	0.275868
618.104375	0.275787
618.312837	0.275885
618.521281	0.275953
618.729706	0.276169
618.938113	0.276290
619.146502	0.276366
619.354873	0.276747
619.563226	0.277085
619.771560	0.276861
619.979876	0.276767
620.188174	0.276881
620.396453	0.277148
620.604715	0.277280
620.812958	0.277474
621.021183	0.277757
621.229390	0.277935
621.437578	0.277942
621.645748	0.278426
621.853900	0.278531
622.062034	0.278878
622.270150	0.278999
622.478247	0.279237
622.686326	0.279642
622.894387	0.279649
623.102430	0.279736
623.310454	0.280156
623.518461	0.280458
623.726449	0.280640
623.934418	0.280545
624.142370	0.280767
624.350303	0.281058
624.558218	0.281080
624.766115	0.281538
624.973994	0.281907
625.181855	0.281780
625.389697	0.281757
625.597521	0.281819
625.805327	0.282030
626.013114	0.282395
626.220883	0.282487
626.428634	0.282522
626.636367	0.282509
626.844082	0.282094
627.051778	0.282243
627.259457	0.282280
627.467117	0.282846
627.674758	0.283011
627.882382	0.282911
628.089987	0.283073
628.297574	0.283393
628.505143	0.283385
628.712694	0.284087
628.920226	0.284223
629.127740	0.284475
629.335236	0.284488
629.542714	0.284632
629.750174	0.284801
629.957615	0.284893
630.165038	0.285039
630.372443	0.285146
630.579829	0.285023
630.787198	0.285298
630.994548	0.285537
631.201880	0.285621
631.409194	0.285835
631.616489	0.285935
631.823766	0.286082
632.031025	0.286231
632.238266	0.286658
632.445489	0.287058
632.652693	0.287226
632.859879	0.287284
633.067047	0.287361
633.274197	0.287370
633.481329	0.287508
633.688442	0.287498
633.895537	0.287648
634.102614	0.287907
634.309672	0.287893
634.516713	0.288096
634.723735	0.288217
634.930739	0.288559
635.137724	0.288939
635.344692	0.289052
635.551641	0.289280
635.758572	0.289258
635.965485	0.289088
636.172379	0.289399
636.379256	0.289440
636.586114	0.289691
636.792954	0.289856
636.999775	0.290093
637.206579	0.290664
637.413364	0.291237
637.620131	0.291544
637.826880	0.291744
638.033610	0.291843
638.240323	0.292173
638.447017	0.292648
638.653692	0.292817
638.860350	0.293125
639.066990	0.293043
639.273611	0.292838
639.480214	0.292777
639.686798	0.293183
639.893365	0.293502
640.099913	0.293666
640.306443	0.293540
640.512955	0.293785
640.719449	0.293362
640.925924	0.293427
641.132381	0.293621
641.338820	0.293911
641.545241	0.293902
641.751644	0.294080
641.958028	0.294339
642.164394	0.294406
642.370742	0.294600
642.577071	0.294782
642.783383	0.295103
642.989676	0.295611
643.195951	0.295973
643.402207	0.296218
643.608446	0.296176
643.814666	0.296188
644.020868	0.296590
644.227052	0.296566
644.433218	0.297228
644.639365	0.297373
644.845494	0.297455
645.051605	0.297432
645.257698	0.297677
645.463772	0.297952
645.669828	0.298401
645.875866	0.298766
646.081886	0.299011
646.287888	0.299068
646.493871	0.299195
646.699836	0.299419
646.905783	0.299605
647.111712	0.299668
647.317622	0.299802
647.523514	0.299722
647.729388	0.299717
647.935244	0.299956
648.141082	0.300437
648.346901	0.300881
648.552702	0.301205
648.758485	0.301523
648.964250	0.301817
649.169996	0.302129
649.375724	0.302362
649.581434	0.302494
649.787126	0.302822
649.992800	0.302632
650.198455	0.303065
650.404092	0.303031
650.609711	0.303244
650.815311	0.303532
651.020894	0.303671
651.226458	0.303845
651.432004	0.304158
651.637532	0.304151
651.843041	0.304461
652.048532	0.304436
652.254006	0.304543
652.459460	0.304678
652.664897	0.304761
652.870315	0.304832
653.075716	0.304866
653.281097	0.304835
653.486461	0.305319
653.691807	0.305476
653.897134	0.305552
654.102443	0.305895
654.307734	0.306278
654.513006	0.306448
654.718261	0.306755
654.923497	0.307059
655.128715	0.307366
655.333915	0.307539
655.539096	0.308098
655.744259	0.308073
655.949404	0.308025
656.154531	0.308050
656.359640	0.308159
656.564730	0.308529
656.769802	0.308945
656.974856	0.309369
657.179892	0.309394
657.384909	0.309365
657.589908	0.309901
657.794889	0.310118
657.999852	0.310491
658.204797	0.310810
658.409723	0.310804
658.614631	0.310864
658.819521	0.310838
659.024393	0.311116
659.229246	0.311236
659.434081	0.311287
659.638898	0.311720
659.843697	0.311867
660.048478	0.312402
660.253240	0.312601
660.457984	0.312721
660.662710	0.313092
660.867417	0.313260
661.072107	0.313406
661.276778	0.313592
661.481431	0.313604
661.686066	0.313634
661.890682	0.313585
662.095281	0.313941
662.299861	0.314357
662.504422	0.314308
662.708966	0.314485
662.913491	0.314793
663.117999	0.315038
663.322488	0.315333
663.526958	0.315557
663.731411	0.315772
663.935845	0.316053
664.140261	0.316227
664.344659	0.316651
664.549038	0.316898
664.753400	0.317317
664.957743	0.317794
665.162068	0.317909
665.366375	0.318452
665.570663	0.318918
665.774933	0.319233
665.979185	0.319748
666.183419	0.320150
666.387635	0.320317
666.591832	0.320445
666.796011	0.320794
667.000172	0.321196
667.204315	0.321438
667.408439	0.321372
667.612545	0.321284
667.816634	0.321120
668.020703	0.321111
668.224755	0.321554
668.428788	0.321487
668.632803	0.321357
668.836800	0.321518
669.040779	0.321583
669.244739	0.321864
669.448681	0.322342
669.652605	0.322663
669.856511	0.323106
670.060399	0.323298
670.264268	0.323687
670.468119	0.323942
670.671952	0.324168
670.875767	0.324251
671.079563	0.324395
671.283341	0.324692
671.487101	0.324701
671.690843	0.324845
671.894567	0.325016
672.098272	0.325324
672.301959	0.325671
672.505628	0.325796
672.709278	0.326197
672.912911	0.326439
673.116525	0.326379
673.320121	0.326920
673.523699	0.326857
673.727258	0.327010
673.930799	0.327445
674.134322	0.327534
674.337827	0.327876
674.541314	0.327855
674.744782	0.328072
674.948232	0.328303
675.151664	0.328279
675.355078	0.328551
675.558474	0.328841
675.761851	0.328714
675.965210	0.328724
676.168551	0.329205
676.371873	0.329633
676.575178	0.329790
676.778464	0.330089
676.981732	0.330414
677.184981	0.330647
677.388213	0.330761
677.591426	0.331063
677.794621	0.331498
677.997798	0.331583
678.200956	0.331649
678.404097	0.331997
678.607219	0.332330
678.810323	0.332613
679.013408	0.333224
679.216476	0.333615
679.419525	0.333783
679.622556	0.334043
679.825569	0.334265
680.028563	0.334645
680.231540	0.334745
680.434498	0.334921
680.637438	0.335116
680.840359	0.335115
681.043263	0.335130
681.246148	0.335404
681.449015	0.335489
681.651864	0.335674
681.854694	0.335894
682.057506	0.336136
682.260301	0.336327
682.463076	0.336301
682.665834	0.336441
682.868573	0.336784
683.071295	0.336941
683.273998	0.337222
683.476682	0.337482
683.679349	0.337716
683.881997	0.338007
684.084627	0.338287
684.287239	0.338683
684.489833	0.339012
684.692408	0.339151
684.894965	0.339276
685.097504	0.339558
685.300025	0.339769
685.502527	0.340058
685.705012	0.340291
685.907478	0.340309
686.109925	0.340654
686.312355	0.340947
686.514766	0.341272
686.717159	0.341684
686.919534	0.341970
687.121891	0.342124
687.324230	0.342256
687.526550	0.342350
687.728852	0.342542
687.931136	0.342699
688.133401	0.342756
688.335649	0.342993
688.537878	0.343048
688.740089	0.342884
688.942281	0.343102
689.144456	0.343304
689.346612	0.343563
689.548750	0.343650
689.750870	0.343909
689.952971	0.343763
690.155055	0.343685
690.357120	0.343877
690.559167	0.344188
690.761195	0.344128
690.963206	0.344040
691.165198	0.344114
691.367172	0.344409
691.569128	0.344406
691.771065	0.345205
691.972984	0.345635
692.174885	0.345892
692.376768	0.346271
692.578633	0.346611
692.780479	0.346696
692.982308	0.346779
693.184118	0.346872
693.385909	0.347097
