sample name	sample
index	1429
start time	 05-10-2021  12:28:41 PM
880	0.465329
Peak Time (s)	92.535
Peak Height 	0.4653
calc peak height	90,93
Baseline Time (s)	10.535
Baseline Value 	-0.005946
subtract baseline	10,4
Abs	0.338311
Peak Time (s)	92.535
Peak Height 	0.3383
calc peak height	90,93
Baseline Time (s)	8.537
Baseline Value 	0.00252
subtract baseline	10,3
PK_550	0.175138
Peak Time (s)	90.037
Peak Height 	0.1751
calc peak height	90,93
Baseline Time (s)	10.535
Baseline Value 	2.7069E-4
subtract baseline	10,2
PK_880	0.314470
Peak Time (s)	92.535
Peak Height 	0.3145
calc peak height	90,93
Baseline Time (s)	10.043
Baseline Value 	0.002346
subtract baseline	10,1


Time (s)	A880-A510	A880-A775	A880-A975	A880	I510	I775	I975	I880	
0.036500	-0.001295	0.000104	-0.001917	0.002915	6456.714347	43906.865468	3929.967308	22541.613200
0.540000	-0.000803	0.000293	-0.006276	0.005247	6441.466306	43705.188067	3912.923403	22436.194678
1.043000	-0.002719	0.000158	-0.006433	0.007963	6403.373871	43438.499371	3905.688060	22314.158989
1.538000	-0.000573	-0.000863	-0.001310	0.001191	6477.080857	43978.399850	3935.965291	22619.912745
2.038000	0.000042	0.000251	-0.001821	0.001505	6479.595105	44053.953774	3933.837462	22605.604656
2.538500	-0.000205	0.000515	-0.002534	0.001545	6477.205020	44075.246658	3931.900242	22603.809233
3.036000	-0.003323	-0.000289	-0.000132	0.004676	6425.382422	43704.157743	3930.028468	22461.943274
3.536000	0.001104	0.000200	-0.000449	0.000507	6496.852637	44143.796143	3939.960314	22651.043580
4.036500	0.001277	0.000365	-0.000735	0.000914	6494.889936	44120.853633	3938.166966	22632.526424
4.537000	0.000825	-0.000135	-0.001762	0.000639	6493.403285	44099.420983	3936.223446	22645.025768
5.037000	-0.000382	0.000800	-0.002445	0.004979	6447.166756	43778.079271	3923.334154	22448.287661
5.537500	-0.001580	-0.000728	-0.001696	-0.000046	6479.000672	44108.218349	3938.163369	22676.252257
6.035000	-0.000831	0.000145	0.000283	0.000231	6482.956658	44164.766283	3942.573949	22663.648865
6.535500	-0.000682	0.000381	-0.002382	0.000525	6481.735083	44159.200808	3934.917488	22650.210796
7.035500	0.000120	0.000532	0.000718	0.000845	6485.770124	44143.270023	3942.110004	22635.663322
7.535500	-0.000780	0.000159	0.001551	0.000822	6478.440429	44110.020614	3944.333403	22636.711060
8.036000	0.000491	0.001351	-0.002227	0.001155	6486.278932	44191.485005	3933.692230	22621.521757
8.536500	-0.000950	-0.000601	0.000000	-0.000490	6487.989452	44162.328491	3943.709731	22696.525098
9.036500	-0.001609	-0.000439	-0.002675	0.000041	6478.037009	44127.388915	3935.412539	22672.312567
9.537000	-0.000874	0.000422	-0.003915	0.000216	6482.712679	44192.448001	3931.768005	22664.315631
10.042500	0.000000	-0.000054	0.000887	-0.000106	6492.727970	44177.805793	3945.018167	22678.983519
10.535000	0.002209	0.000000	0.001420	0.000000	6510.413133	44172.893295	3946.130280	22674.163578
11.035000	0.000135	0.000498	-0.006101	-0.000057	6493.450964	44225.623288	3926.860945	22676.766758
11.535500	0.001150	0.000795	0.001659	0.000568	6496.718839	44194.459850	3945.272930	22648.247825
12.035000	0.001111	0.000388	-0.002182	0.000408	6497.737345	44171.022401	3935.735986	22655.547309
12.535500	0.001145	0.000233	0.000542	0.000426	6497.880185	44154.569451	3942.740665	22654.747946
13.036500	-0.000879	0.000476	-0.001929	0.000001	6484.466037	44217.949777	3937.439013	22674.101132
13.537000	-0.000057	-0.000050	-0.001263	0.000461	6487.503273	44124.419619	3937.971624	22653.136826
14.036500	0.000505	-0.000465	-0.001509	0.001682	6481.980594	43969.485040	3934.185094	22597.552340
14.537000	0.000304	-0.000132	-0.003887	0.001813	6479.209916	43988.576138	3927.738796	22591.591084
15.041000	0.000567	-0.000373	-0.001377	0.000022	6496.417447	44135.435433	3938.812741	22673.155517
15.535000	0.000230	0.000294	-0.000637	0.000584	6488.878459	44145.392248	3939.272847	22647.541260
16.035500	0.001065	-0.000164	0.000217	-0.000306	6503.356815	44186.414577	3943.795077	22688.133052
16.535500	0.000205	-0.000037	-0.000955	0.000252	6491.447155	44145.434656	3939.308910	22662.660052
17.035500	0.001167	-0.000034	-0.003155	-0.003355	6529.955460	44489.396869	3942.956904	22827.836874
17.536000	-0.001458	-0.000555	-0.000956	0.000138	6478.488849	44107.195624	3939.603575	22667.879617
18.039000	-0.000153	0.000325	-0.000267	0.001066	6481.632067	44102.605925	3938.983140	22625.571932
18.536500	-0.001424	-0.000208	-0.000502	0.000468	6476.016105	44108.770526	3939.923270	22652.819238
19.037000	-0.001290	-0.000497	0.001120	0.000407	6477.644558	44087.215580	3944.290420	22655.615023
19.537500	0.000574	-0.000129	-0.004759	0.000796	6489.985752	44085.179982	3928.112885	22637.891998
20.037500	0.000743	-0.000027	-0.000655	0.001286	6487.292052	44048.380956	3937.411368	22615.569132
20.534500	0.001223	-0.000236	-0.000355	0.001185	6492.165307	44038.254712	3938.448342	22620.176915
21.035000	-0.001396	-0.000342	-0.003095	0.001048	6471.407778	44041.112184	3931.736676	22626.395574
21.535500	-0.002470	-0.000154	-0.003523	0.001109	6461.961179	44053.157132	3930.481139	22623.634562
22.035500	0.001034	0.000312	-0.000766	0.001122	6491.100999	44096.030871	3937.549078	22623.036285
22.539000	-0.000704	0.000271	0.003330	0.001717	6471.601114	44035.816992	3946.631252	22595.970853
23.036500	-0.002085	-0.001026	-0.002696	0.000215	6472.607317	44055.202709	3934.907573	22664.346105
23.536500	0.000287	-0.000254	0.002038	0.000985	6485.991276	44055.388288	3945.173831	22629.270677
24.036500	-0.001663	-0.001314	-0.003122	0.000047	6477.528547	44043.818100	3934.241297	22672.005443
24.537500	-0.000447	-0.000874	-0.004638	0.000958	6480.087756	43999.396742	3928.008897	22630.517910
25.034500	-0.001185	0.000290	-0.004421	0.001911	6465.980952	44019.341557	3926.123524	22587.169499
25.535500	-0.000759	-0.000127	0.001124	0.001181	6475.614365	44048.860586	3942.290094	22620.340551
26.035500	-0.000929	-0.000511	-0.000399	0.000887	6476.647001	44040.390927	3939.103653	22633.730313
26.535500	-0.000752	0.000218	0.000867	0.001559	6472.515961	44045.712761	3940.642599	22603.144782
27.038500	0.001452	-0.000611	-0.000833	-0.001627	6517.754240	44269.437665	3944.501479	22748.545032
27.537000	0.000161	-0.000146	-0.000894	-0.001171	6503.029830	44270.326813	3943.157048	22727.687393
28.036500	0.001316	-0.000461	0.002036	-0.000912	6510.567830	44215.680022	3950.114183	22715.804399
28.537000	0.002386	-0.000122	0.000076	-0.000710	6517.893869	44228.799019	3944.478636	22706.585142
29.034500	-0.003062	-0.000402	-0.004523	0.001186	6456.394131	44022.402791	3927.717158	22620.107008
29.534500	0.002679	0.000716	-0.000619	0.000090	6513.617468	44232.410690	3940.599995	22670.070686
30.034500	0.002136	0.000552	0.002673	-0.000102	6510.648169	44235.011576	3949.661581	22678.796237
30.535500	-0.001424	-0.000186	-0.002738	0.001679	6465.914299	43996.198416	3931.032014	22597.683944
31.035500	-0.000275	0.000390	-0.000415	0.002407	6469.421015	43981.784634	3935.135897	22564.628822
31.536000	0.001056	0.000144	-0.000337	-0.000422	6504.250120	44226.651286	3942.656524	22693.416383
32.036500	0.000940	0.000141	0.000262	-0.000402	6503.117530	44224.520564	3944.163607	22692.535742
32.536500	-0.000653	-0.000264	0.002460	-0.000273	6488.657158	44173.729873	3949.553014	22686.609741
33.037000	-0.001200	0.000311	-0.001621	0.000628	6476.549172	44142.799823	3936.616694	22645.525047
33.537000	-0.000453	-0.001043	-0.000042	-0.000408	6491.463163	44112.668540	3943.389968	22692.801416
34.034500	-0.002367	-0.000533	0.000394	0.001131	6462.628934	44015.187981	3940.526062	22622.626227
34.537000	-0.000661	0.000614	-0.001116	0.001567	6473.207926	44082.527771	3935.494890	22602.797706
35.035500	-0.000175	0.000219	-0.002555	0.001805	6475.283575	44022.575241	3931.179570	22591.987515
35.535500	-0.000970	-0.000806	0.004779	0.000819	6476.871464	44018.887928	3952.762074	22636.815832
36.036000	-0.000028	-0.000024	0.003139	0.001271	6480.969697	44050.182635	3947.296254	22616.261315
36.536000	-0.000231	0.000187	-0.000511	0.001676	6475.883591	44031.730983	3936.775818	22597.825202
37.036000	-0.000256	0.000482	-0.000810	0.001959	6473.318749	44032.871226	3935.273538	22584.979057
37.536500	-0.002934	0.000182	-0.000404	0.001361	6456.006275	44061.088659	3937.865088	22612.139430
38.037000	-0.000869	-0.000570	0.001149	0.000760	6478.209840	44046.852527	3943.447514	22639.527001
38.537500	0.000521	0.000518	0.000808	0.001623	6482.614603	44068.087329	3940.324471	22600.234813
39.034500	-0.000849	-0.000327	-0.000908	0.001100	6475.535311	44037.609150	3937.239987	22624.046368
39.535000	-0.001812	0.000481	-0.002489	0.001619	6463.194167	44065.000442	3931.827358	22600.447842
40.036000	-0.000454	-0.000234	-0.005108	0.001569	6474.914593	44002.021742	3925.240648	22602.695285
40.535500	-0.002612	-0.000566	0.001397	0.001100	6460.846623	44015.024375	3943.208518	22624.017728
41.036000	0.000053	-0.000187	-0.003901	0.001990	6475.636994	43966.720567	3927.249460	22583.549658
41.536000	0.001239	-0.000052	0.004390	0.002333	6482.677352	43947.110911	3947.787845	22567.997644
42.036500	-0.000184	0.000238	0.000038	0.002260	6471.410150	43981.346203	3936.685962	22571.307053
42.537000	-0.000795	0.000685	0.000629	0.002381	6465.310133	44012.171699	3937.900927	22565.831176
43.037500	-0.002711	-0.000389	0.000940	0.002080	6451.887981	43939.152523	3939.483217	22579.479693
43.537000	0.003337	0.001338	0.004603	-0.001710	6534.401529	44463.283534	3958.941955	22752.319276
44.035000	0.001310	0.000548	-0.000487	0.000484	6498.776899	44178.944974	3939.920791	22652.093121
44.538000	0.000988	-0.000174	-0.001062	0.000568	6495.367962	44102.552311	3938.217161	22648.285486
45.035500	0.000702	0.000145	-0.001264	0.000391	6494.444864	44149.556390	3938.149167	22656.318847
45.535500	0.000872	-0.000171	-0.004345	-0.000096	6499.964875	44165.714337	3931.462444	22678.530081
46.036000	0.001397	0.000432	0.001522	0.000918	6495.866197	44126.851515	3944.008304	22632.342662
46.536500	0.002213	0.000059	0.001610	0.001282	6499.657061	44056.863671	3943.288837	22615.739505
47.036500	-0.000536	-0.000621	-0.001834	0.002431	6467.048816	43884.186320	3931.423747	22563.563518
47.537000	-0.000708	0.000802	0.000109	0.003547	6456.342005	43913.133561	3933.552110	22512.998912
48.040500	-0.001216	0.001253	-0.000660	0.001583	6468.450732	44141.603495	3936.630741	22602.064493
48.537500	0.001078	0.000719	0.002274	0.001182	6490.967399	44128.913352	3945.274738	22620.282345
49.043500	-0.000020	-0.001235	0.003382	-0.000151	6492.940822	44070.075356	3951.642748	22681.040280
49.535000	0.001814	0.001403	0.003119	-0.001604	6520.610938	44459.363126	3954.761281	22747.463300
50.035500	0.001820	-0.000602	0.001580	0.000024	6506.929935	44113.498471	3946.484745	22673.071083
50.536000	0.001193	0.000125	-0.000760	0.003146	6475.504628	43887.114655	3932.346147	22531.152662
51.036000	0.008288	-0.003444	0.015258	0.090984	5860.472565	36115.422465	3762.078159	18928.801628
51.536500	-0.000102	-0.017372	0.006576	0.136953	5506.337189	31841.416071	3650.124380	17314.692312
52.036500	-0.006901	-0.044007	-0.034155	-0.181099	8288.802377	59477.293805	4396.271407	32926.769532
52.537000	-0.006426	-0.097119	-0.026344	-0.277361	9645.715144	65383.328677	4824.394487	40387.887510
53.037000	0.004083	-0.087682	-0.011732	-0.265925	9631.209564	65096.387273	4839.138201	39412.487657
53.537500	0.007257	-0.053472	-0.001402	-0.215609	8933.708174	62833.627481	4661.118473	35413.614508
54.035000	0.012735	-0.030727	0.005114	-0.160441	8276.027525	58525.018189	4465.498113	31530.022058
54.535500	0.016131	-0.022742	0.013890	-0.139051	8055.819836	56835.545176	4418.257074	30152.088027
55.035000	0.019790	-0.015757	0.016351	-0.125761	7941.653504	56058.626899	4378.778584	29329.480889
55.536000	0.033544	-0.010905	0.031373	-0.117143	8002.231379	55600.102353	4402.008532	28809.427652
56.035500	0.049910	0.001562	0.053776	-0.048997	7423.183937	49263.711880	4243.380443	25040.786300
56.536000	0.071038	0.014377	0.079471	0.033991	6816.105943	42352.069856	4066.877265	21182.359572
57.037000	0.091158	0.028231	0.098555	0.081959	6569.795471	39374.755725	3986.343935	19266.232028
57.537000	0.113934	0.041745	0.125228	0.113600	6494.638447	37885.306822	3973.024660	18113.332591
58.037500	0.137133	0.057231	0.145254	0.131053	6543.177656	37727.432519	3979.903420	17512.444046
58.534500	0.160450	0.069818	0.170434	0.206907	6122.416859	33011.458643	3851.639715	15163.999859
59.035500	0.184046	0.085462	0.202736	0.261875	5894.402683	30408.314491	3798.940448	13701.043204
59.535500	0.196992	0.094114	0.213906	0.305237	5688.498395	28298.362364	3728.660534	12670.732398
60.036000	0.215119	0.102346	0.234807	0.340338	5579.716843	26777.017908	3699.279194	11908.865567
60.536500	0.228079	0.111338	0.249737	0.365969	5501.236656	25881.017947	3677.763996	11390.184400
61.036000	0.242146	0.120792	0.267843	0.379803	5502.660706	25650.862845	3686.291026	11122.701803
61.537000	0.247268	0.130241	0.273311	0.394056	5447.478926	25400.990988	3668.848089	10855.876225
62.036500	0.254035	0.137892	0.280511	0.394150	5487.690044	25795.267923	3682.928230	10854.144965
62.537500	0.256496	0.141438	0.279430	0.390428	5525.509991	26180.983609	3688.223358	10922.974014
63.045500	0.264503	0.146480	0.286728	0.389670	5580.039678	26493.439351	3704.565663	10937.047084
63.540500	0.271895	0.148905	0.285648	0.391532	5615.023333	26523.973525	3698.561672	10902.488174
64.036000	0.271231	0.152120	0.290742	0.394799	5590.113271	26521.181842	3702.284942	10842.209996
64.536000	0.276750	0.154713	0.293172	0.399548	5594.970517	26404.396646	3697.561208	10755.370861
65.035500	0.279962	0.158137	0.292022	0.403238	5591.952303	26390.038071	3687.784355	10688.565006
65.536500	0.282251	0.159526	0.298605	0.406089	5588.407345	26311.216662	3695.313761	10637.326026
66.036500	0.282468	0.160938	0.298267	0.409574	5567.881098	26199.905791	3687.600133	10575.153487
66.537000	0.286714	0.162623	0.300589	0.412646	5575.244044	26125.767447	3686.096579	10520.771233
67.037000	0.289110	0.163785	0.300901	0.414702	5577.368855	26078.067745	3682.605093	10484.567994
67.537000	0.289750	0.165464	0.309953	0.417603	5563.213976	26013.093622	3694.977318	10433.812050
68.034500	0.294616	0.167672	0.307314	0.421373	5570.068806	25930.223226	3682.089231	10368.325198
68.535000	0.294466	0.169092	0.313398	0.425405	5544.003228	25792.379231	3686.195679	10298.923113
69.035000	0.297935	0.170735	0.311048	0.427865	5550.269011	25749.421830	3676.602376	10256.894309
69.536000	0.298260	0.171038	0.310440	0.430255	5537.463822	25640.064654	3670.677948	10216.295628
70.036000	0.297558	0.171582	0.312796	0.433160	5515.238468	25517.007923	3669.597232	10167.245166
70.536500	0.298979	0.171871	0.318450	0.436736	5502.046164	25346.800517	3673.693542	10107.309575
71.039500	0.300172	0.172098	0.324436	0.437408	5505.227278	25323.802250	3684.260937	10096.094102
71.536500	0.301229	0.172366	0.318787	0.438880	5502.697219	25261.837468	3670.128949	10071.608472
72.037000	0.299665	0.172106	0.322215	0.439527	5489.226548	25215.307782	3675.621363	10060.876545
72.534500	0.301427	0.173807	0.318865	0.442445	5482.215143	25152.948825	3663.295185	10012.646862
73.035000	0.303297	0.175634	0.319898	0.442602	5492.609495	25238.492122	3665.005890	10010.048707
73.535000	0.303127	0.175405	0.319594	0.442968	5489.357036	25208.027181	3663.696473	10004.036944
74.035500	0.302677	0.174682	0.321870	0.443365	5484.217914	25150.656603	3667.375262	9997.509358
74.536000	0.300881	0.175400	0.320480	0.446770	5452.857876	25013.654349	3658.018408	9941.752086
75.035500	0.303438	0.176870	0.320696	0.446840	5467.802994	25084.927109	3658.301058	9940.601591
75.539000	0.305979	0.177438	0.323265	0.448313	5474.250896	25038.860536	3660.431520	9916.626911
76.036000	0.304350	0.178132	0.324683	0.449864	5455.108283	24995.270758	3660.173434	9891.464435
76.537000	0.306975	0.178763	0.324822	0.453735	5447.646174	24831.342597	3652.944408	9829.056427
77.037000	0.308988	0.178069	0.326963	0.451564	5472.788603	24905.923601	3661.304034	9863.994805
77.535000	0.306609	0.178474	0.324085	0.452724	5451.507691	24867.795971	3653.472285	9845.302854
78.035000	0.309483	0.180651	0.329887	0.455743	5450.640079	24825.321093	3658.861538	9796.902852
78.535000	0.307660	0.178657	0.321559	0.457759	5427.753837	24624.126325	3639.005283	9764.762153
79.035500	0.312395	0.180058	0.321348	0.456230	5465.196649	24770.950958	3641.510953	9789.127612
79.535500	0.312932	0.180893	0.328282	0.457412	5461.315664	24753.496633	3652.524788	9770.285346
80.039000	0.310252	0.180222	0.327131	0.457542	5444.476868	24713.295887	3650.060138	9768.215409
80.536500	0.309014	0.180528	0.323614	0.457814	5435.475587	24715.016871	3642.808114	9763.889455
81.036500	0.309996	0.178846	0.326970	0.457119	5445.475364	24665.604864	3650.564725	9774.954252
81.537000	0.309879	0.178105	0.326429	0.457438	5442.867339	24612.624582	3648.909707	9769.866115
82.036500	0.311244	0.177784	0.335582	0.458789	5442.958201	24529.343863	3664.022846	9748.408188
82.534500	0.307569	0.177249	0.330310	0.457194	5430.567944	24582.091013	3656.867374	9773.756443
83.035500	0.310755	0.177074	0.329540	0.457809	5445.887134	24542.743673	3654.185589	9763.964807
83.535500	0.310060	0.177984	0.332581	0.458989	5434.706594	24529.378489	3657.790153	9745.236157
84.035500	0.312484	0.176216	0.323024	0.457056	5460.762438	24537.528810	3643.128101	9775.954645
84.535500	0.312612	0.178022	0.333956	0.458633	5452.071689	24548.947166	3661.155342	9750.881628
85.036500	0.311677	0.176860	0.326231	0.457619	5452.536820	24541.560400	3648.183854	9766.985445
85.536500	0.312214	0.177121	0.329832	0.458298	5451.693912	24520.801438	3653.806542	9756.201628
86.037000	0.312666	0.177909	0.327678	0.459940	5444.567730	24478.383799	3646.509143	9730.160496
86.537500	0.313878	0.176105	0.332695	0.457411	5467.014880	24514.379242	3661.079309	9770.300147
87.037500	0.312766	0.176390	0.330668	0.457788	5458.061278	24509.794376	3656.408989	9764.304117
87.534500	0.312899	0.175590	0.331491	0.456905	5464.169496	24513.952017	3659.719714	9778.361606
88.035500	0.312729	0.174247	0.328074	0.456596	5465.002869	24462.664649	3653.698354	9783.288421
88.536000	0.312605	0.176481	0.331093	0.464185	5418.979834	24198.877408	3644.922275	9663.329643
89.036000	0.311984	0.175322	0.329683	0.457841	5453.053138	24454.213209	3654.401140	9763.464145
89.536000	0.314348	0.176074	0.336125	0.458309	5464.442527	24468.277659	3666.024755	9756.029086
90.036500	0.311855	0.175138	0.329491	0.458138	5450.502130	24430.386182	3653.458308	9758.743592
90.536500	0.311549	0.173126	0.333955	0.462666	5421.716815	24109.189289	3653.332458	9687.163789
91.037500	0.313818	0.174313	0.334607	0.458021	5462.982261	24395.388341	3663.617737	9760.596436
91.537500	0.314108	0.172868	0.334410	0.457775	5466.206261	24336.245455	3663.712482	9764.507431
92.034500	0.312002	0.173180	0.336591	0.460296	5438.490343	24227.682870	3663.051387	9724.542910
92.535000	0.314470	0.172880	0.338311	0.465329	5423.248972	23967.902226	3656.607567	9645.427911
93.035500	0.314224	0.172281	0.338131	0.459700	5455.336253	24212.843036	3667.229426	9733.962539
93.535500	0.314387	0.173978	0.340573	0.461608	5444.889972	24202.514000	3668.279415	9703.833960
94.036000	0.312942	0.171901	0.332843	0.461271	5438.279813	24117.524657	3653.880631	9709.146231
94.536500	0.310538	0.171025	0.335646	0.467126	5389.530618	23791.820498	3648.009169	9617.407265
95.036500	0.316000	0.171724	0.333212	0.461846	5453.120630	24080.844120	3653.481822	9700.079117
95.537000	0.315080	0.171459	0.336206	0.462199	5445.499870	24050.800105	3658.595723	9694.522564
96.037000	0.312373	0.170466	0.341068	0.463187	5423.511924	23954.696400	3666.152103	9678.983694
