sample name	sample
index	842
start time	 04-05-2021  11:04:11 AM


Wavelength (nm)	Absorbance
494.344910	0.018309
494.563924	0.018309
494.782919	0.018309
495.001897	-0.020879
495.220856	-0.031878
495.439797	-0.026035
495.658719	-0.028380
495.877624	-0.034364
496.096510	-0.028977
496.315378	-0.025100
496.534227	-0.009121
496.753059	0.006453
496.971872	0.023159
497.190667	0.079959
497.409444	0.099876
497.628203	0.106102
497.846943	0.111506
498.065665	0.114062
498.284369	0.114605
498.503055	0.115448
498.721723	0.115556
498.940372	0.117956
499.159003	0.118629
499.377616	0.118868
499.596210	0.119998
499.814787	0.121081
500.033345	0.121851
500.251885	0.122847
500.470406	0.123697
500.688910	0.125241
500.907395	0.124461
501.125862	0.125892
501.344311	0.126220
501.562742	0.126116
501.781154	0.124894
501.999548	0.125064
502.217924	0.125856
502.436282	0.126286
502.654621	0.126235
502.872942	0.126796
503.091245	0.126007
503.309530	0.126438
503.527797	0.127215
503.746045	0.127918
503.964275	0.128147
504.182487	0.128190
504.400681	0.127841
504.618856	0.127549
504.837013	0.127341
505.055152	0.127325
505.273273	0.127060
505.491376	0.126485
505.709460	0.127490
505.927526	0.126649
506.145574	0.126145
506.363604	0.126788
506.581615	0.127328
506.799608	0.127261
507.017583	0.126616
507.235540	0.126529
507.453478	0.126650
507.671399	0.125484
507.889301	0.126371
508.107185	0.127309
508.325050	0.126681
508.542898	0.126770
508.760727	0.127698
508.978538	0.128625
509.196330	0.129245
509.414105	0.130314
509.631861	0.131028
509.849599	0.131112
510.067319	0.130743
510.285021	0.131044
510.502704	0.132128
510.720369	0.131186
510.938016	0.130559
511.155645	0.130362
511.373255	0.129412
511.590848	0.129339
511.808422	0.129007
512.025977	0.128686
512.243515	0.129292
512.461034	0.127857
512.678536	0.127794
512.896018	0.128976
513.113483	0.129796
513.330930	0.130448
513.548358	0.131270
513.765768	0.132052
513.983160	0.133222
514.200533	0.132515
514.417889	0.133221
514.635226	0.133751
514.852545	0.133913
515.069845	0.133208
515.287128	0.133356
515.504392	0.134442
515.721638	0.134069
515.938866	0.133471
516.156075	0.134531
516.373267	0.134647
516.590440	0.135981
516.807594	0.135803
517.024731	0.136542
517.241850	0.137041
517.458950	0.135776
517.676032	0.136560
517.893095	0.138045
518.110141	0.137750
518.327168	0.138992
518.544177	0.138887
518.761168	0.138715
518.978141	0.139479
519.195095	0.139997
519.412031	0.140113
519.628949	0.139814
519.845849	0.138857
520.062731	0.139472
520.279594	0.139109
520.496439	0.139289
520.713266	0.139780
520.930074	0.139693
521.146865	0.139761
521.363637	0.140502
521.580391	0.140892
521.797127	0.141351
522.013844	0.141625
522.230543	0.141548
522.447224	0.141356
522.663887	0.141656
522.880532	0.141963
523.097158	0.141536
523.313766	0.141845
523.530356	0.141807
523.746928	0.141838
523.963481	0.141927
524.180017	0.142786
524.396534	0.142911
524.613032	0.143645
524.829513	0.143222
525.045975	0.143842
525.262420	0.144399
525.478845	0.145234
525.695253	0.145662
525.911643	0.146376
526.128014	0.146276
526.344367	0.147471
526.560702	0.147611
526.777018	0.148326
526.993316	0.148856
527.209597	0.148916
527.425858	0.148602
527.642102	0.149348
527.858328	0.148451
528.074535	0.148306
528.290724	0.147862
528.506894	0.148437
528.723047	0.148608
528.939181	0.148507
529.155297	0.148286
529.371395	0.148619
529.587475	0.148286
529.803536	0.149056
530.019579	0.149818
530.235604	0.150287
530.451611	0.150419
530.667600	0.151395
530.883570	0.151746
531.099522	0.152283
531.315456	0.153376
531.531372	0.153954
531.747269	0.154429
531.963148	0.154278
532.179009	0.154283
532.394852	0.154249
532.610676	0.154438
532.826482	0.154994
533.042271	0.155051
533.258040	0.154842
533.473792	0.155586
533.689525	0.155586
533.905240	0.156713
534.120937	0.157258
534.336616	0.157966
534.552277	0.157974
534.767919	0.158201
534.983543	0.158747
535.199149	0.159780
535.414736	0.160204
535.630306	0.160931
535.845857	0.160804
536.061390	0.161246
536.276904	0.161314
536.492401	0.161621
536.707879	0.161634
536.923339	0.161675
537.138781	0.161746
537.354204	0.161042
537.569610	0.161361
537.784997	0.161178
538.000366	0.161520
538.215716	0.161482
538.431049	0.161680
538.646363	0.161657
538.861659	0.162632
539.076937	0.162785
539.292196	0.163773
539.507438	0.164118
539.722661	0.165151
539.937866	0.165445
540.153052	0.166298
540.368221	0.167238
540.583371	0.168251
540.798503	0.168196
541.013617	0.168437
541.228712	0.168871
541.443789	0.169004
541.658848	0.169215
541.873889	0.169742
542.088912	0.169502
542.303916	0.169695
542.518902	0.169838
542.733870	0.169716
542.948820	0.170117
543.163752	0.169943
543.378665	0.170099
543.593560	0.170261
543.808437	0.170065
544.023295	0.171036
544.238136	0.170626
544.452958	0.170453
544.667762	0.170951
544.882548	0.170373
545.097315	0.170480
545.312064	0.170507
545.526795	0.170873
545.741508	0.171093
545.956203	0.170844
546.170879	0.171209
546.385537	0.172232
546.600177	0.172618
546.814799	0.173536
547.029402	0.174216
547.243988	0.174592
547.458555	0.174312
547.673103	0.174854
547.887634	0.175020
548.102146	0.175300
548.316640	0.175174
548.531116	0.175799
548.745574	0.175792
548.960013	0.175853
549.174435	0.176525
549.388838	0.177506
549.603222	0.177693
549.817589	0.178098
550.031937	0.177942
550.246267	0.178112
550.460579	0.177798
550.674873	0.177735
550.889148	0.177795
551.103405	0.177878
551.317644	0.177384
551.531865	0.177520
551.746068	0.177416
551.960252	0.177759
552.174418	0.177989
552.388566	0.178118
552.602696	0.178828
552.816807	0.179150
553.030900	0.179087
553.244975	0.179155
553.459032	0.179013
553.673070	0.179348
553.887091	0.179431
554.101093	0.179679
554.315077	0.179992
554.529042	0.180391
554.742990	0.180713
554.956919	0.181276
555.170830	0.181738
555.384722	0.182350
555.598597	0.182713
555.812453	0.183220
556.026291	0.182977
556.240111	0.183100
556.453913	0.182808
556.667696	0.182755
556.881461	0.182225
557.095208	0.182621
557.308937	0.182752
557.522647	0.182988
557.736339	0.183016
557.950013	0.183469
558.163669	0.183863
558.377307	0.184050
558.590926	0.184522
558.804527	0.184773
559.018110	0.185006
559.231675	0.184721
559.445221	0.184884
559.658749	0.184882
559.872259	0.185380
560.085751	0.185231
560.299225	0.185264
560.512680	0.185263
560.726117	0.185198
560.939536	0.185199
561.152937	0.186118
561.366319	0.186015
561.579683	0.186375
561.793029	0.186336
562.006357	0.186980
562.219667	0.187288
562.432958	0.187418
562.646231	0.187913
562.859486	0.188113
563.072723	0.187734
563.285941	0.187949
563.499141	0.188319
563.712323	0.188272
563.925487	0.188327
564.138632	0.188618
564.351760	0.188699
564.564869	0.188868
564.777960	0.188997
564.991032	0.189343
565.204087	0.189713
565.417123	0.189538
565.630141	0.189714
565.843140	0.190090
566.056122	0.190099
566.269085	0.190497
566.482030	0.190423
566.694957	0.190129
566.907866	0.190304
567.120756	0.190521
567.333628	0.190662
567.546482	0.190845
567.759318	0.190833
567.972135	0.190943
568.184935	0.190861
568.397716	0.191348
568.610478	0.191514
568.823223	0.191357
569.035949	0.191566
569.248657	0.192260
569.461347	0.192606
569.674019	0.192206
569.886672	0.192248
570.099308	0.192523
570.311925	0.192475
570.524523	0.192980
570.737104	0.193089
570.949666	0.192795
571.162210	0.192551
571.374736	0.192460
571.587244	0.192779
571.799733	0.192728
572.012205	0.192801
572.224658	0.193765
572.437092	0.194372
572.649509	0.195050
572.861907	0.195534
573.074287	0.195773
573.286649	0.196030
573.498993	0.196031
573.711318	0.196560
573.923625	0.196703
574.135914	0.196468
574.348185	0.196350
574.560438	0.195958
574.772672	0.195909
574.984888	0.196284
575.197086	0.196788
575.409266	0.197072
575.621427	0.197594
575.833570	0.197738
576.045695	0.197746
576.257802	0.197947
576.469890	0.198210
576.681961	0.198079
576.894013	0.197847
577.106046	0.197637
577.318062	0.197870
577.530059	0.198224
577.742039	0.198795
577.954000	0.198777
578.165942	0.198763
578.377867	0.199301
578.589773	0.199684
578.801661	0.200176
579.013531	0.200154
579.225382	0.200560
579.437216	0.200078
579.649031	0.199919
579.860828	0.200129
580.072606	0.200436
580.284367	0.200523
580.496109	0.200872
580.707833	0.200288
580.919539	0.200628
581.131227	0.200703
581.342896	0.200951
581.554547	0.201000
581.766180	0.201335
581.977795	0.201273
582.189391	0.201397
582.400969	0.201182
582.612529	0.201558
582.824071	0.201961
583.035595	0.202039
583.247100	0.202166
583.458587	0.202389
583.670056	0.202386
583.881506	0.202596
584.092939	0.202591
584.304353	0.203124
584.515749	0.203660
584.727127	0.203505
584.938486	0.203793
585.149828	0.203731
585.361151	0.203716
585.572456	0.203796
585.783742	0.203811
585.995011	0.204088
586.206261	0.203945
586.417493	0.203919
586.628706	0.204211
586.839902	0.204035
587.051079	0.204056
587.262238	0.203990
587.473379	0.204207
587.684502	0.204409
587.895606	0.204441
588.106692	0.204858
588.317760	0.204781
588.528810	0.204841
588.739841	0.205261
588.950855	0.205629
589.161850	0.205976
589.372827	0.205991
589.583785	0.206304
589.794726	0.206224
590.005648	0.206342
590.216552	0.206575
590.427437	0.206724
590.638305	0.206658
590.849154	0.207006
591.059985	0.207175
591.270798	0.207404
591.481592	0.207181
591.692369	0.207750
591.903127	0.207412
592.113867	0.208011
592.324588	0.207944
592.535292	0.207867
592.745977	0.207743
592.956644	0.208009
593.167293	0.208632
593.377923	0.209082
593.588536	0.208896
593.799130	0.209256
594.009706	0.209388
594.220263	0.209149
594.430803	0.209841
594.641324	0.210172
594.851827	0.210332
595.062312	0.209829
595.272778	0.209786
595.483227	0.210153
595.693657	0.210296
595.904069	0.209957
596.114462	0.210475
596.324838	0.210212
596.535195	0.210031
596.745534	0.210186
596.955855	0.210528
597.166157	0.210414
597.376441	0.210287
597.586707	0.210670
597.796955	0.210508
598.007185	0.210892
598.217396	0.211009
598.427589	0.211333
598.637764	0.211405
598.847921	0.211390
599.058060	0.211235
599.268180	0.211447
599.478282	0.211424
599.688366	0.212205
599.898431	0.212458
600.108479	0.212432
600.318508	0.212662
600.528519	0.212567
600.738511	0.212720
600.948486	0.213238
601.158442	0.213386
601.368380	0.213536
601.578300	0.213541
601.788202	0.213441
601.998085	0.213672
602.207950	0.213587
602.417797	0.213803
602.627626	0.214272
602.837436	0.214296
603.047228	0.214268
603.257002	0.214242
603.466758	0.214341
603.676496	0.214570
603.886215	0.215024
604.095916	0.215174
604.305599	0.214902
604.515264	0.214780
604.724910	0.214927
604.934538	0.215172
605.144148	0.215491
605.353740	0.215374
605.563314	0.215582
605.772869	0.215531
605.982406	0.215623
606.191925	0.216408
606.401425	0.216261
606.610908	0.216592
606.820372	0.216571
607.029818	0.216630
607.239246	0.216674
607.448655	0.216901
607.658047	0.217071
607.867420	0.217188
608.076775	0.217024
608.286111	0.217366
608.495430	0.217311
608.704730	0.217754
608.914012	0.217769
609.123275	0.217945
609.332521	0.217701
609.541748	0.217635
609.750957	0.217685
609.960148	0.217918
610.169321	0.217932
610.378475	0.218269
610.587611	0.218194
610.796729	0.218500
611.005829	0.218714
611.214910	0.218594
611.423974	0.218826
611.633019	0.219058
611.842045	0.219201
612.051054	0.219507
612.260044	0.219680
612.469017	0.219906
612.677970	0.219787
612.886906	0.219914
613.095824	0.220260
613.304723	0.220433
613.513604	0.220813
613.722467	0.220549
613.931311	0.220650
614.140138	0.220718
614.348946	0.220777
614.557736	0.221029
614.766507	0.221025
614.975261	0.221105
615.183996	0.220813
615.392713	0.220785
615.601412	0.221133
615.810092	0.221135
616.018754	0.221130
616.227399	0.221576
616.436024	0.221835
616.644632	0.221945
616.853222	0.222116
617.061793	0.222646
617.270346	0.222638
617.478880	0.222592
617.687397	0.222600
617.895895	0.222611
618.104375	0.222247
618.312837	0.222248
618.521281	0.222330
618.729706	0.222366
618.938113	0.222324
619.146502	0.222561
619.354873	0.222647
619.563226	0.223169
619.771560	0.223461
619.979876	0.223784
620.188174	0.224013
620.396453	0.224478
620.604715	0.224581
620.812958	0.224715
621.021183	0.224811
621.229390	0.225142
621.437578	0.225004
621.645748	0.225097
621.853900	0.225106
622.062034	0.224859
622.270150	0.224967
622.478247	0.225056
622.686326	0.225122
622.894387	0.225286
623.102430	0.225439
623.310454	0.225489
623.518461	0.225539
623.726449	0.225627
623.934418	0.226058
624.142370	0.226106
624.350303	0.226606
624.558218	0.227047
624.766115	0.227165
624.973994	0.227396
625.181855	0.227859
625.389697	0.228105
625.597521	0.228276
625.805327	0.228560
626.013114	0.228577
626.220883	0.228816
626.428634	0.228997
626.636367	0.229271
626.844082	0.229080
627.051778	0.229129
627.259457	0.229160
627.467117	0.229570
627.674758	0.229439
627.882382	0.229783
628.089987	0.229411
628.297574	0.229225
628.505143	0.229063
628.712694	0.229551
628.920226	0.229767
629.127740	0.229959
629.335236	0.229685
629.542714	0.229888
629.750174	0.229686
629.957615	0.229985
630.165038	0.230057
630.372443	0.230411
630.579829	0.230242
630.787198	0.230274
630.994548	0.230503
631.201880	0.230866
631.409194	0.231212
631.616489	0.231512
631.823766	0.231626
632.031025	0.231774
632.238266	0.232222
632.445489	0.232370
632.652693	0.232363
632.859879	0.232498
633.067047	0.232656
633.274197	0.232477
633.481329	0.232607
633.688442	0.233029
633.895537	0.233299
634.102614	0.232936
634.309672	0.233381
634.516713	0.233335
634.723735	0.233476
634.930739	0.233438
635.137724	0.233484
635.344692	0.233873
635.551641	0.233664
635.758572	0.233811
635.965485	0.234022
636.172379	0.234027
636.379256	0.234414
636.586114	0.234752
636.792954	0.235273
636.999775	0.235325
637.206579	0.235275
637.413364	0.235595
637.620131	0.235780
637.826880	0.236016
638.033610	0.235918
638.240323	0.235790
638.447017	0.235680
638.653692	0.235426
638.860350	0.235875
639.066990	0.235994
639.273611	0.236095
639.480214	0.236338
639.686798	0.236337
639.893365	0.236670
640.099913	0.237203
640.306443	0.237186
640.512955	0.237343
640.719449	0.237633
640.925924	0.237876
641.132381	0.238084
641.338820	0.238028
641.545241	0.238557
641.751644	0.238736
641.958028	0.238804
642.164394	0.239139
642.370742	0.239406
642.577071	0.239472
642.783383	0.239677
642.989676	0.239814
643.195951	0.240205
643.402207	0.239945
643.608446	0.240215
643.814666	0.240501
644.020868	0.240638
644.227052	0.240905
644.433218	0.241293
644.639365	0.241368
644.845494	0.241732
645.051605	0.241863
645.257698	0.242190
645.463772	0.242449
645.669828	0.242651
645.875866	0.242900
646.081886	0.243174
646.287888	0.243268
646.493871	0.243594
646.699836	0.243382
646.905783	0.243476
647.111712	0.243505
647.317622	0.243684
647.523514	0.243606
647.729388	0.243488
647.935244	0.243597
648.141082	0.243642
648.346901	0.243655
648.552702	0.243997
648.758485	0.244298
648.964250	0.244694
649.169996	0.244512
649.375724	0.244457
649.581434	0.245010
649.787126	0.244923
649.992800	0.244995
650.198455	0.245207
650.404092	0.245367
650.609711	0.245324
650.815311	0.245373
651.020894	0.245525
651.226458	0.246135
651.432004	0.246164
651.637532	0.246404
651.843041	0.246708
652.048532	0.246881
652.254006	0.247014
652.459460	0.247198
652.664897	0.247501
652.870315	0.248087
653.075716	0.247992
653.281097	0.248442
653.486461	0.248840
653.691807	0.249036
653.897134	0.249270
654.102443	0.249609
654.307734	0.249671
654.513006	0.249778
654.718261	0.249731
654.923497	0.250041
655.128715	0.250138
655.333915	0.250175
655.539096	0.250210
655.744259	0.250402
655.949404	0.250544
656.154531	0.250814
656.359640	0.251123
656.564730	0.251127
656.769802	0.251364
656.974856	0.251572
657.179892	0.251682
657.384909	0.251905
657.589908	0.251994
657.794889	0.252243
657.999852	0.252727
658.204797	0.252770
658.409723	0.253174
658.614631	0.253221
658.819521	0.253274
659.024393	0.253831
659.229246	0.254218
659.434081	0.254191
659.638898	0.254424
659.843697	0.254613
660.048478	0.255028
660.253240	0.255001
660.457984	0.255588
660.662710	0.255720
660.867417	0.255630
661.072107	0.255715
661.276778	0.256061
661.481431	0.256166
661.686066	0.256189
661.890682	0.256123
662.095281	0.256154
662.299861	0.256010
662.504422	0.256155
662.708966	0.256244
662.913491	0.256377
663.117999	0.256640
663.322488	0.256943
663.526958	0.257006
663.731411	0.257398
663.935845	0.258068
664.140261	0.258443
664.344659	0.258834
664.549038	0.259439
664.753400	0.259844
664.957743	0.260120
665.162068	0.260365
665.366375	0.260794
665.570663	0.260979
665.774933	0.261325
665.979185	0.261574
666.183419	0.261734
666.387635	0.261785
666.591832	0.261548
666.796011	0.261676
667.000172	0.261696
667.204315	0.261661
667.408439	0.261674
667.612545	0.261545
667.816634	0.261621
668.020703	0.261595
668.224755	0.261718
668.428788	0.262307
668.632803	0.262532
668.836800	0.262692
669.040779	0.262969
669.244739	0.263356
669.448681	0.263964
669.652605	0.264221
669.856511	0.264571
670.060399	0.264712
670.264268	0.264624
670.468119	0.264786
670.671952	0.265159
670.875767	0.265491
671.079563	0.265727
671.283341	0.265702
671.487101	0.265943
671.690843	0.266260
671.894567	0.266475
672.098272	0.266898
672.301959	0.267202
672.505628	0.267102
672.709278	0.267347
672.912911	0.267424
673.116525	0.267446
673.320121	0.267602
673.523699	0.267760
673.727258	0.268087
673.930799	0.268280
674.134322	0.268307
674.337827	0.268499
674.541314	0.268647
674.744782	0.268843
674.948232	0.269090
675.151664	0.269229
675.355078	0.269344
675.558474	0.269257
675.761851	0.269394
675.965210	0.269613
676.168551	0.270057
676.371873	0.270175
676.575178	0.270214
676.778464	0.270441
676.981732	0.270444
677.184981	0.270599
677.388213	0.270970
677.591426	0.271038
677.794621	0.271455
677.997798	0.271524
678.200956	0.271684
678.404097	0.272200
678.607219	0.272673
678.810323	0.272915
679.013408	0.273159
679.216476	0.273502
679.419525	0.273658
679.622556	0.273622
679.825569	0.273967
680.028563	0.274352
680.231540	0.274537
680.434498	0.274490
680.637438	0.274679
680.840359	0.274969
681.043263	0.275046
681.246148	0.275456
681.449015	0.275610
681.651864	0.275546
681.854694	0.275726
682.057506	0.275651
682.260301	0.275918
682.463076	0.276032
682.665834	0.276179
682.868573	0.276444
683.071295	0.276743
683.273998	0.277226
683.476682	0.277611
683.679349	0.277593
683.881997	0.278084
684.084627	0.278267
684.287239	0.278854
684.489833	0.278972
684.692408	0.279070
684.894965	0.278972
685.097504	0.279111
685.300025	0.279529
685.502527	0.279689
685.705012	0.279809
685.907478	0.279824
686.109925	0.279868
686.312355	0.280216
686.514766	0.280488
686.717159	0.280902
686.919534	0.281131
687.121891	0.281055
687.324230	0.281502
687.526550	0.281708
687.728852	0.282198
687.931136	0.282446
688.133401	0.282559
688.335649	0.282666
688.537878	0.282873
688.740089	0.282826
688.942281	0.283075
689.144456	0.283270
689.346612	0.283277
689.548750	0.283426
689.750870	0.283780
689.952971	0.283878
690.155055	0.284022
690.357120	0.284126
690.559167	0.284731
690.761195	0.284906
690.963206	0.284853
691.165198	0.285170
691.367172	0.285275
691.569128	0.285172
691.771065	0.285475
691.972984	0.285706
692.174885	0.285845
692.376768	0.285679
692.578633	0.285910
692.780479	0.286349
692.982308	0.286407
693.184118	0.286556
693.385909	0.286789
