sample name	sample
index	1480
start time	 05-18-2021  12:31:40 PM


Wavelength (nm)	Absorbance
494.344910	-0.063105
494.563924	-0.063105
494.782919	-0.063105
495.001897	-0.077058
495.220856	-0.032718
495.439797	-0.013508
495.658719	0.009731
495.877624	0.013802
496.096510	0.003006
496.315378	0.009648
496.534227	0.007930
496.753059	0.010106
496.971872	-0.022895
497.190667	0.125229
497.409444	0.155475
497.628203	0.162803
497.846943	0.169611
498.065665	0.174561
498.284369	0.174485
498.503055	0.176858
498.721723	0.177791
498.940372	0.180180
499.159003	0.181060
499.377616	0.180906
499.596210	0.181940
499.814787	0.181822
500.033345	0.181780
500.251885	0.181596
500.470406	0.181278
500.688910	0.181590
500.907395	0.181769
501.125862	0.182234
501.344311	0.182648
501.562742	0.183162
501.781154	0.184255
501.999548	0.183753
502.217924	0.183684
502.436282	0.184039
502.654621	0.184576
502.872942	0.184174
503.091245	0.184975
503.309530	0.184886
503.527797	0.183991
503.746045	0.182290
503.964275	0.182418
504.182487	0.183943
504.400681	0.183993
504.618856	0.183645
504.837013	0.183822
505.055152	0.182847
505.273273	0.182165
505.491376	0.182877
505.709460	0.183450
505.927526	0.183836
506.145574	0.183992
506.363604	0.183642
506.581615	0.184633
506.799608	0.185517
507.017583	0.185692
507.235540	0.185988
507.453478	0.186251
507.671399	0.186708
507.889301	0.187119
508.107185	0.186418
508.325050	0.187000
508.542898	0.186705
508.760727	0.185922
508.978538	0.185680
509.196330	0.186331
509.414105	0.185513
509.631861	0.185345
509.849599	0.184347
510.067319	0.184151
510.285021	0.183724
510.502704	0.184162
510.720369	0.184107
510.938016	0.184329
511.155645	0.184983
511.373255	0.185190
511.590848	0.185195
511.808422	0.185720
512.025977	0.185735
512.243515	0.185797
512.461034	0.186058
512.678536	0.186478
512.896018	0.186034
513.113483	0.185711
513.330930	0.186537
513.548358	0.188008
513.765768	0.189454
513.983160	0.190310
514.200533	0.191432
514.417889	0.190873
514.635226	0.190583
514.852545	0.191368
515.069845	0.191637
515.287128	0.191044
515.504392	0.189763
515.721638	0.188831
515.938866	0.188396
516.156075	0.187218
516.373267	0.188041
516.590440	0.188452
516.807594	0.188295
517.024731	0.187938
517.241850	0.187782
517.458950	0.188311
517.676032	0.188562
517.893095	0.189792
518.110141	0.190753
518.327168	0.190525
518.544177	0.190542
518.761168	0.190839
518.978141	0.191745
519.195095	0.193354
519.412031	0.193707
519.628949	0.194305
519.845849	0.194476
520.062731	0.194476
520.279594	0.194942
520.496439	0.195527
520.713266	0.195617
520.930074	0.195190
521.146865	0.195008
521.363637	0.195068
521.580391	0.194799
521.797127	0.194544
522.013844	0.194760
522.230543	0.195111
522.447224	0.195033
522.663887	0.195685
522.880532	0.196760
523.097158	0.195881
523.313766	0.195871
523.530356	0.196559
523.746928	0.197081
523.963481	0.197454
524.180017	0.196884
524.396534	0.197686
524.613032	0.198132
524.829513	0.197918
525.045975	0.198330
525.262420	0.197874
525.478845	0.197970
525.695253	0.197923
525.911643	0.197919
526.128014	0.198615
526.344367	0.198747
526.560702	0.197800
526.777018	0.198120
526.993316	0.199020
527.209597	0.200419
527.425858	0.200991
527.642102	0.200997
527.858328	0.201307
528.074535	0.201385
528.290724	0.201315
528.506894	0.201691
528.723047	0.202200
528.939181	0.202472
529.155297	0.202618
529.371395	0.202609
529.587475	0.203397
529.803536	0.203712
530.019579	0.203812
530.235604	0.203956
530.451611	0.204183
530.667600	0.203988
530.883570	0.203903
531.099522	0.203784
531.315456	0.203828
531.531372	0.203438
531.747269	0.203828
531.963148	0.204643
532.179009	0.205138
532.394852	0.205699
532.610676	0.205876
532.826482	0.205814
533.042271	0.206739
533.258040	0.207183
533.473792	0.207588
533.689525	0.207201
533.905240	0.207189
534.120937	0.207526
534.336616	0.207313
534.552277	0.207897
534.767919	0.208630
534.983543	0.208595
535.199149	0.208227
535.414736	0.208869
535.630306	0.210043
535.845857	0.210153
536.061390	0.210242
536.276904	0.211019
536.492401	0.210648
536.707879	0.211196
536.923339	0.211411
537.138781	0.212344
537.354204	0.211495
537.569610	0.211194
537.784997	0.211433
538.000366	0.211320
538.215716	0.211442
538.431049	0.211988
538.646363	0.211726
538.861659	0.211413
539.076937	0.210919
539.292196	0.211301
539.507438	0.211303
539.722661	0.211500
539.937866	0.211978
540.153052	0.212585
540.368221	0.213144
540.583371	0.213542
540.798503	0.213676
541.013617	0.214446
541.228712	0.215651
541.443789	0.216064
541.658848	0.216821
541.873889	0.216848
542.088912	0.217222
542.303916	0.217230
542.518902	0.217348
542.733870	0.218563
542.948820	0.218892
543.163752	0.219057
543.378665	0.219420
543.593560	0.219893
543.808437	0.220279
544.023295	0.220152
544.238136	0.220732
544.452958	0.220932
544.667762	0.220446
544.882548	0.220625
545.097315	0.220127
545.312064	0.220108
545.526795	0.219728
545.741508	0.219969
545.956203	0.220421
546.170879	0.220289
546.385537	0.220869
546.600177	0.221569
546.814799	0.221666
547.029402	0.222531
547.243988	0.222691
547.458555	0.222951
547.673103	0.222942
547.887634	0.223232
548.102146	0.223051
548.316640	0.222959
548.531116	0.222881
548.745574	0.223092
548.960013	0.222842
549.174435	0.223528
549.388838	0.223730
549.603222	0.224343
549.817589	0.224709
550.031937	0.225128
550.246267	0.225335
550.460579	0.225764
550.674873	0.225984
550.889148	0.226212
551.103405	0.226050
551.317644	0.226598
551.531865	0.226658
551.746068	0.226399
551.960252	0.226479
552.174418	0.226644
552.388566	0.226779
552.602696	0.227162
552.816807	0.227437
553.030900	0.227923
553.244975	0.228023
553.459032	0.228112
553.673070	0.228352
553.887091	0.228805
554.101093	0.229257
554.315077	0.229206
554.529042	0.229350
554.742990	0.229553
554.956919	0.229451
555.170830	0.229318
555.384722	0.229499
555.598597	0.229794
555.812453	0.230116
556.026291	0.230392
556.240111	0.230289
556.453913	0.230280
556.667696	0.230525
556.881461	0.230898
557.095208	0.230966
557.308937	0.230749
557.522647	0.230833
557.736339	0.231225
557.950013	0.230818
558.163669	0.231419
558.377307	0.231298
558.590926	0.231515
558.804527	0.231900
559.018110	0.231873
559.231675	0.232527
559.445221	0.231838
559.658749	0.231311
559.872259	0.231781
560.085751	0.231605
560.299225	0.232043
560.512680	0.231990
560.726117	0.231631
560.939536	0.232417
561.152937	0.232559
561.366319	0.233314
561.579683	0.233348
561.793029	0.233786
562.006357	0.233883
562.219667	0.233946
562.432958	0.234024
562.646231	0.234014
562.859486	0.234032
563.072723	0.234150
563.285941	0.234490
563.499141	0.234874
563.712323	0.234582
563.925487	0.235349
564.138632	0.235729
564.351760	0.236381
564.564869	0.236933
564.777960	0.237008
564.991032	0.237563
565.204087	0.237393
565.417123	0.237918
565.630141	0.238355
565.843140	0.238069
566.056122	0.238072
566.269085	0.237888
566.482030	0.238121
566.694957	0.237891
566.907866	0.237836
567.120756	0.238442
567.333628	0.238156
567.546482	0.238170
567.759318	0.238417
567.972135	0.238751
568.184935	0.239209
568.397716	0.238968
568.610478	0.239431
568.823223	0.239022
569.035949	0.239110
569.248657	0.239535
569.461347	0.239713
569.674019	0.239797
569.886672	0.239986
570.099308	0.239782
570.311925	0.240389
570.524523	0.241013
570.737104	0.241404
570.949666	0.241645
571.162210	0.242023
571.374736	0.242464
571.587244	0.243036
571.799733	0.243138
572.012205	0.243379
572.224658	0.243525
572.437092	0.243330
572.649509	0.243530
572.861907	0.243513
573.074287	0.243376
573.286649	0.243158
573.498993	0.242871
573.711318	0.243007
573.923625	0.243747
574.135914	0.243911
574.348185	0.244115
574.560438	0.244663
574.772672	0.244532
574.984888	0.244793
575.197086	0.245193
575.409266	0.245555
575.621427	0.245394
575.833570	0.244910
576.045695	0.245129
576.257802	0.244971
576.469890	0.245016
576.681961	0.245082
576.894013	0.245048
577.106046	0.245150
577.318062	0.245247
577.530059	0.245555
577.742039	0.245646
577.954000	0.245768
578.165942	0.246049
578.377867	0.246477
578.589773	0.247075
578.801661	0.247105
579.013531	0.246778
579.225382	0.247202
579.437216	0.247060
579.649031	0.247133
579.860828	0.247296
580.072606	0.247401
580.284367	0.247154
580.496109	0.247325
580.707833	0.247320
580.919539	0.247854
581.131227	0.247681
581.342896	0.248353
581.554547	0.248625
581.766180	0.248851
581.977795	0.249157
582.189391	0.249249
582.400969	0.248987
582.612529	0.249145
582.824071	0.249360
583.035595	0.249627
583.247100	0.249661
583.458587	0.249662
583.670056	0.249324
583.881506	0.249198
584.092939	0.249232
584.304353	0.249805
584.515749	0.250014
584.727127	0.249947
584.938486	0.249376
585.149828	0.249423
585.361151	0.249583
585.572456	0.249629
585.783742	0.249713
585.995011	0.249816
586.206261	0.249527
586.417493	0.250121
586.628706	0.250228
586.839902	0.251028
587.051079	0.250877
587.262238	0.250684
587.473379	0.250984
587.684502	0.251463
587.895606	0.251564
588.106692	0.251904
588.317760	0.251995
588.528810	0.251914
588.739841	0.251995
588.950855	0.252436
589.161850	0.253102
589.372827	0.253325
589.583785	0.252926
589.794726	0.253089
590.005648	0.253383
590.216552	0.253207
590.427437	0.253534
590.638305	0.253681
590.849154	0.253678
591.059985	0.253967
591.270798	0.254149
591.481592	0.254634
591.692369	0.254749
591.903127	0.255067
592.113867	0.255243
592.324588	0.255055
592.535292	0.255233
592.745977	0.255535
592.956644	0.255441
593.167293	0.255731
593.377923	0.255470
593.588536	0.255334
593.799130	0.254727
594.009706	0.254958
594.220263	0.255742
594.430803	0.255628
594.641324	0.255773
594.851827	0.255892
595.062312	0.255607
595.272778	0.256127
595.483227	0.256537
595.693657	0.257042
595.904069	0.257016
596.114462	0.257277
596.324838	0.257452
596.535195	0.257656
596.745534	0.257759
596.955855	0.258083
597.166157	0.258274
597.376441	0.258405
597.586707	0.258678
597.796955	0.259292
598.007185	0.259143
598.217396	0.259500
598.427589	0.259559
598.637764	0.260053
598.847921	0.260334
599.058060	0.260433
599.268180	0.260904
599.478282	0.261009
599.688366	0.260752
599.898431	0.260997
600.108479	0.261062
600.318508	0.261075
600.528519	0.261192
600.738511	0.261107
600.948486	0.261505
601.158442	0.261486
601.368380	0.261655
601.578300	0.261984
601.788202	0.262053
601.998085	0.262022
602.207950	0.262104
602.417797	0.262359
602.627626	0.262350
602.837436	0.262328
603.047228	0.262399
603.257002	0.262427
603.466758	0.262539
603.676496	0.262592
603.886215	0.262709
604.095916	0.263161
604.305599	0.262796
604.515264	0.263094
604.724910	0.263131
604.934538	0.263487
605.144148	0.263716
605.353740	0.264000
605.563314	0.264193
605.772869	0.264638
605.982406	0.264344
606.191925	0.264622
606.401425	0.264882
606.610908	0.265248
606.820372	0.264865
607.029818	0.265127
607.239246	0.264925
607.448655	0.264819
607.658047	0.264779
607.867420	0.264954
608.076775	0.264863
608.286111	0.264761
608.495430	0.264738
608.704730	0.265112
608.914012	0.265046
609.123275	0.265046
609.332521	0.265128
609.541748	0.265096
609.750957	0.265173
609.960148	0.265829
610.169321	0.265958
610.378475	0.266046
610.587611	0.265891
610.796729	0.265988
611.005829	0.266250
611.214910	0.266299
611.423974	0.266557
611.633019	0.266862
611.842045	0.266683
612.051054	0.267310
612.260044	0.267631
612.469017	0.268186
612.677970	0.268301
612.886906	0.268536
613.095824	0.269126
613.304723	0.269164
613.513604	0.269444
613.722467	0.269270
613.931311	0.268978
614.140138	0.269040
614.348946	0.268987
614.557736	0.269405
614.766507	0.269547
614.975261	0.269328
615.183996	0.269706
615.392713	0.269700
615.601412	0.270075
615.810092	0.270094
616.018754	0.269930
616.227399	0.270522
616.436024	0.270178
616.644632	0.269795
616.853222	0.270188
617.061793	0.270093
617.270346	0.270093
617.478880	0.270256
617.687397	0.270395
617.895895	0.270494
618.104375	0.270153
618.312837	0.270199
618.521281	0.270713
618.729706	0.270595
618.938113	0.270893
619.146502	0.271131
619.354873	0.271082
619.563226	0.271263
619.771560	0.271385
619.979876	0.271468
620.188174	0.271714
620.396453	0.272093
620.604715	0.272373
620.812958	0.272434
621.021183	0.272338
621.229390	0.272432
621.437578	0.272606
621.645748	0.272813
621.853900	0.272867
622.062034	0.273123
622.270150	0.273200
622.478247	0.273526
622.686326	0.273441
622.894387	0.273758
623.102430	0.273825
623.310454	0.273638
623.518461	0.273644
623.726449	0.274133
623.934418	0.274135
624.142370	0.274082
624.350303	0.274210
624.558218	0.274407
624.766115	0.274748
624.973994	0.274796
625.181855	0.275386
625.389697	0.275631
625.597521	0.275223
625.805327	0.275430
626.013114	0.275561
626.220883	0.275465
626.428634	0.275513
626.636367	0.275326
626.844082	0.275702
627.051778	0.275733
627.259457	0.275857
627.467117	0.276255
627.674758	0.276364
627.882382	0.276288
628.089987	0.276565
628.297574	0.276857
628.505143	0.277024
628.712694	0.277535
628.920226	0.277736
629.127740	0.278073
629.335236	0.278288
629.542714	0.278561
629.750174	0.278973
629.957615	0.279020
630.165038	0.279380
630.372443	0.279618
630.579829	0.279446
630.787198	0.279768
630.994548	0.279746
631.201880	0.280135
631.409194	0.280190
631.616489	0.280567
631.823766	0.280492
632.031025	0.280627
632.238266	0.280719
632.445489	0.280803
632.652693	0.280830
632.859879	0.281146
633.067047	0.280921
633.274197	0.281305
633.481329	0.281140
633.688442	0.281358
633.895537	0.281586
634.102614	0.281928
634.309672	0.282274
634.516713	0.282381
634.723735	0.282628
634.930739	0.282974
635.137724	0.283096
635.344692	0.283105
635.551641	0.283177
635.758572	0.282903
635.965485	0.282886
636.172379	0.282676
636.379256	0.282591
636.586114	0.282454
636.792954	0.282445
636.999775	0.282627
637.206579	0.282896
637.413364	0.283207
637.620131	0.283570
637.826880	0.283728
638.033610	0.284055
638.240323	0.284285
638.447017	0.284393
638.653692	0.284509
638.860350	0.284479
639.066990	0.284808
639.273611	0.284872
639.480214	0.284805
639.686798	0.284935
639.893365	0.284957
640.099913	0.285211
640.306443	0.285543
640.512955	0.285482
640.719449	0.285575
640.925924	0.285740
641.132381	0.286021
641.338820	0.286232
641.545241	0.286415
641.751644	0.286803
641.958028	0.287075
642.164394	0.286963
642.370742	0.287464
642.577071	0.287597
642.783383	0.287659
642.989676	0.287838
643.195951	0.288025
643.402207	0.288347
643.608446	0.288300
643.814666	0.288344
644.020868	0.288283
644.227052	0.288265
644.433218	0.288376
644.639365	0.288593
644.845494	0.288465
645.051605	0.288793
645.257698	0.288739
645.463772	0.289043
645.669828	0.289136
645.875866	0.289784
646.081886	0.290138
646.287888	0.290460
646.493871	0.290365
646.699836	0.290755
646.905783	0.290589
647.111712	0.290920
647.317622	0.290969
647.523514	0.291155
647.729388	0.291110
647.935244	0.291204
648.141082	0.291296
648.346901	0.291768
648.552702	0.292159
648.758485	0.292563
648.964250	0.292734
649.169996	0.293164
649.375724	0.293454
649.581434	0.293804
649.787126	0.293895
649.992800	0.293999
650.198455	0.294289
650.404092	0.294425
650.609711	0.294610
650.815311	0.294408
651.020894	0.294422
651.226458	0.294297
651.432004	0.294339
651.637532	0.294565
651.843041	0.294927
652.048532	0.294806
652.254006	0.294571
652.459460	0.294767
652.664897	0.295242
652.870315	0.295531
653.075716	0.295728
653.281097	0.295840
653.486461	0.296201
653.691807	0.296370
653.897134	0.296654
654.102443	0.297020
654.307734	0.297019
654.513006	0.297251
654.718261	0.297400
654.923497	0.297516
655.128715	0.297737
655.333915	0.297875
655.539096	0.297782
655.744259	0.297856
655.949404	0.298091
656.154531	0.298236
656.359640	0.298183
656.564730	0.298399
656.769802	0.298958
656.974856	0.299423
657.179892	0.299602
657.384909	0.299824
657.589908	0.300060
657.794889	0.300249
657.999852	0.300506
658.204797	0.301032
658.409723	0.301171
658.614631	0.301152
658.819521	0.301220
659.024393	0.301250
659.229246	0.301737
659.434081	0.302109
659.638898	0.302244
659.843697	0.302276
660.048478	0.302236
660.253240	0.302412
660.457984	0.302907
660.662710	0.303014
660.867417	0.303125
661.072107	0.303160
661.276778	0.303187
661.481431	0.303422
661.686066	0.303902
661.890682	0.303976
662.095281	0.304196
662.299861	0.304008
662.504422	0.304034
662.708966	0.304258
662.913491	0.304334
663.117999	0.304413
663.322488	0.304549
663.526958	0.304629
663.731411	0.304945
663.935845	0.304872
664.140261	0.305026
664.344659	0.305150
664.549038	0.305252
664.753400	0.305385
664.957743	0.305728
665.162068	0.305843
665.366375	0.306025
665.570663	0.305943
665.774933	0.306095
665.979185	0.306280
666.183419	0.306661
666.387635	0.306809
666.591832	0.306880
666.796011	0.307086
667.000172	0.307334
667.204315	0.307434
667.408439	0.307994
667.612545	0.308366
667.816634	0.308715
668.020703	0.309062
668.224755	0.309303
668.428788	0.309727
668.632803	0.309832
668.836800	0.309902
669.040779	0.309961
669.244739	0.310079
669.448681	0.310478
669.652605	0.310456
669.856511	0.310428
670.060399	0.310583
670.264268	0.310473
670.468119	0.310528
670.671952	0.310647
670.875767	0.310880
671.079563	0.311102
671.283341	0.311055
671.487101	0.311526
671.690843	0.311915
671.894567	0.312221
672.098272	0.312734
672.301959	0.313097
672.505628	0.313578
672.709278	0.314038
672.912911	0.313947
673.116525	0.314180
673.320121	0.314125
673.523699	0.314113
673.727258	0.314418
673.930799	0.314619
674.134322	0.314605
674.337827	0.314616
674.541314	0.314799
674.744782	0.315248
674.948232	0.315242
675.151664	0.315703
675.355078	0.316075
675.558474	0.315987
675.761851	0.316114
675.965210	0.316352
676.168551	0.316372
676.371873	0.316695
676.575178	0.316469
676.778464	0.316895
676.981732	0.317133
677.184981	0.316921
677.388213	0.317522
677.591426	0.317817
677.794621	0.318100
677.997798	0.318557
678.200956	0.318655
678.404097	0.319403
678.607219	0.319472
678.810323	0.319538
679.013408	0.320113
679.216476	0.320085
679.419525	0.320097
679.622556	0.320369
679.825569	0.320742
680.028563	0.320868
680.231540	0.320797
680.434498	0.321026
680.637438	0.321127
680.840359	0.321186
681.043263	0.321338
681.246148	0.321666
681.449015	0.321753
681.651864	0.321723
681.854694	0.321572
682.057506	0.321879
682.260301	0.322024
682.463076	0.322164
682.665834	0.322408
682.868573	0.322843
683.071295	0.322740
683.273998	0.322970
683.476682	0.323123
683.679349	0.323278
683.881997	0.323122
684.084627	0.323366
684.287239	0.323419
684.489833	0.323358
684.692408	0.323240
684.894965	0.323403
685.097504	0.323636
685.300025	0.323663
685.502527	0.324154
685.705012	0.324547
685.907478	0.324591
686.109925	0.324795
686.312355	0.325095
686.514766	0.325242
686.717159	0.325754
686.919534	0.325630
687.121891	0.325944
687.324230	0.326187
687.526550	0.326245
687.728852	0.326540
687.931136	0.326770
688.133401	0.326982
688.335649	0.327042
688.537878	0.327138
688.740089	0.327230
688.942281	0.327223
689.144456	0.327298
689.346612	0.327660
689.548750	0.327880
689.750870	0.328127
689.952971	0.327916
690.155055	0.328303
690.357120	0.328483
690.559167	0.328815
690.761195	0.329156
690.963206	0.329155
691.165198	0.329217
691.367172	0.329181
691.569128	0.329336
691.771065	0.329644
691.972984	0.329559
692.174885	0.329413
692.376768	0.329469
692.578633	0.329562
692.780479	0.329864
692.982308	0.329924
693.184118	0.330174
693.385909	0.330249
