sample name	sample
index	846
start time	 04-08-2021  10:31:21 AM


Wavelength (nm)	Absorbance
494.344910	0.086546
494.563924	0.086546
494.782919	0.086546
495.001897	-0.073196
495.220856	-0.014941
495.439797	-0.020008
495.658719	-0.025808
495.877624	-0.055640
496.096510	-0.036937
496.315378	-0.064703
496.534227	-0.050483
496.753059	-0.048888
496.971872	-0.036674
497.190667	0.078442
497.409444	0.106635
497.628203	0.112046
497.846943	0.119874
498.065665	0.122895
498.284369	0.126374
498.503055	0.127429
498.721723	0.129381
498.940372	0.130453
499.159003	0.131765
499.377616	0.131895
499.596210	0.133389
499.814787	0.133087
500.033345	0.132713
500.251885	0.132732
500.470406	0.132106
500.688910	0.131259
500.907395	0.131922
501.125862	0.131598
501.344311	0.131969
501.562742	0.132058
501.781154	0.132348
501.999548	0.132573
502.217924	0.132378
502.436282	0.133227
502.654621	0.133108
502.872942	0.131655
503.091245	0.132266
503.309530	0.131603
503.527797	0.131493
503.746045	0.131928
503.964275	0.131729
504.182487	0.131870
504.400681	0.131377
504.618856	0.131852
504.837013	0.133271
505.055152	0.133148
505.273273	0.134066
505.491376	0.134460
505.709460	0.134997
505.927526	0.136044
506.145574	0.136947
506.363604	0.136856
506.581615	0.137164
506.799608	0.136070
507.017583	0.136039
507.235540	0.135705
507.453478	0.135870
507.671399	0.135636
507.889301	0.135058
508.107185	0.135373
508.325050	0.135450
508.542898	0.135384
508.760727	0.135773
508.978538	0.136191
509.196330	0.136398
509.414105	0.136005
509.631861	0.136439
509.849599	0.136848
510.067319	0.136064
510.285021	0.136573
510.502704	0.137859
510.720369	0.137767
510.938016	0.137573
511.155645	0.138269
511.373255	0.139362
511.590848	0.139193
511.808422	0.138823
512.025977	0.139234
512.243515	0.140383
512.461034	0.139551
512.678536	0.140822
512.896018	0.140979
513.113483	0.140818
513.330930	0.140728
513.548358	0.140839
513.765768	0.141199
513.983160	0.141277
514.200533	0.140955
514.417889	0.142085
514.635226	0.142209
514.852545	0.142113
515.069845	0.142588
515.287128	0.142403
515.504392	0.142058
515.721638	0.142334
515.938866	0.142638
516.156075	0.142522
516.373267	0.142176
516.590440	0.142597
516.807594	0.143511
517.024731	0.143864
517.241850	0.144486
517.458950	0.145116
517.676032	0.145734
517.893095	0.145522
518.110141	0.145357
518.327168	0.145542
518.544177	0.145859
518.761168	0.146312
518.978141	0.146111
519.195095	0.145978
519.412031	0.146554
519.628949	0.146165
519.845849	0.146973
520.062731	0.147433
520.279594	0.147256
520.496439	0.147228
520.713266	0.147137
520.930074	0.147493
521.146865	0.147751
521.363637	0.147659
521.580391	0.147530
521.797127	0.147740
522.013844	0.148606
522.230543	0.148394
522.447224	0.148659
522.663887	0.149259
522.880532	0.149252
523.097158	0.149655
523.313766	0.149447
523.530356	0.149627
523.746928	0.149058
523.963481	0.148911
524.180017	0.149535
524.396534	0.149271
524.613032	0.148803
524.829513	0.149294
525.045975	0.150034
525.262420	0.151426
525.478845	0.152844
525.695253	0.153119
525.911643	0.152389
526.128014	0.153063
526.344367	0.153322
526.560702	0.153300
526.777018	0.153905
526.993316	0.153840
527.209597	0.153850
527.425858	0.153682
527.642102	0.153965
527.858328	0.155227
528.074535	0.155309
528.290724	0.155319
528.506894	0.155707
528.723047	0.155524
528.939181	0.155725
529.155297	0.155405
529.371395	0.155623
529.587475	0.156389
529.803536	0.157061
530.019579	0.157696
530.235604	0.157757
530.451611	0.158345
530.667600	0.158817
530.883570	0.158818
531.099522	0.159312
531.315456	0.159114
531.531372	0.159670
531.747269	0.159772
531.963148	0.160130
532.179009	0.160516
532.394852	0.161099
532.610676	0.161129
532.826482	0.161310
533.042271	0.161966
533.258040	0.162838
533.473792	0.163484
533.689525	0.163270
533.905240	0.163033
534.120937	0.163730
534.336616	0.163608
534.552277	0.164039
534.767919	0.164773
534.983543	0.164613
535.199149	0.165118
535.414736	0.164789
535.630306	0.165564
535.845857	0.166369
536.061390	0.166481
536.276904	0.166572
536.492401	0.167098
536.707879	0.167322
536.923339	0.167782
537.138781	0.167811
537.354204	0.168375
537.569610	0.168811
537.784997	0.168418
538.000366	0.168688
538.215716	0.169394
538.431049	0.169541
538.646363	0.170077
538.861659	0.170184
539.076937	0.170209
539.292196	0.170166
539.507438	0.170263
539.722661	0.171015
539.937866	0.171510
540.153052	0.172013
540.368221	0.172017
540.583371	0.171748
540.798503	0.172162
541.013617	0.172678
541.228712	0.173255
541.443789	0.173456
541.658848	0.173566
541.873889	0.173632
542.088912	0.173100
542.303916	0.173432
542.518902	0.173715
542.733870	0.173774
542.948820	0.173701
543.163752	0.173727
543.378665	0.173896
543.593560	0.174552
543.808437	0.174527
544.023295	0.175687
544.238136	0.175827
544.452958	0.175569
544.667762	0.176119
544.882548	0.176291
545.097315	0.176729
545.312064	0.176754
545.526795	0.176808
545.741508	0.177664
545.956203	0.177723
546.170879	0.177913
546.385537	0.178329
546.600177	0.178289
546.814799	0.178694
547.029402	0.178732
547.243988	0.178848
547.458555	0.178973
547.673103	0.179282
547.887634	0.179087
548.102146	0.179992
548.316640	0.180742
548.531116	0.180992
548.745574	0.181746
548.960013	0.181862
549.174435	0.182152
549.388838	0.182628
549.603222	0.182126
549.817589	0.182805
550.031937	0.182813
550.246267	0.182966
550.460579	0.183165
550.674873	0.182803
550.889148	0.183506
551.103405	0.184064
551.317644	0.184003
551.531865	0.184576
551.746068	0.184523
551.960252	0.184475
552.174418	0.184719
552.388566	0.184990
552.602696	0.185238
552.816807	0.185273
553.030900	0.185410
553.244975	0.185451
553.459032	0.185833
553.673070	0.185959
553.887091	0.186281
554.101093	0.186328
554.315077	0.186708
554.529042	0.186803
554.742990	0.187055
554.956919	0.187572
555.170830	0.187685
555.384722	0.187852
555.598597	0.188040
555.812453	0.187799
556.026291	0.187991
556.240111	0.188047
556.453913	0.187790
556.667696	0.187580
556.881461	0.187140
557.095208	0.187416
557.308937	0.187492
557.522647	0.187280
557.736339	0.187868
557.950013	0.188271
558.163669	0.188341
558.377307	0.189137
558.590926	0.189285
558.804527	0.189764
559.018110	0.190117
559.231675	0.190354
559.445221	0.190953
559.658749	0.190674
559.872259	0.190749
560.085751	0.191586
560.299225	0.191447
560.512680	0.191674
560.726117	0.191521
560.939536	0.191392
561.152937	0.191535
561.366319	0.191594
561.579683	0.191945
561.793029	0.191962
562.006357	0.191375
562.219667	0.192065
562.432958	0.192005
562.646231	0.192222
562.859486	0.192953
563.072723	0.192683
563.285941	0.192732
563.499141	0.193127
563.712323	0.193815
563.925487	0.194479
564.138632	0.194534
564.351760	0.195429
564.564869	0.195787
564.777960	0.195394
564.991032	0.195748
565.204087	0.195997
565.417123	0.195515
565.630141	0.195236
565.843140	0.195494
566.056122	0.195250
566.269085	0.194752
566.482030	0.195377
566.694957	0.195760
566.907866	0.196226
567.120756	0.196539
567.333628	0.197264
567.546482	0.197678
567.759318	0.197400
567.972135	0.197617
568.184935	0.198095
568.397716	0.197405
568.610478	0.197396
568.823223	0.197357
569.035949	0.197221
569.248657	0.197402
569.461347	0.197219
569.674019	0.197282
569.886672	0.197554
570.099308	0.197679
570.311925	0.197972
570.524523	0.198410
570.737104	0.198267
570.949666	0.198355
571.162210	0.198759
571.374736	0.199117
571.587244	0.199329
571.799733	0.199410
572.012205	0.199387
572.224658	0.199604
572.437092	0.199221
572.649509	0.199532
572.861907	0.199566
573.074287	0.199069
573.286649	0.199107
573.498993	0.199185
573.711318	0.199354
573.923625	0.199515
574.135914	0.199511
574.348185	0.200210
574.560438	0.200221
574.772672	0.200584
574.984888	0.201493
575.197086	0.201428
575.409266	0.201513
575.621427	0.201742
575.833570	0.202040
576.045695	0.202492
576.257802	0.202530
576.469890	0.202890
576.681961	0.202943
576.894013	0.202657
577.106046	0.203060
577.318062	0.203293
577.530059	0.203416
577.742039	0.203536
577.954000	0.203677
578.165942	0.203699
578.377867	0.203667
578.589773	0.203612
578.801661	0.203542
579.013531	0.203518
579.225382	0.203857
579.437216	0.204003
579.649031	0.203996
579.860828	0.203857
580.072606	0.203865
580.284367	0.204250
580.496109	0.204619
580.707833	0.204775
580.919539	0.204796
581.131227	0.204481
581.342896	0.204226
581.554547	0.204374
581.766180	0.204404
581.977795	0.204323
582.189391	0.204293
582.400969	0.204757
582.612529	0.204349
582.824071	0.204533
583.035595	0.204654
583.247100	0.205328
583.458587	0.205286
583.670056	0.205638
583.881506	0.206269
584.092939	0.206427
584.304353	0.206410
584.515749	0.207144
584.727127	0.207490
584.938486	0.207900
585.149828	0.207785
585.361151	0.208458
585.572456	0.208815
585.783742	0.208912
585.995011	0.208912
586.206261	0.208955
586.417493	0.209154
586.628706	0.209275
586.839902	0.209452
587.051079	0.209710
587.262238	0.209626
587.473379	0.209147
587.684502	0.208997
587.895606	0.208849
588.106692	0.209071
588.317760	0.209064
588.528810	0.208853
588.739841	0.208472
588.950855	0.208484
589.161850	0.208106
589.372827	0.208740
589.583785	0.208498
589.794726	0.209026
590.005648	0.209068
590.216552	0.209099
590.427437	0.209158
590.638305	0.209637
590.849154	0.209729
591.059985	0.210138
591.270798	0.209869
591.481592	0.210324
591.692369	0.210663
591.903127	0.210830
592.113867	0.211225
592.324588	0.211369
592.535292	0.211442
592.745977	0.211770
592.956644	0.211987
593.167293	0.212505
593.377923	0.212876
593.588536	0.213181
593.799130	0.213400
594.009706	0.213411
594.220263	0.213632
594.430803	0.213992
594.641324	0.214004
594.851827	0.214213
595.062312	0.214153
595.272778	0.214069
595.483227	0.214154
595.693657	0.214455
595.904069	0.214714
596.114462	0.215006
596.324838	0.215193
596.535195	0.215289
596.745534	0.215427
596.955855	0.215672
597.166157	0.216204
597.376441	0.216668
597.586707	0.216682
597.796955	0.216792
598.007185	0.216955
598.217396	0.216740
598.427589	0.217010
598.637764	0.217448
598.847921	0.217515
599.058060	0.217361
599.268180	0.217028
599.478282	0.217129
599.688366	0.217336
599.898431	0.217355
600.108479	0.217625
600.318508	0.217610
600.528519	0.217509
600.738511	0.217684
600.948486	0.217886
601.158442	0.217815
601.368380	0.217945
601.578300	0.218176
601.788202	0.218346
601.998085	0.218566
602.207950	0.218701
602.417797	0.218797
602.627626	0.218900
602.837436	0.219310
603.047228	0.219605
603.257002	0.219304
603.466758	0.219124
603.676496	0.219548
603.886215	0.219646
604.095916	0.219721
604.305599	0.219700
604.515264	0.220123
604.724910	0.219810
604.934538	0.220158
605.144148	0.220495
605.353740	0.220603
605.563314	0.220532
605.772869	0.220655
605.982406	0.220763
606.191925	0.220848
606.401425	0.220824
606.610908	0.220996
606.820372	0.220864
607.029818	0.221370
607.239246	0.221757
607.448655	0.221639
607.658047	0.221959
607.867420	0.221995
608.076775	0.222756
608.286111	0.222686
608.495430	0.222551
608.704730	0.222694
608.914012	0.222555
609.123275	0.222498
609.332521	0.222481
609.541748	0.222350
609.750957	0.222554
609.960148	0.221973
610.169321	0.222204
610.378475	0.222840
610.587611	0.222688
610.796729	0.222842
611.005829	0.222670
611.214910	0.223352
611.423974	0.223535
611.633019	0.223580
611.842045	0.224172
612.051054	0.224138
612.260044	0.224141
612.469017	0.224329
612.677970	0.224591
612.886906	0.225074
613.095824	0.224692
613.304723	0.224850
613.513604	0.224904
613.722467	0.224716
613.931311	0.224999
614.140138	0.225094
614.348946	0.225142
614.557736	0.225001
614.766507	0.225168
614.975261	0.225307
615.183996	0.225406
615.392713	0.225850
615.601412	0.226182
615.810092	0.226078
616.018754	0.226252
616.227399	0.226449
616.436024	0.226740
616.644632	0.226607
616.853222	0.226861
617.061793	0.226829
617.270346	0.226795
617.478880	0.226892
617.687397	0.227114
617.895895	0.226928
618.104375	0.226836
618.312837	0.226778
618.521281	0.227160
618.729706	0.227416
618.938113	0.227874
619.146502	0.227971
619.354873	0.227762
619.563226	0.228220
619.771560	0.228457
619.979876	0.228826
620.188174	0.229170
620.396453	0.228966
620.604715	0.229010
620.812958	0.228582
621.021183	0.228741
621.229390	0.229029
621.437578	0.228785
621.645748	0.229130
621.853900	0.229442
622.062034	0.229700
622.270150	0.229989
622.478247	0.230340
622.686326	0.230891
622.894387	0.230951
623.102430	0.230804
623.310454	0.231037
623.518461	0.231342
623.726449	0.231342
623.934418	0.231140
624.142370	0.231267
624.350303	0.231242
624.558218	0.231403
624.766115	0.231567
624.973994	0.231781
625.181855	0.232140
625.389697	0.231922
625.597521	0.231897
625.805327	0.232354
626.013114	0.232228
626.220883	0.232327
626.428634	0.232314
626.636367	0.232658
626.844082	0.233094
627.051778	0.233022
627.259457	0.233228
627.467117	0.233533
627.674758	0.233536
627.882382	0.233849
628.089987	0.233982
628.297574	0.234062
628.505143	0.234100
628.712694	0.234250
628.920226	0.234443
629.127740	0.234686
629.335236	0.234642
629.542714	0.234385
629.750174	0.234436
629.957615	0.234569
630.165038	0.234507
630.372443	0.234486
630.579829	0.234405
630.787198	0.234395
630.994548	0.234477
631.201880	0.234448
631.409194	0.234897
631.616489	0.235309
631.823766	0.235403
632.031025	0.235563
632.238266	0.235532
632.445489	0.235636
632.652693	0.235697
632.859879	0.235857
633.067047	0.236324
633.274197	0.236354
633.481329	0.236440
633.688442	0.236590
633.895537	0.236913
634.102614	0.237284
634.309672	0.237532
634.516713	0.237968
634.723735	0.238118
634.930739	0.238370
635.137724	0.238511
635.344692	0.238486
635.551641	0.238437
635.758572	0.238944
635.965485	0.239198
636.172379	0.239349
636.379256	0.239234
636.586114	0.239088
636.792954	0.239021
636.999775	0.239388
637.206579	0.239534
637.413364	0.239710
637.620131	0.239574
637.826880	0.239735
638.033610	0.239819
638.240323	0.240083
638.447017	0.240236
638.653692	0.240503
638.860350	0.240489
639.066990	0.240731
639.273611	0.241001
639.480214	0.241332
639.686798	0.241320
639.893365	0.241709
640.099913	0.241916
640.306443	0.242158
640.512955	0.242412
640.719449	0.242296
640.925924	0.242628
641.132381	0.242807
641.338820	0.242754
641.545241	0.242923
641.751644	0.242987
641.958028	0.242904
642.164394	0.243153
642.370742	0.243155
642.577071	0.243692
642.783383	0.243702
642.989676	0.244154
643.195951	0.244327
643.402207	0.244454
643.608446	0.244565
643.814666	0.244925
644.020868	0.245047
644.227052	0.244997
644.433218	0.244868
644.639365	0.245207
644.845494	0.245199
645.051605	0.245365
645.257698	0.245641
645.463772	0.245689
645.669828	0.245894
645.875866	0.246030
646.081886	0.246324
646.287888	0.246739
646.493871	0.246545
646.699836	0.246489
646.905783	0.246678
647.111712	0.246837
647.317622	0.247307
647.523514	0.247478
647.729388	0.247651
647.935244	0.247842
648.141082	0.247788
648.346901	0.248090
648.552702	0.248606
648.758485	0.248523
648.964250	0.248626
649.169996	0.248501
649.375724	0.248583
649.581434	0.249017
649.787126	0.249284
649.992800	0.249810
650.198455	0.250038
650.404092	0.249987
650.609711	0.250380
650.815311	0.250528
651.020894	0.250777
651.226458	0.250960
651.432004	0.250724
651.637532	0.250842
651.843041	0.250657
652.048532	0.250933
652.254006	0.251210
652.459460	0.251224
652.664897	0.251165
652.870315	0.251223
653.075716	0.251330
653.281097	0.251742
653.486461	0.252006
653.691807	0.252187
653.897134	0.252400
654.102443	0.252306
654.307734	0.252631
654.513006	0.253087
654.718261	0.253328
654.923497	0.253504
655.128715	0.253639
655.333915	0.253656
655.539096	0.254054
655.744259	0.254096
655.949404	0.254419
656.154531	0.254244
656.359640	0.254436
656.564730	0.254589
656.769802	0.254792
656.974856	0.254814
657.179892	0.255043
657.384909	0.255074
657.589908	0.255245
657.794889	0.255431
657.999852	0.255733
658.204797	0.255859
658.409723	0.255973
658.614631	0.256141
658.819521	0.256419
659.024393	0.256673
659.229246	0.256832
659.434081	0.256966
659.638898	0.257113
659.843697	0.257705
660.048478	0.257870
660.253240	0.258125
660.457984	0.258284
660.662710	0.258660
660.867417	0.258709
661.072107	0.258970
661.276778	0.259226
661.481431	0.259297
661.686066	0.259186
661.890682	0.259532
662.095281	0.259583
662.299861	0.259899
662.504422	0.260088
662.708966	0.260468
662.913491	0.260750
663.117999	0.260807
663.322488	0.261168
663.526958	0.261405
663.731411	0.261482
663.935845	0.261524
664.140261	0.261702
664.344659	0.261958
664.549038	0.262210
664.753400	0.262351
664.957743	0.262528
665.162068	0.262535
665.366375	0.262535
665.570663	0.262799
665.774933	0.263333
665.979185	0.263481
666.183419	0.263395
666.387635	0.263296
666.591832	0.263245
666.796011	0.263575
667.000172	0.263778
667.204315	0.263954
667.408439	0.263892
667.612545	0.264034
667.816634	0.264271
668.020703	0.264431
668.224755	0.264691
668.428788	0.264753
668.632803	0.265517
668.836800	0.265717
669.040779	0.266142
669.244739	0.266332
669.448681	0.266727
669.652605	0.266852
669.856511	0.267058
670.060399	0.267283
670.264268	0.267742
670.468119	0.267136
670.671952	0.267527
670.875767	0.267565
671.079563	0.268012
671.283341	0.267827
671.487101	0.268130
671.690843	0.268346
671.894567	0.268718
672.098272	0.269068
672.301959	0.269727
672.505628	0.269781
672.709278	0.270031
672.912911	0.270168
673.116525	0.270504
673.320121	0.270902
673.523699	0.271086
673.727258	0.271176
673.930799	0.271408
674.134322	0.271105
674.337827	0.271213
674.541314	0.271635
674.744782	0.271619
674.948232	0.271751
675.151664	0.271700
675.355078	0.271852
675.558474	0.271861
675.761851	0.272004
675.965210	0.272293
676.168551	0.272727
676.371873	0.272744
676.575178	0.273050
676.778464	0.273351
676.981732	0.273398
677.184981	0.273642
677.388213	0.273997
677.591426	0.274266
677.794621	0.274666
677.997798	0.274742
678.200956	0.275082
678.404097	0.275460
678.607219	0.275773
678.810323	0.276087
679.013408	0.276330
679.216476	0.276386
679.419525	0.276421
679.622556	0.276725
679.825569	0.276935
680.028563	0.276884
680.231540	0.277093
680.434498	0.277276
680.637438	0.277551
680.840359	0.277599
681.043263	0.278104
681.246148	0.278229
681.449015	0.278148
681.651864	0.278389
681.854694	0.278813
682.057506	0.278858
682.260301	0.279010
682.463076	0.279275
682.665834	0.279625
682.868573	0.279504
683.071295	0.279739
683.273998	0.279806
683.476682	0.280069
683.679349	0.280349
683.881997	0.280653
684.084627	0.280876
684.287239	0.280749
684.489833	0.280698
684.692408	0.281007
684.894965	0.281068
685.097504	0.281577
685.300025	0.281461
685.502527	0.281450
685.705012	0.281598
685.907478	0.281603
686.109925	0.281878
686.312355	0.282357
686.514766	0.282618
686.717159	0.282985
686.919534	0.283038
687.121891	0.283244
687.324230	0.283375
687.526550	0.283488
687.728852	0.283688
687.931136	0.283766
688.133401	0.283866
688.335649	0.284005
688.537878	0.283964
688.740089	0.284131
688.942281	0.284290
689.144456	0.284513
689.346612	0.284718
689.548750	0.284862
689.750870	0.284997
689.952971	0.284942
690.155055	0.285017
690.357120	0.285237
690.559167	0.285325
690.761195	0.285782
690.963206	0.286297
691.165198	0.286337
691.367172	0.286592
691.569128	0.286865
691.771065	0.287099
691.972984	0.287352
692.174885	0.287223
692.376768	0.287444
692.578633	0.287438
692.780479	0.287106
692.982308	0.287421
693.184118	0.287466
693.385909	0.287602
