sample name	sample
index	503
start time	 03-11-2021  02:52:49 PM


Wavelength (nm)	Absorbance
494.344910	0.796406
494.563924	0.796406
494.782919	0.796406
495.001897	-0.254478
495.220856	-0.055132
495.439797	-0.176818
495.658719	-0.273914
495.877624	-0.304433
496.096510	-0.286021
496.315378	-0.148601
496.534227	-0.055556
496.753059	-0.176759
496.971872	-0.130255
497.190667	0.046473
497.409444	0.050390
497.628203	0.051833
497.846943	0.051954
498.065665	0.051036
498.284369	0.049851
498.503055	0.049749
498.721723	0.049789
498.940372	0.050049
499.159003	0.048698
499.377616	0.049149
499.596210	0.048559
499.814787	0.048182
500.033345	0.048433
500.251885	0.048544
500.470406	0.048831
500.688910	0.049756
500.907395	0.049218
501.125862	0.049491
501.344311	0.049569
501.562742	0.050383
501.781154	0.050399
501.999548	0.050654
502.217924	0.050980
502.436282	0.050547
502.654621	0.049892
502.872942	0.050826
503.091245	0.051976
503.309530	0.051701
503.527797	0.051491
503.746045	0.051606
503.964275	0.051128
504.182487	0.051292
504.400681	0.051633
504.618856	0.051940
504.837013	0.051473
505.055152	0.050836
505.273273	0.050936
505.491376	0.051203
505.709460	0.051716
505.927526	0.051242
506.145574	0.050942
506.363604	0.050422
506.581615	0.050670
506.799608	0.052024
507.017583	0.052023
507.235540	0.051871
507.453478	0.051187
507.671399	0.050832
507.889301	0.050738
508.107185	0.050567
508.325050	0.050847
508.542898	0.050656
508.760727	0.049293
508.978538	0.049219
509.196330	0.050183
509.414105	0.050719
509.631861	0.051290
509.849599	0.052158
510.067319	0.051782
510.285021	0.051928
510.502704	0.051757
510.720369	0.052620
510.938016	0.053019
511.155645	0.052105
511.373255	0.052898
511.590848	0.052662
511.808422	0.052392
512.025977	0.052633
512.243515	0.052251
512.461034	0.052649
512.678536	0.051821
512.896018	0.052123
513.113483	0.052581
513.330930	0.052021
513.548358	0.052506
513.765768	0.053235
513.983160	0.053322
514.200533	0.053568
514.417889	0.053577
514.635226	0.053386
514.852545	0.053113
515.069845	0.052900
515.287128	0.052911
515.504392	0.051868
515.721638	0.051071
515.938866	0.051451
516.156075	0.052177
516.373267	0.052507
516.590440	0.053611
516.807594	0.053260
517.024731	0.053089
517.241850	0.053157
517.458950	0.053989
517.676032	0.054292
517.893095	0.053971
518.110141	0.053573
518.327168	0.052890
518.544177	0.052487
518.761168	0.052949
518.978141	0.053636
519.195095	0.053623
519.412031	0.053576
519.628949	0.053839
519.845849	0.055133
520.062731	0.055168
520.279594	0.055626
520.496439	0.055867
520.713266	0.055501
520.930074	0.055833
521.146865	0.055963
521.363637	0.056152
521.580391	0.056404
521.797127	0.056151
522.013844	0.055829
522.230543	0.055893
522.447224	0.056028
522.663887	0.056718
522.880532	0.056488
523.097158	0.056385
523.313766	0.056210
523.530356	0.055803
523.746928	0.056069
523.963481	0.056478
524.180017	0.056398
524.396534	0.056374
524.613032	0.055964
524.829513	0.055868
525.045975	0.055777
525.262420	0.056018
525.478845	0.056241
525.695253	0.056178
525.911643	0.056576
526.128014	0.056979
526.344367	0.057201
526.560702	0.057568
526.777018	0.057376
526.993316	0.057594
527.209597	0.057454
527.425858	0.057958
527.642102	0.058257
527.858328	0.058092
528.074535	0.057937
528.290724	0.057611
528.506894	0.057966
528.723047	0.058282
528.939181	0.059046
529.155297	0.059696
529.371395	0.059628
529.587475	0.059562
529.803536	0.060100
530.019579	0.060788
530.235604	0.061596
530.451611	0.061843
530.667600	0.061628
530.883570	0.060975
531.099522	0.061165
531.315456	0.061845
531.531372	0.061606
531.747269	0.061135
531.963148	0.061285
532.179009	0.061221
532.394852	0.061132
532.610676	0.061934
532.826482	0.062368
533.042271	0.062240
533.258040	0.062089
533.473792	0.062357
533.689525	0.063355
533.905240	0.063316
534.120937	0.063599
534.336616	0.063688
534.552277	0.063598
534.767919	0.064131
534.983543	0.064575
535.199149	0.064778
535.414736	0.064752
535.630306	0.064790
535.845857	0.064738
536.061390	0.064560
536.276904	0.064859
536.492401	0.064951
536.707879	0.064837
536.923339	0.064485
537.138781	0.064471
537.354204	0.064611
537.569610	0.064077
537.784997	0.064169
538.000366	0.064046
538.215716	0.064261
538.431049	0.064208
538.646363	0.064198
538.861659	0.064317
539.076937	0.064864
539.292196	0.064990
539.507438	0.064913
539.722661	0.065274
539.937866	0.065733
540.153052	0.065824
540.368221	0.066345
540.583371	0.066591
540.798503	0.066886
541.013617	0.066513
541.228712	0.066998
541.443789	0.067113
541.658848	0.066895
541.873889	0.067080
542.088912	0.067099
542.303916	0.067120
542.518902	0.067300
542.733870	0.067359
542.948820	0.067473
543.163752	0.067383
543.378665	0.067615
543.593560	0.067640
543.808437	0.067731
544.023295	0.067842
544.238136	0.067795
544.452958	0.068050
544.667762	0.068037
544.882548	0.068240
545.097315	0.068576
545.312064	0.069123
545.526795	0.069029
545.741508	0.069192
545.956203	0.069491
546.170879	0.069861
546.385537	0.069925
546.600177	0.069699
546.814799	0.069694
547.029402	0.069524
547.243988	0.069349
547.458555	0.069883
547.673103	0.069642
547.887634	0.069651
548.102146	0.069737
548.316640	0.069707
548.531116	0.070152
548.745574	0.070009
548.960013	0.070210
549.174435	0.070457
549.388838	0.070853
549.603222	0.071060
549.817589	0.070961
550.031937	0.071130
550.246267	0.070792
550.460579	0.070959
550.674873	0.071639
550.889148	0.072034
551.103405	0.071791
551.317644	0.071750
551.531865	0.071770
551.746068	0.071663
551.960252	0.071353
552.174418	0.071849
552.388566	0.072064
552.602696	0.071838
552.816807	0.071428
553.030900	0.071860
553.244975	0.071950
553.459032	0.072198
553.673070	0.072387
553.887091	0.072496
554.101093	0.072764
554.315077	0.072135
554.529042	0.072416
554.742990	0.072427
554.956919	0.072375
555.170830	0.072352
555.384722	0.072218
555.598597	0.072445
555.812453	0.072689
556.026291	0.072649
556.240111	0.073219
556.453913	0.073092
556.667696	0.073274
556.881461	0.073609
557.095208	0.073811
557.308937	0.074054
557.522647	0.074430
557.736339	0.074469
557.950013	0.074509
558.163669	0.074624
558.377307	0.074429
558.590926	0.074324
558.804527	0.074492
559.018110	0.074396
559.231675	0.074673
559.445221	0.074451
559.658749	0.074384
559.872259	0.074401
560.085751	0.074397
560.299225	0.074909
560.512680	0.075377
560.726117	0.075159
560.939536	0.075394
561.152937	0.075414
561.366319	0.075958
561.579683	0.076103
561.793029	0.076302
562.006357	0.076446
562.219667	0.076343
562.432958	0.076502
562.646231	0.076665
562.859486	0.076682
563.072723	0.076723
563.285941	0.076275
563.499141	0.076554
563.712323	0.076623
563.925487	0.076606
564.138632	0.076399
564.351760	0.076340
564.564869	0.076217
564.777960	0.076023
564.991032	0.076040
565.204087	0.076391
565.417123	0.076459
565.630141	0.076412
565.843140	0.076707
566.056122	0.076822
566.269085	0.077178
566.482030	0.077230
566.694957	0.077377
566.907866	0.077221
567.120756	0.077293
567.333628	0.077197
567.546482	0.077085
567.759318	0.077475
567.972135	0.077548
568.184935	0.077224
568.397716	0.077345
568.610478	0.077518
568.823223	0.077767
569.035949	0.077541
569.248657	0.077805
569.461347	0.078010
569.674019	0.077825
569.886672	0.078557
570.099308	0.078682
570.311925	0.078943
570.524523	0.079057
570.737104	0.079472
570.949666	0.079765
571.162210	0.080001
571.374736	0.080095
571.587244	0.079912
571.799733	0.079602
572.012205	0.079713
572.224658	0.079708
572.437092	0.079785
572.649509	0.079298
572.861907	0.079240
573.074287	0.079106
573.286649	0.079217
573.498993	0.079457
573.711318	0.079670
573.923625	0.079776
574.135914	0.079900
574.348185	0.080128
574.560438	0.080494
574.772672	0.080394
574.984888	0.080583
575.197086	0.080822
575.409266	0.081126
575.621427	0.081249
575.833570	0.081123
576.045695	0.081186
576.257802	0.081146
576.469890	0.081092
576.681961	0.081160
576.894013	0.080902
577.106046	0.080745
577.318062	0.080543
577.530059	0.080569
577.742039	0.080638
577.954000	0.080736
578.165942	0.080560
578.377867	0.080993
578.589773	0.081240
578.801661	0.081314
579.013531	0.081553
579.225382	0.081625
579.437216	0.081786
579.649031	0.082090
579.860828	0.082087
580.072606	0.082763
580.284367	0.082888
580.496109	0.083199
580.707833	0.083577
580.919539	0.083645
581.131227	0.083600
581.342896	0.083684
581.554547	0.084064
581.766180	0.084220
581.977795	0.084003
582.189391	0.083916
582.400969	0.083981
582.612529	0.084023
582.824071	0.084160
583.035595	0.084556
583.247100	0.084435
583.458587	0.084227
583.670056	0.084613
583.881506	0.084853
584.092939	0.085048
584.304353	0.084975
584.515749	0.085391
584.727127	0.085538
584.938486	0.085620
585.149828	0.085855
585.361151	0.085724
585.572456	0.085768
585.783742	0.085685
585.995011	0.085477
586.206261	0.085779
586.417493	0.085144
586.628706	0.085239
586.839902	0.085372
587.051079	0.085249
587.262238	0.085715
587.473379	0.085803
587.684502	0.085844
587.895606	0.086135
588.106692	0.085832
588.317760	0.086479
588.528810	0.086393
588.739841	0.086346
588.950855	0.086624
589.161850	0.086484
589.372827	0.086722
589.583785	0.086978
589.794726	0.087055
590.005648	0.087576
590.216552	0.087594
590.427437	0.087760
590.638305	0.088146
590.849154	0.088193
591.059985	0.088541
591.270798	0.088336
591.481592	0.088331
591.692369	0.088577
591.903127	0.088539
592.113867	0.088682
592.324588	0.089059
592.535292	0.088923
592.745977	0.088916
592.956644	0.088873
593.167293	0.088588
593.377923	0.088596
593.588536	0.088515
593.799130	0.088605
594.009706	0.088615
594.220263	0.088629
594.430803	0.089001
594.641324	0.089359
594.851827	0.089603
595.062312	0.089988
595.272778	0.090435
595.483227	0.090767
595.693657	0.090921
595.904069	0.091085
596.114462	0.090983
596.324838	0.090654
596.535195	0.090677
596.745534	0.090591
596.955855	0.090856
597.166157	0.090939
597.376441	0.091005
597.586707	0.090878
597.796955	0.091046
598.007185	0.091180
598.217396	0.091478
598.427589	0.091826
598.637764	0.091713
598.847921	0.091555
599.058060	0.091833
599.268180	0.091697
599.478282	0.092030
599.688366	0.091999
599.898431	0.092259
600.108479	0.092522
600.318508	0.092485
600.528519	0.092825
600.738511	0.093116
600.948486	0.092780
601.158442	0.092929
601.368380	0.092963
601.578300	0.092901
601.788202	0.092645
601.998085	0.092658
602.207950	0.092749
602.417797	0.092963
602.627626	0.093136
602.837436	0.093354
603.047228	0.093525
603.257002	0.093471
603.466758	0.093774
603.676496	0.094105
603.886215	0.094169
604.095916	0.094318
604.305599	0.094006
604.515264	0.094073
604.724910	0.094119
604.934538	0.094425
605.144148	0.094674
605.353740	0.094753
605.563314	0.094653
605.772869	0.094687
605.982406	0.094541
606.191925	0.095010
606.401425	0.094964
606.610908	0.094892
606.820372	0.094895
607.029818	0.094949
607.239246	0.095201
607.448655	0.095452
607.658047	0.095676
607.867420	0.095741
608.076775	0.095662
608.286111	0.095935
608.495430	0.096371
608.704730	0.096164
608.914012	0.096230
609.123275	0.096102
609.332521	0.096095
609.541748	0.095963
609.750957	0.096031
609.960148	0.095957
610.169321	0.095974
610.378475	0.095926
610.587611	0.096174
610.796729	0.096396
611.005829	0.096510
611.214910	0.096473
611.423974	0.096590
611.633019	0.096899
611.842045	0.097155
612.051054	0.097484
612.260044	0.097495
612.469017	0.097416
612.677970	0.097704
612.886906	0.097812
613.095824	0.098045
613.304723	0.098211
613.513604	0.098187
613.722467	0.098390
613.931311	0.098323
614.140138	0.098483
614.348946	0.098618
614.557736	0.098239
614.766507	0.098212
614.975261	0.098309
615.183996	0.098118
615.392713	0.098165
615.601412	0.098281
615.810092	0.098308
616.018754	0.098447
616.227399	0.098582
616.436024	0.098904
616.644632	0.098873
616.853222	0.098933
617.061793	0.099156
617.270346	0.099030
617.478880	0.099070
617.687397	0.099192
617.895895	0.099324
618.104375	0.099427
618.312837	0.099482
618.521281	0.099832
618.729706	0.099977
618.938113	0.100324
619.146502	0.100505
619.354873	0.100513
619.563226	0.100594
619.771560	0.100495
619.979876	0.100564
620.188174	0.100687
620.396453	0.100616
620.604715	0.100601
620.812958	0.100386
621.021183	0.100736
621.229390	0.101070
621.437578	0.100997
621.645748	0.100961
621.853900	0.101077
622.062034	0.101109
622.270150	0.101247
622.478247	0.101531
622.686326	0.101641
622.894387	0.101788
623.102430	0.101663
623.310454	0.101659
623.518461	0.101833
623.726449	0.101700
623.934418	0.101756
624.142370	0.101692
624.350303	0.101588
624.558218	0.101959
624.766115	0.101677
624.973994	0.101755
625.181855	0.101817
625.389697	0.102039
625.597521	0.102319
625.805327	0.102354
626.013114	0.102751
626.220883	0.102920
626.428634	0.102804
626.636367	0.103033
626.844082	0.102983
627.051778	0.103400
627.259457	0.103377
627.467117	0.103483
627.674758	0.103665
627.882382	0.103491
628.089987	0.103597
628.297574	0.103662
628.505143	0.103719
628.712694	0.103683
628.920226	0.103606
629.127740	0.103861
629.335236	0.103878
629.542714	0.103967
629.750174	0.104165
629.957615	0.104220
630.165038	0.104304
630.372443	0.104335
630.579829	0.104663
630.787198	0.104697
630.994548	0.104496
631.201880	0.104929
631.409194	0.105280
631.616489	0.105418
631.823766	0.105876
632.031025	0.105803
632.238266	0.106047
632.445489	0.106181
632.652693	0.106416
632.859879	0.106431
633.067047	0.106358
633.274197	0.106218
633.481329	0.106214
633.688442	0.105956
633.895537	0.106302
634.102614	0.106082
634.309672	0.106050
634.516713	0.106023
634.723735	0.106307
634.930739	0.106105
635.137724	0.106239
635.344692	0.106523
635.551641	0.106675
635.758572	0.106711
635.965485	0.107081
636.172379	0.107151
636.379256	0.107208
636.586114	0.107231
636.792954	0.107553
636.999775	0.107528
637.206579	0.107229
637.413364	0.107398
637.620131	0.107337
637.826880	0.107152
638.033610	0.107476
638.240323	0.107605
638.447017	0.107726
638.653692	0.107813
638.860350	0.107895
639.066990	0.108104
639.273611	0.107849
639.480214	0.108030
639.686798	0.108306
639.893365	0.108363
640.099913	0.108563
640.306443	0.108676
640.512955	0.108679
640.719449	0.108828
640.925924	0.109077
641.132381	0.109410
641.338820	0.109488
641.545241	0.109680
641.751644	0.109456
641.958028	0.109424
642.164394	0.109552
642.370742	0.109638
642.577071	0.109666
642.783383	0.109548
642.989676	0.109669
643.195951	0.109877
643.402207	0.109915
643.608446	0.110215
643.814666	0.110183
644.020868	0.110071
644.227052	0.110276
644.433218	0.110338
644.639365	0.110430
644.845494	0.110415
645.051605	0.110445
645.257698	0.110460
645.463772	0.110434
645.669828	0.110661
645.875866	0.110909
646.081886	0.110893
646.287888	0.110759
646.493871	0.110628
646.699836	0.110626
646.905783	0.110742
647.111712	0.110769
647.317622	0.110949
647.523514	0.111140
647.729388	0.111114
647.935244	0.111118
648.141082	0.111339
648.346901	0.111607
648.552702	0.111702
648.758485	0.111915
648.964250	0.112139
649.169996	0.112030
649.375724	0.111997
649.581434	0.112243
649.787126	0.112295
649.992800	0.112532
650.198455	0.112812
650.404092	0.112943
650.609711	0.112921
650.815311	0.112868
651.020894	0.113122
651.226458	0.113074
651.432004	0.113149
651.637532	0.113155
651.843041	0.113157
652.048532	0.113212
652.254006	0.113325
652.459460	0.113127
652.664897	0.113212
652.870315	0.113218
653.075716	0.113261
653.281097	0.113361
653.486461	0.113697
653.691807	0.113932
653.897134	0.113879
654.102443	0.113954
654.307734	0.114364
654.513006	0.114503
654.718261	0.114749
654.923497	0.115104
655.128715	0.115112
655.333915	0.115101
655.539096	0.115145
655.744259	0.115446
655.949404	0.115679
656.154531	0.115670
656.359640	0.115678
656.564730	0.115810
656.769802	0.115792
656.974856	0.115970
657.179892	0.116113
657.384909	0.116124
657.589908	0.116158
657.794889	0.116132
657.999852	0.116285
658.204797	0.116724
658.409723	0.116639
658.614631	0.116986
658.819521	0.117040
659.024393	0.117123
659.229246	0.117190
659.434081	0.117431
659.638898	0.117742
659.843697	0.117778
660.048478	0.117767
660.253240	0.117972
660.457984	0.117855
660.662710	0.118119
660.867417	0.118335
661.072107	0.118502
661.276778	0.118515
661.481431	0.118282
661.686066	0.118266
661.890682	0.118376
662.095281	0.118603
662.299861	0.118515
662.504422	0.118499
662.708966	0.118450
662.913491	0.118616
663.117999	0.118560
663.322488	0.118795
663.526958	0.119060
663.731411	0.119043
663.935845	0.119007
664.140261	0.119186
664.344659	0.119272
664.549038	0.119309
664.753400	0.119327
664.957743	0.119440
665.162068	0.119511
665.366375	0.119572
665.570663	0.119637
665.774933	0.119717
665.979185	0.119874
666.183419	0.119850
666.387635	0.119898
666.591832	0.119933
666.796011	0.120278
667.000172	0.120315
667.204315	0.120397
667.408439	0.120712
667.612545	0.120869
667.816634	0.121061
668.020703	0.121216
668.224755	0.121385
668.428788	0.121669
668.632803	0.121611
668.836800	0.121839
669.040779	0.121861
669.244739	0.121865
669.448681	0.121976
669.652605	0.121747
669.856511	0.121784
670.060399	0.122003
670.264268	0.121990
670.468119	0.122084
670.671952	0.122181
670.875767	0.122327
671.079563	0.122392
671.283341	0.122350
671.487101	0.122712
671.690843	0.122877
671.894567	0.122842
672.098272	0.122981
672.301959	0.122906
672.505628	0.122932
672.709278	0.123185
672.912911	0.123186
673.116525	0.123405
673.320121	0.123407
673.523699	0.123775
673.727258	0.124033
673.930799	0.124161
674.134322	0.124448
674.337827	0.124478
674.541314	0.124470
674.744782	0.124676
674.948232	0.124679
675.151664	0.124802
675.355078	0.124916
675.558474	0.124848
675.761851	0.124824
675.965210	0.124873
676.168551	0.125075
676.371873	0.125177
676.575178	0.125270
676.778464	0.125386
676.981732	0.125409
677.184981	0.125249
677.388213	0.125544
677.591426	0.125598
677.794621	0.125728
677.997798	0.125976
678.200956	0.125976
678.404097	0.125867
678.607219	0.126130
678.810323	0.126361
679.013408	0.126340
679.216476	0.126331
679.419525	0.126533
679.622556	0.126572
679.825569	0.126587
680.028563	0.126673
680.231540	0.127033
680.434498	0.127101
680.637438	0.127186
680.840359	0.127495
681.043263	0.127532
681.246148	0.127657
681.449015	0.127757
681.651864	0.127689
681.854694	0.127881
682.057506	0.127982
682.260301	0.128106
682.463076	0.128445
682.665834	0.128497
682.868573	0.128809
683.071295	0.128847
683.273998	0.128957
683.476682	0.129301
683.679349	0.129346
683.881997	0.129468
684.084627	0.129657
684.287239	0.129674
684.489833	0.129715
684.692408	0.129779
684.894965	0.129977
685.097504	0.130174
685.300025	0.130201
685.502527	0.130307
685.705012	0.130316
685.907478	0.130266
686.109925	0.130361
686.312355	0.130388
686.514766	0.130494
686.717159	0.130559
686.919534	0.130681
687.121891	0.130825
687.324230	0.131256
687.526550	0.131367
687.728852	0.131508
687.931136	0.131602
688.133401	0.131868
688.335649	0.131898
688.537878	0.131835
688.740089	0.131763
688.942281	0.131790
689.144456	0.131520
689.346612	0.131577
689.548750	0.131708
689.750870	0.131960
689.952971	0.131922
690.155055	0.132013
690.357120	0.132201
690.559167	0.132505
690.761195	0.132590
690.963206	0.132898
691.165198	0.133008
691.367172	0.133054
691.569128	0.132796
691.771065	0.133032
691.972984	0.133145
692.174885	0.133141
692.376768	0.133123
692.578633	0.133264
692.780479	0.133230
692.982308	0.133293
693.184118	0.133245
693.385909	0.133508
