sample name	sample
index	1469
start time	 05-10-2021  02:17:09 PM


Wavelength (nm)	Absorbance
494.344910	-0.037312
494.563924	-0.037312
494.782919	-0.037312
495.001897	-0.010811
495.220856	-0.035500
495.439797	-0.028121
495.658719	-0.022906
495.877624	-0.018854
496.096510	-0.016075
496.315378	-0.000273
496.534227	0.008887
496.753059	0.010347
496.971872	0.010358
497.190667	0.070252
497.409444	0.096189
497.628203	0.106992
497.846943	0.113448
498.065665	0.120062
498.284369	0.122710
498.503055	0.124028
498.721723	0.127351
498.940372	0.128696
499.159003	0.129591
499.377616	0.130799
499.596210	0.132075
499.814787	0.132212
500.033345	0.131536
500.251885	0.131627
500.470406	0.131937
500.688910	0.131031
500.907395	0.131950
501.125862	0.131917
501.344311	0.130814
501.562742	0.131252
501.781154	0.132503
501.999548	0.132966
502.217924	0.133607
502.436282	0.133941
502.654621	0.134610
502.872942	0.134742
503.091245	0.134680
503.309530	0.134911
503.527797	0.135275
503.746045	0.135338
503.964275	0.134854
504.182487	0.134395
504.400681	0.134674
504.618856	0.134444
504.837013	0.133596
505.055152	0.133221
505.273273	0.134401
505.491376	0.133219
505.709460	0.132732
505.927526	0.133477
506.145574	0.133709
506.363604	0.133461
506.581615	0.133193
506.799608	0.133021
507.017583	0.132939
507.235540	0.132099
507.453478	0.132376
507.671399	0.132888
507.889301	0.132063
508.107185	0.131695
508.325050	0.131610
508.542898	0.132241
508.760727	0.132870
508.978538	0.133223
509.196330	0.134137
509.414105	0.135511
509.631861	0.135193
509.849599	0.135362
510.067319	0.136716
510.285021	0.136861
510.502704	0.137509
510.720369	0.138286
510.938016	0.138055
511.155645	0.137125
511.373255	0.136464
511.590848	0.136245
511.808422	0.136707
512.025977	0.135259
512.243515	0.135966
512.461034	0.134934
512.678536	0.133955
512.896018	0.134250
513.113483	0.134908
513.330930	0.135200
513.548358	0.136190
513.765768	0.136111
513.983160	0.136780
514.200533	0.137567
514.417889	0.137822
514.635226	0.138167
514.852545	0.138534
515.069845	0.139336
515.287128	0.139020
515.504392	0.139314
515.721638	0.139751
515.938866	0.139579
516.156075	0.139393
516.373267	0.139300
516.590440	0.139936
516.807594	0.140030
517.024731	0.139955
517.241850	0.140095
517.458950	0.139863
517.676032	0.139803
517.893095	0.140907
518.110141	0.140543
518.327168	0.141586
518.544177	0.141975
518.761168	0.143047
518.978141	0.143023
519.195095	0.143191
519.412031	0.143385
519.628949	0.143599
519.845849	0.143549
520.062731	0.144353
520.279594	0.145035
520.496439	0.145090
520.713266	0.144933
520.930074	0.145189
521.146865	0.145045
521.363637	0.145312
521.580391	0.146446
521.797127	0.146242
522.013844	0.146464
522.230543	0.146065
522.447224	0.146411
522.663887	0.146119
522.880532	0.146660
523.097158	0.147351
523.313766	0.147685
523.530356	0.147138
523.746928	0.148590
523.963481	0.148530
524.180017	0.148177
524.396534	0.148747
524.613032	0.149295
524.829513	0.148784
525.045975	0.148973
525.262420	0.148611
525.478845	0.149173
525.695253	0.148394
525.911643	0.147941
526.128014	0.149077
526.344367	0.148838
526.560702	0.148639
526.777018	0.150063
526.993316	0.150620
527.209597	0.151140
527.425858	0.151008
527.642102	0.151061
527.858328	0.152099
528.074535	0.151979
528.290724	0.152291
528.506894	0.153139
528.723047	0.152054
528.939181	0.151894
529.155297	0.152517
529.371395	0.152649
529.587475	0.152779
529.803536	0.152548
530.019579	0.152709
530.235604	0.153040
530.451611	0.152693
530.667600	0.153339
530.883570	0.153728
531.099522	0.153600
531.315456	0.154060
531.531372	0.154213
531.747269	0.155085
531.963148	0.154851
532.179009	0.154593
532.394852	0.154915
532.610676	0.154813
532.826482	0.155235
533.042271	0.155260
533.258040	0.155130
533.473792	0.155586
533.689525	0.155584
533.905240	0.156448
534.120937	0.156955
534.336616	0.157632
534.552277	0.159037
534.767919	0.159212
534.983543	0.159651
535.199149	0.160372
535.414736	0.160559
535.630306	0.160659
535.845857	0.161194
536.061390	0.161218
536.276904	0.161474
536.492401	0.160331
536.707879	0.160790
536.923339	0.161028
537.138781	0.161114
537.354204	0.161782
537.569610	0.162053
537.784997	0.161760
538.000366	0.162388
538.215716	0.162437
538.431049	0.163355
538.646363	0.163462
538.861659	0.163691
539.076937	0.163513
539.292196	0.163812
539.507438	0.163861
539.722661	0.164061
539.937866	0.163944
540.153052	0.163982
540.368221	0.163824
540.583371	0.163763
540.798503	0.163453
541.013617	0.163677
541.228712	0.164088
541.443789	0.164063
541.658848	0.163996
541.873889	0.164135
542.088912	0.164613
542.303916	0.165279
542.518902	0.165539
542.733870	0.166441
542.948820	0.167065
543.163752	0.166580
543.378665	0.167520
543.593560	0.167926
543.808437	0.168649
544.023295	0.168913
544.238136	0.169053
544.452958	0.168970
544.667762	0.168677
544.882548	0.168272
545.097315	0.168700
545.312064	0.168190
545.526795	0.168677
545.741508	0.168621
545.956203	0.168254
546.170879	0.168065
546.385537	0.168664
546.600177	0.168963
546.814799	0.169252
547.029402	0.168861
547.243988	0.169300
547.458555	0.169512
547.673103	0.169576
547.887634	0.169943
548.102146	0.170067
548.316640	0.169835
548.531116	0.170129
548.745574	0.170377
548.960013	0.170839
549.174435	0.171077
549.388838	0.171071
549.603222	0.171151
549.817589	0.171438
550.031937	0.171713
550.246267	0.172342
550.460579	0.172123
550.674873	0.172334
550.889148	0.172635
551.103405	0.172470
551.317644	0.172671
551.531865	0.172851
551.746068	0.172831
551.960252	0.172997
552.174418	0.172927
552.388566	0.173384
552.602696	0.173754
552.816807	0.173799
553.030900	0.173751
553.244975	0.174059
553.459032	0.174407
553.673070	0.174526
553.887091	0.174900
554.101093	0.174815
554.315077	0.175122
554.529042	0.175457
554.742990	0.175774
554.956919	0.176294
555.170830	0.175804
555.384722	0.176288
555.598597	0.176689
555.812453	0.176391
556.026291	0.176649
556.240111	0.177078
556.453913	0.177426
556.667696	0.177200
556.881461	0.177262
557.095208	0.177505
557.308937	0.176837
557.522647	0.176757
557.736339	0.177275
557.950013	0.177622
558.163669	0.177241
558.377307	0.176843
558.590926	0.177143
558.804527	0.177399
559.018110	0.177115
559.231675	0.177250
559.445221	0.177078
559.658749	0.177099
559.872259	0.177179
560.085751	0.177482
560.299225	0.177373
560.512680	0.177330
560.726117	0.176995
560.939536	0.177467
561.152937	0.177735
561.366319	0.178108
561.579683	0.177953
561.793029	0.177765
562.006357	0.177927
562.219667	0.178438
562.432958	0.178597
562.646231	0.179203
562.859486	0.179520
563.072723	0.179884
563.285941	0.179994
563.499141	0.180437
563.712323	0.180743
563.925487	0.181108
564.138632	0.181160
564.351760	0.181471
564.564869	0.181476
564.777960	0.181650
564.991032	0.181748
565.204087	0.181821
565.417123	0.181714
565.630141	0.181659
565.843140	0.181449
566.056122	0.181539
566.269085	0.181787
566.482030	0.181978
566.694957	0.181959
566.907866	0.181701
567.120756	0.181609
567.333628	0.181827
567.546482	0.182110
567.759318	0.181939
567.972135	0.182010
568.184935	0.181754
568.397716	0.181644
568.610478	0.181706
568.823223	0.181626
569.035949	0.182337
569.248657	0.182259
569.461347	0.182412
569.674019	0.182400
569.886672	0.182428
570.099308	0.182795
570.311925	0.182965
570.524523	0.183150
570.737104	0.183398
570.949666	0.183323
571.162210	0.183659
571.374736	0.183489
571.587244	0.183521
571.799733	0.183408
572.012205	0.183064
572.224658	0.183033
572.437092	0.182824
572.649509	0.183128
572.861907	0.183033
573.074287	0.183350
573.286649	0.183941
573.498993	0.184525
573.711318	0.184803
573.923625	0.185368
574.135914	0.185668
574.348185	0.186152
574.560438	0.186255
574.772672	0.186523
574.984888	0.186581
575.197086	0.186825
575.409266	0.187067
575.621427	0.187467
575.833570	0.187130
576.045695	0.187246
576.257802	0.187695
576.469890	0.187831
576.681961	0.187991
576.894013	0.188014
577.106046	0.188213
577.318062	0.188056
577.530059	0.188262
577.742039	0.188787
577.954000	0.189223
578.165942	0.188949
578.377867	0.188776
578.589773	0.188626
578.801661	0.188553
579.013531	0.187943
579.225382	0.188161
579.437216	0.188299
579.649031	0.188636
579.860828	0.188573
580.072606	0.189023
580.284367	0.189680
580.496109	0.190151
580.707833	0.190284
580.919539	0.190358
581.131227	0.190548
581.342896	0.190301
581.554547	0.190289
581.766180	0.190485
581.977795	0.190164
582.189391	0.190387
582.400969	0.190398
582.612529	0.190688
582.824071	0.190933
583.035595	0.191041
583.247100	0.191323
583.458587	0.191451
583.670056	0.191478
583.881506	0.191896
584.092939	0.191992
584.304353	0.192428
584.515749	0.192405
584.727127	0.192327
584.938486	0.192494
585.149828	0.192983
585.361151	0.193313
585.572456	0.193800
585.783742	0.194346
585.995011	0.194149
586.206261	0.194089
586.417493	0.194654
586.628706	0.195565
586.839902	0.195865
587.051079	0.195871
587.262238	0.196153
587.473379	0.195886
587.684502	0.195648
587.895606	0.196739
588.106692	0.197264
588.317760	0.197590
588.528810	0.197899
588.739841	0.197682
588.950855	0.198041
589.161850	0.198098
589.372827	0.198368
589.583785	0.198448
589.794726	0.198000
590.005648	0.197755
590.216552	0.198114
590.427437	0.197960
590.638305	0.198035
590.849154	0.197591
591.059985	0.197691
591.270798	0.197505
591.481592	0.197782
591.692369	0.197442
591.903127	0.197613
592.113867	0.197074
592.324588	0.196719
592.535292	0.197200
592.745977	0.197377
592.956644	0.197354
593.167293	0.197392
593.377923	0.197487
593.588536	0.197812
593.799130	0.197958
594.009706	0.198269
594.220263	0.198581
594.430803	0.198492
594.641324	0.198626
594.851827	0.198905
595.062312	0.199327
595.272778	0.199100
595.483227	0.199160
595.693657	0.199107
595.904069	0.199169
596.114462	0.199105
596.324838	0.199021
596.535195	0.199519
596.745534	0.199386
596.955855	0.199511
597.166157	0.199568
597.376441	0.199575
597.586707	0.199523
597.796955	0.199498
598.007185	0.199811
598.217396	0.200569
598.427589	0.200531
598.637764	0.200440
598.847921	0.200354
599.058060	0.200584
599.268180	0.200729
599.478282	0.201252
599.688366	0.201408
599.898431	0.201609
600.108479	0.201238
600.318508	0.201204
600.528519	0.201385
600.738511	0.201510
600.948486	0.201805
601.158442	0.202165
601.368380	0.201875
601.578300	0.202107
601.788202	0.202196
601.998085	0.202573
602.207950	0.202698
602.417797	0.202868
602.627626	0.203005
602.837436	0.203098
603.047228	0.203217
603.257002	0.203484
603.466758	0.203436
603.676496	0.203593
603.886215	0.203321
604.095916	0.203094
604.305599	0.203266
604.515264	0.203767
604.724910	0.204133
604.934538	0.203950
605.144148	0.204073
605.353740	0.204011
605.563314	0.204056
605.772869	0.204206
605.982406	0.204603
606.191925	0.204635
606.401425	0.204399
606.610908	0.204129
606.820372	0.204443
607.029818	0.204545
607.239246	0.204951
607.448655	0.204921
607.658047	0.205319
607.867420	0.205349
608.076775	0.205823
608.286111	0.205909
608.495430	0.206312
608.704730	0.206493
608.914012	0.206618
609.123275	0.206681
609.332521	0.206751
609.541748	0.206722
609.750957	0.206928
609.960148	0.206755
610.169321	0.206948
610.378475	0.206983
610.587611	0.207237
610.796729	0.207498
611.005829	0.207432
611.214910	0.207628
611.423974	0.207956
611.633019	0.207940
611.842045	0.208153
612.051054	0.207898
612.260044	0.207888
612.469017	0.207766
612.677970	0.207750
612.886906	0.208026
613.095824	0.208269
613.304723	0.207869
613.513604	0.207892
613.722467	0.208040
613.931311	0.208628
614.140138	0.208729
614.348946	0.208873
614.557736	0.209023
614.766507	0.208990
614.975261	0.209258
615.183996	0.209493
615.392713	0.209764
615.601412	0.210017
615.810092	0.210003
616.018754	0.210243
616.227399	0.210412
616.436024	0.210645
616.644632	0.211027
616.853222	0.211161
617.061793	0.211637
617.270346	0.211870
617.478880	0.211919
617.687397	0.212021
617.895895	0.211968
618.104375	0.212064
618.312837	0.211904
618.521281	0.211899
618.729706	0.211935
618.938113	0.211890
619.146502	0.211879
619.354873	0.211762
619.563226	0.211868
619.771560	0.212186
619.979876	0.211946
620.188174	0.212058
620.396453	0.212144
620.604715	0.212250
620.812958	0.212465
621.021183	0.212444
621.229390	0.212782
621.437578	0.212921
621.645748	0.213004
621.853900	0.213082
622.062034	0.213159
622.270150	0.213177
622.478247	0.213447
622.686326	0.213381
622.894387	0.213862
623.102430	0.213935
623.310454	0.214193
623.518461	0.214537
623.726449	0.215196
623.934418	0.215520
624.142370	0.215727
624.350303	0.215679
624.558218	0.216018
624.766115	0.216030
624.973994	0.216078
625.181855	0.216160
625.389697	0.215954
625.597521	0.215893
625.805327	0.215627
626.013114	0.215597
626.220883	0.215361
626.428634	0.215041
626.636367	0.214915
626.844082	0.214857
627.051778	0.214750
627.259457	0.214786
627.467117	0.214625
627.674758	0.214946
627.882382	0.215146
628.089987	0.215571
628.297574	0.215996
628.505143	0.216408
628.712694	0.216587
628.920226	0.216753
629.127740	0.216933
629.335236	0.217340
629.542714	0.217540
629.750174	0.217696
629.957615	0.217683
630.165038	0.217800
630.372443	0.217669
630.579829	0.217667
630.787198	0.217797
630.994548	0.217608
631.201880	0.217535
631.409194	0.217512
631.616489	0.217370
631.823766	0.217369
632.031025	0.217252
632.238266	0.217277
632.445489	0.217323
632.652693	0.217580
632.859879	0.217966
633.067047	0.218069
633.274197	0.218315
633.481329	0.218398
633.688442	0.218738
633.895537	0.218809
634.102614	0.218913
634.309672	0.218898
634.516713	0.218759
634.723735	0.218657
634.930739	0.218887
635.137724	0.218926
635.344692	0.219135
635.551641	0.219067
635.758572	0.219295
635.965485	0.219446
636.172379	0.219709
636.379256	0.220134
636.586114	0.220460
636.792954	0.220613
636.999775	0.220672
637.206579	0.220976
637.413364	0.221180
637.620131	0.221222
637.826880	0.221346
638.033610	0.221605
638.240323	0.221407
638.447017	0.221851
638.653692	0.222076
638.860350	0.222203
639.066990	0.222491
639.273611	0.222856
639.480214	0.223259
639.686798	0.223653
639.893365	0.223843
640.099913	0.224091
640.306443	0.223920
640.512955	0.223861
640.719449	0.224118
640.925924	0.224030
641.132381	0.223816
641.338820	0.223806
641.545241	0.223727
641.751644	0.223874
641.958028	0.224078
642.164394	0.224080
642.370742	0.224245
642.577071	0.224222
642.783383	0.224263
642.989676	0.224637
643.195951	0.224749
643.402207	0.224702
643.608446	0.224642
643.814666	0.224845
644.020868	0.225050
644.227052	0.225233
644.433218	0.225673
644.639365	0.225739
644.845494	0.225871
645.051605	0.225975
645.257698	0.226209
645.463772	0.226421
645.669828	0.226463
645.875866	0.226682
646.081886	0.226681
646.287888	0.226754
646.493871	0.227062
646.699836	0.226872
646.905783	0.226881
647.111712	0.227018
647.317622	0.227058
647.523514	0.227062
647.729388	0.226835
647.935244	0.226836
648.141082	0.226774
648.346901	0.226806
648.552702	0.227057
648.758485	0.227337
648.964250	0.227488
649.169996	0.227610
649.375724	0.227823
649.581434	0.227907
649.787126	0.228218
649.992800	0.228261
650.198455	0.228365
650.404092	0.228505
650.609711	0.228462
650.815311	0.228576
651.020894	0.228633
651.226458	0.228592
651.432004	0.228831
651.637532	0.228910
651.843041	0.228974
652.048532	0.228948
652.254006	0.228791
652.459460	0.228969
652.664897	0.229136
652.870315	0.229355
653.075716	0.229723
653.281097	0.230078
653.486461	0.230272
653.691807	0.230615
653.897134	0.230580
654.102443	0.231257
654.307734	0.231755
654.513006	0.232204
654.718261	0.232429
654.923497	0.232644
655.128715	0.232908
655.333915	0.233125
655.539096	0.233333
655.744259	0.233825
655.949404	0.233894
656.154531	0.233732
656.359640	0.233496
656.564730	0.233443
656.769802	0.233355
656.974856	0.233278
657.179892	0.233236
657.384909	0.233380
657.589908	0.233472
657.794889	0.233263
657.999852	0.233465
658.204797	0.233705
658.409723	0.233988
658.614631	0.234272
658.819521	0.234506
659.024393	0.234476
659.229246	0.234465
659.434081	0.234662
659.638898	0.234865
659.843697	0.234761
660.048478	0.234845
660.253240	0.235073
660.457984	0.234928
660.662710	0.234915
660.867417	0.235282
661.072107	0.235398
661.276778	0.235445
661.481431	0.235624
661.686066	0.235857
661.890682	0.236074
662.095281	0.236310
662.299861	0.236241
662.504422	0.236478
662.708966	0.236659
662.913491	0.236903
663.117999	0.237163
663.322488	0.237286
663.526958	0.237384
663.731411	0.237532
663.935845	0.237547
664.140261	0.237945
664.344659	0.237833
664.549038	0.237794
664.753400	0.237801
664.957743	0.237935
665.162068	0.238141
665.366375	0.238444
665.570663	0.238497
665.774933	0.238688
665.979185	0.238923
666.183419	0.239097
666.387635	0.239479
666.591832	0.239628
666.796011	0.239809
667.000172	0.240030
667.204315	0.240129
667.408439	0.240026
667.612545	0.239867
667.816634	0.239842
668.020703	0.239943
668.224755	0.239600
668.428788	0.239668
668.632803	0.239624
668.836800	0.239311
669.040779	0.239268
669.244739	0.239472
669.448681	0.239778
669.652605	0.239730
669.856511	0.239986
670.060399	0.240389
670.264268	0.240539
670.468119	0.240793
670.671952	0.241333
670.875767	0.241479
671.079563	0.241733
671.283341	0.241775
671.487101	0.242170
671.690843	0.242654
671.894567	0.242810
672.098272	0.242975
672.301959	0.243074
672.505628	0.243033
672.709278	0.243291
672.912911	0.243384
673.116525	0.243621
673.320121	0.243853
673.523699	0.243675
673.727258	0.243935
673.930799	0.244120
674.134322	0.244016
674.337827	0.244281
674.541314	0.244542
674.744782	0.244877
674.948232	0.244973
675.151664	0.244958
675.355078	0.245193
675.558474	0.245270
675.761851	0.245435
675.965210	0.245858
676.168551	0.246004
676.371873	0.246021
676.575178	0.245988
676.778464	0.246132
676.981732	0.246475
677.184981	0.246378
677.388213	0.246737
677.591426	0.246965
677.794621	0.247107
677.997798	0.247300
678.200956	0.247523
678.404097	0.247602
678.607219	0.247831
678.810323	0.247861
679.013408	0.248441
679.216476	0.248371
679.419525	0.248414
679.622556	0.248663
679.825569	0.248816
680.028563	0.248975
680.231540	0.249167
680.434498	0.249304
680.637438	0.249386
680.840359	0.249438
681.043263	0.249499
681.246148	0.249598
681.449015	0.249594
681.651864	0.249693
681.854694	0.249744
682.057506	0.249950
682.260301	0.250181
682.463076	0.250433
682.665834	0.250265
682.868573	0.250304
683.071295	0.250537
683.273998	0.250712
683.476682	0.250754
683.679349	0.250686
683.881997	0.250959
684.084627	0.251095
684.287239	0.251314
684.489833	0.251795
684.692408	0.252066
684.894965	0.252136
685.097504	0.252335
685.300025	0.252590
685.502527	0.252846
685.705012	0.253010
685.907478	0.252968
686.109925	0.253152
686.312355	0.253028
686.514766	0.253176
686.717159	0.253153
686.919534	0.253215
687.121891	0.253135
687.324230	0.253506
687.526550	0.253410
687.728852	0.253507
687.931136	0.253448
688.133401	0.253726
688.335649	0.253825
688.537878	0.254052
688.740089	0.254069
688.942281	0.254318
689.144456	0.254258
689.346612	0.254457
689.548750	0.254555
689.750870	0.254737
689.952971	0.254814
690.155055	0.254889
690.357120	0.255057
690.559167	0.255305
690.761195	0.255318
690.963206	0.255236
691.165198	0.255348
691.367172	0.255441
691.569128	0.255605
691.771065	0.255762
691.972984	0.255971
692.174885	0.256258
692.376768	0.256199
692.578633	0.256461
692.780479	0.256761
692.982308	0.256830
693.184118	0.257167
693.385909	0.257106
