sample name	sample
index	844
start time	 04-05-2021  11:08:47 AM


Wavelength (nm)	Absorbance
494.344910	0.024754
494.563924	0.024754
494.782919	0.024754
495.001897	-0.029228
495.220856	-0.013829
495.439797	-0.021609
495.658719	-0.025699
495.877624	-0.038005
496.096510	-0.033802
496.315378	-0.031842
496.534227	-0.033847
496.753059	-0.021071
496.971872	-0.027425
497.190667	0.063814
497.409444	0.100186
497.628203	0.111702
497.846943	0.119944
498.065665	0.122972
498.284369	0.124874
498.503055	0.127706
498.721723	0.128849
498.940372	0.129385
499.159003	0.129544
499.377616	0.130520
499.596210	0.129907
499.814787	0.129639
500.033345	0.129956
500.251885	0.130478
500.470406	0.130618
500.688910	0.130425
500.907395	0.130062
501.125862	0.129874
501.344311	0.130089
501.562742	0.130840
501.781154	0.130975
501.999548	0.130584
502.217924	0.130707
502.436282	0.131501
502.654621	0.132092
502.872942	0.133587
503.091245	0.133993
503.309530	0.133634
503.527797	0.134464
503.746045	0.134735
503.964275	0.135042
504.182487	0.135533
504.400681	0.134052
504.618856	0.133987
504.837013	0.133589
505.055152	0.133574
505.273273	0.133448
505.491376	0.133311
505.709460	0.132647
505.927526	0.133092
506.145574	0.131631
506.363604	0.132969
506.581615	0.133723
506.799608	0.134386
507.017583	0.134766
507.235540	0.134217
507.453478	0.133698
507.671399	0.134648
507.889301	0.135530
508.107185	0.136486
508.325050	0.134751
508.542898	0.134320
508.760727	0.135076
508.978538	0.135025
509.196330	0.136195
509.414105	0.137162
509.631861	0.138391
509.849599	0.138883
510.067319	0.139880
510.285021	0.140695
510.502704	0.141694
510.720369	0.140163
510.938016	0.140040
511.155645	0.139349
511.373255	0.139566
511.590848	0.139235
511.808422	0.137501
512.025977	0.137515
512.243515	0.137854
512.461034	0.138033
512.678536	0.139330
512.896018	0.140370
513.113483	0.141433
513.330930	0.141431
513.548358	0.140997
513.765768	0.141951
513.983160	0.142189
514.200533	0.142501
514.417889	0.142832
514.635226	0.142853
514.852545	0.142410
515.069845	0.141676
515.287128	0.141566
515.504392	0.141023
515.721638	0.140437
515.938866	0.141437
516.156075	0.142091
516.373267	0.141077
516.590440	0.142021
516.807594	0.142889
517.024731	0.143771
517.241850	0.143431
517.458950	0.145105
517.676032	0.146201
517.893095	0.145114
518.110141	0.144945
518.327168	0.145711
518.544177	0.144932
518.761168	0.144255
518.978141	0.144421
519.195095	0.145602
519.412031	0.144961
519.628949	0.145308
519.845849	0.145358
520.062731	0.146235
520.279594	0.146121
520.496439	0.146554
520.713266	0.147540
520.930074	0.147925
521.146865	0.148146
521.363637	0.148852
521.580391	0.148958
521.797127	0.149664
522.013844	0.149645
522.230543	0.150042
522.447224	0.149976
522.663887	0.150137
522.880532	0.149945
523.097158	0.150433
523.313766	0.150694
523.530356	0.151353
523.746928	0.152325
523.963481	0.152288
524.180017	0.152960
524.396534	0.153427
524.613032	0.153273
524.829513	0.153437
525.045975	0.153229
525.262420	0.153830
525.478845	0.153502
525.695253	0.152616
525.911643	0.152394
526.128014	0.152406
526.344367	0.153317
526.560702	0.152754
526.777018	0.153510
526.993316	0.153860
527.209597	0.153689
527.425858	0.154639
527.642102	0.155618
527.858328	0.156591
528.074535	0.157087
528.290724	0.156727
528.506894	0.157811
528.723047	0.158156
528.939181	0.158443
529.155297	0.158521
529.371395	0.158080
529.587475	0.157993
529.803536	0.158148
530.019579	0.158157
530.235604	0.159275
530.451611	0.159746
530.667600	0.159947
530.883570	0.159792
531.099522	0.160859
531.315456	0.161246
531.531372	0.161556
531.747269	0.161344
531.963148	0.161287
532.179009	0.160427
532.394852	0.161119
532.610676	0.161351
532.826482	0.162069
533.042271	0.161682
533.258040	0.161541
533.473792	0.162224
533.689525	0.162782
533.905240	0.163514
534.120937	0.164190
534.336616	0.164514
534.552277	0.165154
534.767919	0.165278
534.983543	0.165888
535.199149	0.166859
535.414736	0.167261
535.630306	0.168185
535.845857	0.168998
536.061390	0.169541
536.276904	0.169569
536.492401	0.169519
536.707879	0.169888
536.923339	0.169913
537.138781	0.169665
537.354204	0.169351
537.569610	0.169365
537.784997	0.169055
538.000366	0.168520
538.215716	0.168770
538.431049	0.169030
538.646363	0.169471
538.861659	0.169835
539.076937	0.170433
539.292196	0.171204
539.507438	0.171767
539.722661	0.172306
539.937866	0.173434
540.153052	0.174233
540.368221	0.174239
540.583371	0.173979
540.798503	0.174487
541.013617	0.174640
541.228712	0.174774
541.443789	0.174863
541.658848	0.175237
541.873889	0.175742
542.088912	0.175204
542.303916	0.175612
542.518902	0.176369
542.733870	0.177153
542.948820	0.177755
543.163752	0.177856
543.378665	0.178015
543.593560	0.178058
543.808437	0.177789
544.023295	0.178144
544.238136	0.178681
544.452958	0.178899
544.667762	0.178517
544.882548	0.178511
545.097315	0.179157
545.312064	0.179310
545.526795	0.179386
545.741508	0.180409
545.956203	0.180822
546.170879	0.180733
546.385537	0.180925
546.600177	0.181034
546.814799	0.181467
547.029402	0.181639
547.243988	0.181825
547.458555	0.181866
547.673103	0.181777
547.887634	0.181936
548.102146	0.182451
548.316640	0.182702
548.531116	0.182964
548.745574	0.183491
548.960013	0.183533
549.174435	0.184237
549.388838	0.184985
549.603222	0.184833
549.817589	0.185206
550.031937	0.185344
550.246267	0.185822
550.460579	0.185950
550.674873	0.185413
550.889148	0.185364
551.103405	0.185223
551.317644	0.185135
551.531865	0.185344
551.746068	0.185227
551.960252	0.185638
552.174418	0.186286
552.388566	0.186825
552.602696	0.187267
552.816807	0.187435
553.030900	0.187525
553.244975	0.187709
553.459032	0.187908
553.673070	0.188028
553.887091	0.187530
554.101093	0.187284
554.315077	0.187441
554.529042	0.187799
554.742990	0.188330
554.956919	0.188619
555.170830	0.188525
555.384722	0.189016
555.598597	0.189520
555.812453	0.189999
556.026291	0.189821
556.240111	0.189815
556.453913	0.189860
556.667696	0.189864
556.881461	0.189948
557.095208	0.190678
557.308937	0.190425
557.522647	0.190666
557.736339	0.191280
557.950013	0.191879
558.163669	0.192095
558.377307	0.192334
558.590926	0.192089
558.804527	0.192234
559.018110	0.192062
559.231675	0.192011
559.445221	0.191875
559.658749	0.191745
559.872259	0.191668
560.085751	0.191834
560.299225	0.191879
560.512680	0.192426
560.726117	0.192246
560.939536	0.192349
561.152937	0.193169
561.366319	0.193644
561.579683	0.193683
561.793029	0.193537
562.006357	0.193345
562.219667	0.193519
562.432958	0.193829
562.646231	0.194482
562.859486	0.195033
563.072723	0.194862
563.285941	0.195322
563.499141	0.195581
563.712323	0.195909
563.925487	0.196728
564.138632	0.197329
564.351760	0.197323
564.564869	0.197628
564.777960	0.197326
564.991032	0.197332
565.204087	0.196818
565.417123	0.196800
565.630141	0.197160
565.843140	0.197179
566.056122	0.197225
566.269085	0.197468
566.482030	0.197684
566.694957	0.198347
566.907866	0.198720
567.120756	0.198813
567.333628	0.199536
567.546482	0.199483
567.759318	0.199659
567.972135	0.199532
568.184935	0.199807
568.397716	0.199244
568.610478	0.198738
568.823223	0.198622
569.035949	0.199036
569.248657	0.198627
569.461347	0.198918
569.674019	0.198902
569.886672	0.198803
570.099308	0.198694
570.311925	0.199112
570.524523	0.199092
570.737104	0.199520
570.949666	0.199931
571.162210	0.200138
571.374736	0.200382
571.587244	0.200656
571.799733	0.200809
572.012205	0.201159
572.224658	0.201428
572.437092	0.202351
572.649509	0.202375
572.861907	0.202440
573.074287	0.203208
573.286649	0.202858
573.498993	0.203038
573.711318	0.203353
573.923625	0.203623
574.135914	0.203662
574.348185	0.203896
574.560438	0.204172
574.772672	0.204043
574.984888	0.203556
575.197086	0.203742
575.409266	0.203731
575.621427	0.203976
575.833570	0.204354
576.045695	0.204347
576.257802	0.204133
576.469890	0.204335
576.681961	0.204544
576.894013	0.204845
577.106046	0.205341
577.318062	0.205567
577.530059	0.205829
577.742039	0.205402
577.954000	0.205597
578.165942	0.205814
578.377867	0.205515
578.589773	0.205722
578.801661	0.205577
579.013531	0.206015
579.225382	0.205954
579.437216	0.205790
579.649031	0.205936
579.860828	0.206270
580.072606	0.206627
580.284367	0.207163
580.496109	0.207342
580.707833	0.207491
580.919539	0.207342
581.131227	0.207424
581.342896	0.207812
581.554547	0.208195
581.766180	0.208468
581.977795	0.208594
582.189391	0.208653
582.400969	0.208935
582.612529	0.209590
582.824071	0.209694
583.035595	0.209993
583.247100	0.210201
583.458587	0.210475
583.670056	0.210716
583.881506	0.210458
584.092939	0.210393
584.304353	0.210113
584.515749	0.210329
584.727127	0.210598
584.938486	0.210773
585.149828	0.210499
585.361151	0.210306
585.572456	0.210537
585.783742	0.210626
585.995011	0.210445
586.206261	0.211104
586.417493	0.210768
586.628706	0.210846
586.839902	0.210730
587.051079	0.211082
587.262238	0.211332
587.473379	0.211480
587.684502	0.211924
587.895606	0.212496
588.106692	0.212283
588.317760	0.212139
588.528810	0.212074
588.739841	0.212420
588.950855	0.212753
589.161850	0.212476
589.372827	0.212263
589.583785	0.212374
589.794726	0.212513
590.005648	0.212702
590.216552	0.213335
590.427437	0.213889
590.638305	0.214345
590.849154	0.213953
591.059985	0.214777
591.270798	0.214853
591.481592	0.215188
591.692369	0.215668
591.903127	0.215761
592.113867	0.215774
592.324588	0.215947
592.535292	0.215964
592.745977	0.216569
592.956644	0.216247
593.167293	0.216852
593.377923	0.216521
593.588536	0.216405
593.799130	0.216314
594.009706	0.216212
594.220263	0.215720
594.430803	0.215045
594.641324	0.215094
594.851827	0.215530
595.062312	0.215365
595.272778	0.215889
595.483227	0.216321
595.693657	0.216663
595.904069	0.216934
596.114462	0.217210
596.324838	0.218106
596.535195	0.218525
596.745534	0.218826
596.955855	0.219019
597.166157	0.218793
597.376441	0.218705
597.586707	0.218919
597.796955	0.219231
598.007185	0.219201
598.217396	0.219012
598.427589	0.218921
598.637764	0.218763
598.847921	0.219023
599.058060	0.219640
599.268180	0.219503
599.478282	0.219717
599.688366	0.219795
599.898431	0.220343
600.108479	0.220613
600.318508	0.220746
600.528519	0.220915
600.738511	0.220817
600.948486	0.220555
601.158442	0.220936
601.368380	0.220964
601.578300	0.221275
601.788202	0.221265
601.998085	0.221171
602.207950	0.221233
602.417797	0.221271
602.627626	0.221523
602.837436	0.221595
603.047228	0.221663
603.257002	0.221925
603.466758	0.222069
603.676496	0.222072
603.886215	0.222286
604.095916	0.222894
604.305599	0.223168
604.515264	0.223340
604.724910	0.223667
604.934538	0.223841
605.144148	0.223562
605.353740	0.223458
605.563314	0.223672
605.772869	0.224012
605.982406	0.223750
606.191925	0.223699
606.401425	0.223684
606.610908	0.223963
606.820372	0.223885
607.029818	0.224313
607.239246	0.224455
607.448655	0.224857
607.658047	0.224903
607.867420	0.224890
608.076775	0.225150
608.286111	0.225378
608.495430	0.225566
608.704730	0.225700
608.914012	0.225700
609.123275	0.226052
609.332521	0.226000
609.541748	0.225998
609.750957	0.226213
609.960148	0.226076
610.169321	0.225800
610.378475	0.225868
610.587611	0.225903
610.796729	0.225867
611.005829	0.225818
611.214910	0.226047
611.423974	0.226307
611.633019	0.226562
611.842045	0.227156
612.051054	0.227578
612.260044	0.227588
612.469017	0.227974
612.677970	0.228504
612.886906	0.228675
613.095824	0.228720
613.304723	0.229176
613.513604	0.229451
613.722467	0.229253
613.931311	0.229377
614.140138	0.229434
614.348946	0.229143
614.557736	0.229338
614.766507	0.229297
614.975261	0.229455
615.183996	0.229313
615.392713	0.229059
615.601412	0.229333
615.810092	0.229629
616.018754	0.229930
616.227399	0.230389
616.436024	0.230589
616.644632	0.230750
616.853222	0.230709
617.061793	0.230906
617.270346	0.231284
617.478880	0.231576
617.687397	0.231453
617.895895	0.231522
618.104375	0.231698
618.312837	0.231577
618.521281	0.231658
618.729706	0.232204
618.938113	0.232217
619.146502	0.232364
619.354873	0.232257
619.563226	0.232483
619.771560	0.232328
619.979876	0.232493
620.188174	0.232788
620.396453	0.232728
620.604715	0.232684
620.812958	0.232779
621.021183	0.232778
621.229390	0.232863
621.437578	0.232929
621.645748	0.233296
621.853900	0.233493
622.062034	0.233185
622.270150	0.233503
622.478247	0.233495
622.686326	0.233875
622.894387	0.233996
623.102430	0.234101
623.310454	0.234388
623.518461	0.234457
623.726449	0.234338
623.934418	0.234518
624.142370	0.234693
624.350303	0.234896
624.558218	0.235041
624.766115	0.235303
624.973994	0.235480
625.181855	0.235564
625.389697	0.235764
625.597521	0.236280
625.805327	0.236632
626.013114	0.236912
626.220883	0.237304
626.428634	0.237171
626.636367	0.237424
626.844082	0.237629
627.051778	0.237820
627.259457	0.238059
627.467117	0.238047
627.674758	0.238075
627.882382	0.238076
628.089987	0.237738
628.297574	0.238000
628.505143	0.237937
628.712694	0.237842
628.920226	0.237731
629.127740	0.237882
629.335236	0.238294
629.542714	0.238594
629.750174	0.238916
629.957615	0.239603
630.165038	0.239862
630.372443	0.240098
630.579829	0.240478
630.787198	0.241089
630.994548	0.240928
631.201880	0.240731
631.409194	0.240741
631.616489	0.240983
631.823766	0.241022
632.031025	0.241204
632.238266	0.241324
632.445489	0.241568
632.652693	0.241663
632.859879	0.242165
633.067047	0.242302
633.274197	0.242522
633.481329	0.242571
633.688442	0.242524
633.895537	0.242528
634.102614	0.242712
634.309672	0.242457
634.516713	0.242359
634.723735	0.242124
634.930739	0.242400
635.137724	0.242447
635.344692	0.242570
635.551641	0.242640
635.758572	0.242472
635.965485	0.242425
636.172379	0.242749
636.379256	0.243160
636.586114	0.243640
636.792954	0.243603
636.999775	0.243929
637.206579	0.243892
637.413364	0.244243
637.620131	0.244931
637.826880	0.245350
638.033610	0.245444
638.240323	0.245109
638.447017	0.244986
638.653692	0.245201
638.860350	0.245254
639.066990	0.245686
639.273611	0.245923
639.480214	0.245762
639.686798	0.245849
639.893365	0.246374
640.099913	0.246742
640.306443	0.246898
640.512955	0.246920
640.719449	0.247152
640.925924	0.247068
641.132381	0.246922
641.338820	0.246922
641.545241	0.247088
641.751644	0.246936
641.958028	0.247115
642.164394	0.247506
642.370742	0.247702
642.577071	0.247696
642.783383	0.248144
642.989676	0.248271
643.195951	0.248582
643.402207	0.248685
643.608446	0.248961
643.814666	0.249281
644.020868	0.249273
644.227052	0.249571
644.433218	0.249949
644.639365	0.250025
644.845494	0.250465
645.051605	0.250649
645.257698	0.250851
645.463772	0.251100
645.669828	0.250788
645.875866	0.251023
646.081886	0.251164
646.287888	0.251415
646.493871	0.251571
646.699836	0.251536
646.905783	0.251832
647.111712	0.251866
647.317622	0.252022
647.523514	0.252239
647.729388	0.252668
647.935244	0.252840
648.141082	0.252877
648.346901	0.252971
648.552702	0.253397
648.758485	0.253453
648.964250	0.253863
649.169996	0.254049
649.375724	0.254652
649.581434	0.254505
649.787126	0.254719
649.992800	0.254802
650.198455	0.255182
650.404092	0.255134
650.609711	0.255178
650.815311	0.255094
651.020894	0.255316
651.226458	0.255385
651.432004	0.255728
651.637532	0.255841
651.843041	0.256032
652.048532	0.255716
652.254006	0.255769
652.459460	0.256125
652.664897	0.256305
652.870315	0.256299
653.075716	0.256501
653.281097	0.256465
653.486461	0.256777
653.691807	0.257147
653.897134	0.257459
654.102443	0.257617
654.307734	0.257804
654.513006	0.258042
654.718261	0.258297
654.923497	0.258513
655.128715	0.258863
655.333915	0.258759
655.539096	0.258768
655.744259	0.258986
655.949404	0.259621
656.154531	0.259764
656.359640	0.259808
656.564730	0.259985
656.769802	0.259893
656.974856	0.260276
657.179892	0.260761
657.384909	0.260965
657.589908	0.261369
657.794889	0.261291
657.999852	0.261552
658.204797	0.261673
658.409723	0.261711
658.614631	0.262079
658.819521	0.262044
659.024393	0.262087
659.229246	0.262281
659.434081	0.262350
659.638898	0.262585
659.843697	0.262837
660.048478	0.263184
660.253240	0.263462
660.457984	0.263568
660.662710	0.263674
660.867417	0.263930
661.072107	0.264172
661.276778	0.264498
661.481431	0.264461
661.686066	0.264645
661.890682	0.265214
662.095281	0.265600
662.299861	0.265778
662.504422	0.265929
662.708966	0.266118
662.913491	0.266320
663.117999	0.266346
663.322488	0.266547
663.526958	0.266609
663.731411	0.266642
663.935845	0.266618
664.140261	0.266702
664.344659	0.267107
664.549038	0.267345
664.753400	0.267521
664.957743	0.268008
665.162068	0.268571
665.366375	0.268681
665.570663	0.268630
665.774933	0.268997
665.979185	0.269475
666.183419	0.269641
666.387635	0.269894
666.591832	0.270093
666.796011	0.270115
667.000172	0.270198
667.204315	0.270372
667.408439	0.270640
667.612545	0.270836
667.816634	0.271121
668.020703	0.271350
668.224755	0.271204
668.428788	0.271505
668.632803	0.271899
668.836800	0.272112
669.040779	0.272376
669.244739	0.272586
669.448681	0.272507
669.652605	0.272538
669.856511	0.272658
670.060399	0.272781
670.264268	0.272880
670.468119	0.272845
670.671952	0.273070
670.875767	0.273439
671.079563	0.273723
671.283341	0.274357
671.487101	0.274566
671.690843	0.274932
671.894567	0.275617
672.098272	0.276029
672.301959	0.276213
672.505628	0.276168
672.709278	0.276310
672.912911	0.276201
673.116525	0.276102
673.320121	0.276682
673.523699	0.276873
673.727258	0.276889
673.930799	0.276883
674.134322	0.277145
674.337827	0.277441
674.541314	0.277594
674.744782	0.278234
674.948232	0.278377
675.151664	0.278067
675.355078	0.278109
675.558474	0.278404
675.761851	0.278602
675.965210	0.278690
676.168551	0.279109
676.371873	0.279313
676.575178	0.279243
676.778464	0.279560
676.981732	0.280072
677.184981	0.280453
677.388213	0.280665
677.591426	0.281069
677.794621	0.281441
677.997798	0.281560
678.200956	0.281625
678.404097	0.281943
678.607219	0.282201
678.810323	0.282316
679.013408	0.282342
679.216476	0.282181
679.419525	0.282240
679.622556	0.282317
679.825569	0.282636
680.028563	0.282914
680.231540	0.283391
680.434498	0.283368
680.637438	0.283480
680.840359	0.283897
681.043263	0.284457
681.246148	0.284593
681.449015	0.284873
681.651864	0.284920
681.854694	0.285162
682.057506	0.284955
682.260301	0.285492
682.463076	0.285756
682.665834	0.285753
682.868573	0.285924
683.071295	0.286109
683.273998	0.286162
683.476682	0.286439
683.679349	0.286720
683.881997	0.287069
684.084627	0.287142
684.287239	0.287220
684.489833	0.287474
684.692408	0.287652
684.894965	0.287762
685.097504	0.287963
685.300025	0.288178
685.502527	0.288316
685.705012	0.288531
685.907478	0.288563
686.109925	0.288789
686.312355	0.288976
686.514766	0.288980
686.717159	0.289383
686.919534	0.289746
687.121891	0.289699
687.324230	0.289904
687.526550	0.290316
687.728852	0.290761
687.931136	0.291050
688.133401	0.290970
688.335649	0.291363
688.537878	0.291319
688.740089	0.291589
688.942281	0.291914
689.144456	0.291846
689.346612	0.291805
689.548750	0.291780
689.750870	0.292364
689.952971	0.292930
690.155055	0.292965
690.357120	0.293469
690.559167	0.293558
690.761195	0.293665
690.963206	0.294027
691.165198	0.294085
691.367172	0.294520
691.569128	0.294269
691.771065	0.294483
691.972984	0.294974
692.174885	0.294872
692.376768	0.294918
692.578633	0.295147
692.780479	0.295418
692.982308	0.295731
693.184118	0.295643
693.385909	0.295739
