sample name	sample
index	1064
start time	 04-22-2021  10:14:44 AM


Wavelength (nm)	Absorbance
494.344910	-0.040213
494.563924	-0.040213
494.782919	-0.040213
495.001897	-0.043447
495.220856	-0.031894
495.439797	-0.015624
495.658719	-0.017576
495.877624	-0.012488
496.096510	-0.023130
496.315378	-0.023238
496.534227	-0.014445
496.753059	-0.015570
496.971872	-0.007272
497.190667	0.093486
497.409444	0.129829
497.628203	0.144407
497.846943	0.151438
498.065665	0.158771
498.284369	0.161403
498.503055	0.164268
498.721723	0.166576
498.940372	0.167354
499.159003	0.166990
499.377616	0.167314
499.596210	0.167656
499.814787	0.168519
500.033345	0.168770
500.251885	0.170617
500.470406	0.170292
500.688910	0.170292
500.907395	0.169363
501.125862	0.170599
501.344311	0.169647
501.562742	0.170747
501.781154	0.170143
501.999548	0.169412
502.217924	0.168389
502.436282	0.168736
502.654621	0.169518
502.872942	0.169362
503.091245	0.168879
503.309530	0.170033
503.527797	0.168719
503.746045	0.169187
503.964275	0.169663
504.182487	0.170016
504.400681	0.169059
504.618856	0.168080
504.837013	0.170029
505.055152	0.170754
505.273273	0.170319
505.491376	0.171222
505.709460	0.171228
505.927526	0.171956
506.145574	0.172337
506.363604	0.172825
506.581615	0.173339
506.799608	0.173353
507.017583	0.173657
507.235540	0.173134
507.453478	0.173642
507.671399	0.173524
507.889301	0.172526
508.107185	0.171760
508.325050	0.172212
508.542898	0.172143
508.760727	0.172444
508.978538	0.172988
509.196330	0.174884
509.414105	0.174874
509.631861	0.175218
509.849599	0.175895
510.067319	0.176943
510.285021	0.177419
510.502704	0.178275
510.720369	0.177929
510.938016	0.177586
511.155645	0.176951
511.373255	0.176966
511.590848	0.178352
511.808422	0.177946
512.025977	0.177829
512.243515	0.178246
512.461034	0.177861
512.678536	0.178060
512.896018	0.178104
513.113483	0.178581
513.330930	0.178780
513.548358	0.178076
513.765768	0.178614
513.983160	0.179963
514.200533	0.179894
514.417889	0.180600
514.635226	0.179990
514.852545	0.180731
515.069845	0.180844
515.287128	0.182310
515.504392	0.182564
515.721638	0.183352
515.938866	0.182677
516.156075	0.182822
516.373267	0.182592
516.590440	0.183420
516.807594	0.183865
517.024731	0.184183
517.241850	0.183360
517.458950	0.183899
517.676032	0.184755
517.893095	0.185034
518.110141	0.186187
518.327168	0.185948
518.544177	0.186378
518.761168	0.186463
518.978141	0.186425
519.195095	0.186569
519.412031	0.187035
519.628949	0.186938
519.845849	0.187634
520.062731	0.186627
520.279594	0.187750
520.496439	0.188200
520.713266	0.189039
520.930074	0.190058
521.146865	0.190067
521.363637	0.189932
521.580391	0.189970
521.797127	0.189773
522.013844	0.190416
522.230543	0.190465
522.447224	0.190934
522.663887	0.190421
522.880532	0.190805
523.097158	0.191578
523.313766	0.191410
523.530356	0.191787
523.746928	0.192572
523.963481	0.193031
524.180017	0.193359
524.396534	0.194037
524.613032	0.194987
524.829513	0.194731
525.045975	0.195541
525.262420	0.196337
525.478845	0.196694
525.695253	0.196503
525.911643	0.197095
526.128014	0.196690
526.344367	0.196467
526.560702	0.196685
526.777018	0.196961
526.993316	0.196369
527.209597	0.197373
527.425858	0.197598
527.642102	0.197677
527.858328	0.197407
528.074535	0.198148
528.290724	0.198745
528.506894	0.198853
528.723047	0.199490
528.939181	0.200229
529.155297	0.199878
529.371395	0.199273
529.587475	0.199475
529.803536	0.200026
530.019579	0.200882
530.235604	0.201254
530.451611	0.200961
530.667600	0.201052
530.883570	0.201674
531.099522	0.202026
531.315456	0.203379
531.531372	0.204663
531.747269	0.205380
531.963148	0.205252
532.179009	0.205920
532.394852	0.206229
532.610676	0.206558
532.826482	0.206476
533.042271	0.206849
533.258040	0.206661
533.473792	0.206729
533.689525	0.207287
533.905240	0.208490
534.120937	0.208034
534.336616	0.209267
534.552277	0.210092
534.767919	0.210486
534.983543	0.211322
535.199149	0.211825
535.414736	0.211377
535.630306	0.211183
535.845857	0.210800
536.061390	0.211564
536.276904	0.211756
536.492401	0.211716
536.707879	0.212221
536.923339	0.212046
537.138781	0.213146
537.354204	0.214272
537.569610	0.214877
537.784997	0.215088
538.000366	0.215477
538.215716	0.215873
538.431049	0.216197
538.646363	0.216307
538.861659	0.216581
539.076937	0.216058
539.292196	0.216123
539.507438	0.216350
539.722661	0.216652
539.937866	0.216690
540.153052	0.216839
540.368221	0.217084
540.583371	0.217657
540.798503	0.217802
541.013617	0.218346
541.228712	0.218862
541.443789	0.219185
541.658848	0.220303
541.873889	0.220446
542.088912	0.220762
542.303916	0.221797
542.518902	0.222463
542.733870	0.223168
542.948820	0.223568
543.163752	0.224086
543.378665	0.224389
543.593560	0.223713
543.808437	0.224268
544.023295	0.224421
544.238136	0.224516
544.452958	0.224580
544.667762	0.225073
544.882548	0.225394
545.097315	0.225977
545.312064	0.226379
545.526795	0.227092
545.741508	0.227227
545.956203	0.227291
546.170879	0.227318
546.385537	0.227686
546.600177	0.227817
546.814799	0.227761
547.029402	0.227783
547.243988	0.227792
547.458555	0.227807
547.673103	0.227945
547.887634	0.228716
548.102146	0.228747
548.316640	0.228739
548.531116	0.228919
548.745574	0.229628
548.960013	0.229872
549.174435	0.229864
549.388838	0.230508
549.603222	0.230934
549.817589	0.231213
550.031937	0.231833
550.246267	0.232032
550.460579	0.231835
550.674873	0.231779
550.889148	0.232120
551.103405	0.232858
551.317644	0.232563
551.531865	0.233356
551.746068	0.232651
551.960252	0.232330
552.174418	0.233163
552.388566	0.234042
552.602696	0.234093
552.816807	0.234033
553.030900	0.234092
553.244975	0.234854
553.459032	0.234871
553.673070	0.235774
553.887091	0.236570
554.101093	0.235897
554.315077	0.235871
554.529042	0.236373
554.742990	0.237000
554.956919	0.237078
555.170830	0.236889
555.384722	0.236544
555.598597	0.236606
555.812453	0.236701
556.026291	0.237167
556.240111	0.237715
556.453913	0.237786
556.667696	0.237755
556.881461	0.237957
557.095208	0.238228
557.308937	0.238857
557.522647	0.239119
557.736339	0.239118
557.950013	0.238998
558.163669	0.238785
558.377307	0.239217
558.590926	0.239060
558.804527	0.239115
559.018110	0.238988
559.231675	0.239278
559.445221	0.239751
559.658749	0.240069
559.872259	0.240411
560.085751	0.240618
560.299225	0.240703
560.512680	0.240581
560.726117	0.241117
560.939536	0.242020
561.152937	0.241743
561.366319	0.241348
561.579683	0.241521
561.793029	0.242098
562.006357	0.241831
562.219667	0.241873
562.432958	0.242269
562.646231	0.242135
562.859486	0.241975
563.072723	0.242524
563.285941	0.242866
563.499141	0.242806
563.712323	0.242685
563.925487	0.243181
564.138632	0.243734
564.351760	0.244184
564.564869	0.244175
564.777960	0.244227
564.991032	0.243979
565.204087	0.244200
565.417123	0.244275
565.630141	0.244108
565.843140	0.244234
566.056122	0.243986
566.269085	0.244258
566.482030	0.244927
566.694957	0.245024
566.907866	0.245300
567.120756	0.245126
567.333628	0.245343
567.546482	0.246193
567.759318	0.246607
567.972135	0.247054
568.184935	0.246979
568.397716	0.246925
568.610478	0.247258
568.823223	0.247325
569.035949	0.247889
569.248657	0.248388
569.461347	0.248282
569.674019	0.248106
569.886672	0.248259
570.099308	0.248230
570.311925	0.248256
570.524523	0.248321
570.737104	0.248731
570.949666	0.249039
571.162210	0.248705
571.374736	0.248866
571.587244	0.249285
571.799733	0.249121
572.012205	0.249694
572.224658	0.250147
572.437092	0.250654
572.649509	0.250773
572.861907	0.250707
573.074287	0.250855
573.286649	0.250629
573.498993	0.250780
573.711318	0.250719
573.923625	0.250612
574.135914	0.250701
574.348185	0.250701
574.560438	0.250611
574.772672	0.250632
574.984888	0.250562
575.197086	0.250663
575.409266	0.250554
575.621427	0.250937
575.833570	0.250896
576.045695	0.251107
576.257802	0.251208
576.469890	0.251089
576.681961	0.251392
576.894013	0.252067
577.106046	0.252328
577.318062	0.252798
577.530059	0.252940
577.742039	0.253259
577.954000	0.253008
578.165942	0.253227
578.377867	0.253773
578.589773	0.254112
578.801661	0.254548
579.013531	0.254933
579.225382	0.254928
579.437216	0.254675
579.649031	0.254472
579.860828	0.254687
580.072606	0.254443
580.284367	0.255054
580.496109	0.255116
580.707833	0.254797
580.919539	0.255182
581.131227	0.255167
581.342896	0.255631
581.554547	0.256320
581.766180	0.256930
581.977795	0.257450
582.189391	0.257060
582.400969	0.257480
582.612529	0.257863
582.824071	0.257900
583.035595	0.258231
583.247100	0.258985
583.458587	0.259232
583.670056	0.259194
583.881506	0.259347
584.092939	0.259564
584.304353	0.259704
584.515749	0.259924
584.727127	0.260229
584.938486	0.260426
585.149828	0.260229
585.361151	0.260404
585.572456	0.260476
585.783742	0.260580
585.995011	0.260632
586.206261	0.260803
586.417493	0.260883
586.628706	0.260935
586.839902	0.261588
587.051079	0.261673
587.262238	0.261731
587.473379	0.261455
587.684502	0.261612
587.895606	0.262058
588.106692	0.262186
588.317760	0.262984
588.528810	0.263155
588.739841	0.262646
588.950855	0.263242
589.161850	0.263319
589.372827	0.263665
589.583785	0.264291
589.794726	0.264318
590.005648	0.264430
590.216552	0.263933
590.427437	0.263951
590.638305	0.264046
590.849154	0.263579
591.059985	0.263896
591.270798	0.264308
591.481592	0.263966
591.692369	0.264748
591.903127	0.265063
592.113867	0.265020
592.324588	0.265365
592.535292	0.265744
592.745977	0.265958
592.956644	0.266151
593.167293	0.266596
593.377923	0.266645
593.588536	0.266571
593.799130	0.266363
594.009706	0.266915
594.220263	0.266823
594.430803	0.267214
594.641324	0.267519
594.851827	0.267916
595.062312	0.267807
595.272778	0.268228
595.483227	0.268176
595.693657	0.268542
595.904069	0.268391
596.114462	0.268686
596.324838	0.268595
596.535195	0.268747
596.745534	0.268682
596.955855	0.268542
597.166157	0.268225
597.376441	0.268664
597.586707	0.269026
597.796955	0.269604
598.007185	0.269929
598.217396	0.270200
598.427589	0.270702
598.637764	0.270746
598.847921	0.271567
599.058060	0.272172
599.268180	0.271905
599.478282	0.271892
599.688366	0.272017
599.898431	0.272001
600.108479	0.272224
600.318508	0.272424
600.528519	0.272555
600.738511	0.272713
600.948486	0.272678
601.158442	0.273151
601.368380	0.273135
601.578300	0.273275
601.788202	0.273390
601.998085	0.273604
602.207950	0.273683
602.417797	0.273861
602.627626	0.273842
602.837436	0.274095
603.047228	0.274425
603.257002	0.274520
603.466758	0.274957
603.676496	0.275312
603.886215	0.275584
604.095916	0.275867
604.305599	0.276001
604.515264	0.276054
604.724910	0.276223
604.934538	0.276275
605.144148	0.276393
605.353740	0.276431
605.563314	0.276491
605.772869	0.276475
605.982406	0.276357
606.191925	0.276610
606.401425	0.276864
606.610908	0.277153
606.820372	0.277368
607.029818	0.277853
607.239246	0.278035
607.448655	0.278182
607.658047	0.278495
607.867420	0.278885
608.076775	0.279257
608.286111	0.279480
608.495430	0.279466
608.704730	0.279102
608.914012	0.279138
609.123275	0.279293
609.332521	0.279467
609.541748	0.279450
609.750957	0.279554
609.960148	0.279646
610.169321	0.279709
610.378475	0.279966
610.587611	0.280540
610.796729	0.280425
611.005829	0.280173
611.214910	0.280705
611.423974	0.280947
611.633019	0.281254
611.842045	0.280904
612.051054	0.281160
612.260044	0.281606
612.469017	0.281856
612.677970	0.281933
612.886906	0.282404
613.095824	0.282059
613.304723	0.282522
613.513604	0.282498
613.722467	0.282997
613.931311	0.283190
614.140138	0.283195
614.348946	0.283062
614.557736	0.283437
614.766507	0.283643
614.975261	0.284129
615.183996	0.284029
615.392713	0.284123
615.601412	0.284098
615.810092	0.284362
616.018754	0.284496
616.227399	0.284866
616.436024	0.284848
616.644632	0.284875
616.853222	0.284734
617.061793	0.284648
617.270346	0.284596
617.478880	0.284903
617.687397	0.284623
617.895895	0.284637
618.104375	0.284217
618.312837	0.284463
618.521281	0.284491
618.729706	0.284468
618.938113	0.284767
619.146502	0.285224
619.354873	0.285285
619.563226	0.285246
619.771560	0.285392
619.979876	0.286151
620.188174	0.286469
620.396453	0.286440
620.604715	0.286584
620.812958	0.286348
621.021183	0.286256
621.229390	0.286394
621.437578	0.286949
621.645748	0.286821
621.853900	0.286745
622.062034	0.286725
622.270150	0.287007
622.478247	0.287433
622.686326	0.287942
622.894387	0.288248
623.102430	0.288319
623.310454	0.288462
623.518461	0.288597
623.726449	0.288798
623.934418	0.288860
624.142370	0.289150
624.350303	0.289361
624.558218	0.289311
624.766115	0.289149
624.973994	0.289260
625.181855	0.289431
625.389697	0.289888
625.597521	0.290196
625.805327	0.290645
626.013114	0.290901
626.220883	0.290782
626.428634	0.291166
626.636367	0.291742
626.844082	0.292112
627.051778	0.292200
627.259457	0.292380
627.467117	0.291978
627.674758	0.292052
627.882382	0.292032
628.089987	0.292423
628.297574	0.292378
628.505143	0.292208
628.712694	0.292322
628.920226	0.292454
629.127740	0.292624
629.335236	0.293147
629.542714	0.293315
629.750174	0.293204
629.957615	0.293580
630.165038	0.293589
630.372443	0.293835
630.579829	0.293900
630.787198	0.294016
630.994548	0.294147
631.201880	0.294411
631.409194	0.294828
631.616489	0.295219
631.823766	0.294923
632.031025	0.295203
632.238266	0.295363
632.445489	0.295664
632.652693	0.295787
632.859879	0.295997
633.067047	0.296352
633.274197	0.296159
633.481329	0.296326
633.688442	0.296663
633.895537	0.297182
634.102614	0.297516
634.309672	0.297799
634.516713	0.297966
634.723735	0.298044
634.930739	0.297851
635.137724	0.298038
635.344692	0.298553
635.551641	0.298627
635.758572	0.298425
635.965485	0.298524
636.172379	0.298702
636.379256	0.299030
636.586114	0.298927
636.792954	0.299255
636.999775	0.299359
637.206579	0.299208
637.413364	0.299397
637.620131	0.299787
637.826880	0.299998
638.033610	0.299885
638.240323	0.300116
638.447017	0.300713
638.653692	0.300879
638.860350	0.301021
639.066990	0.301440
639.273611	0.301667
639.480214	0.302144
639.686798	0.302214
639.893365	0.302464
640.099913	0.302604
640.306443	0.302610
640.512955	0.302882
640.719449	0.303310
640.925924	0.303364
641.132381	0.303461
641.338820	0.303509
641.545241	0.303776
641.751644	0.304031
641.958028	0.304277
642.164394	0.304615
642.370742	0.304715
642.577071	0.305021
642.783383	0.305043
642.989676	0.305587
643.195951	0.305737
643.402207	0.305724
643.608446	0.305837
643.814666	0.305805
644.020868	0.305719
644.227052	0.305742
644.433218	0.305690
644.639365	0.306158
644.845494	0.306028
645.051605	0.306159
645.257698	0.306926
645.463772	0.307441
645.669828	0.307637
645.875866	0.308172
646.081886	0.308344
646.287888	0.308657
646.493871	0.308530
646.699836	0.309030
646.905783	0.309118
647.111712	0.309184
647.317622	0.309373
647.523514	0.309436
647.729388	0.309596
647.935244	0.309630
648.141082	0.309734
648.346901	0.309829
648.552702	0.309857
648.758485	0.310150
648.964250	0.310007
649.169996	0.309972
649.375724	0.310256
649.581434	0.310288
649.787126	0.310765
649.992800	0.310998
650.198455	0.311557
650.404092	0.311535
650.609711	0.311652
650.815311	0.311994
651.020894	0.312032
651.226458	0.312276
651.432004	0.312359
651.637532	0.312680
651.843041	0.312589
652.048532	0.312712
652.254006	0.313127
652.459460	0.313086
652.664897	0.313330
652.870315	0.313681
653.075716	0.314119
653.281097	0.314377
653.486461	0.314540
653.691807	0.314900
653.897134	0.315077
654.102443	0.315368
654.307734	0.315743
654.513006	0.315681
654.718261	0.315911
654.923497	0.316135
655.128715	0.316596
655.333915	0.316751
655.539096	0.317268
655.744259	0.317703
655.949404	0.317708
656.154531	0.317823
656.359640	0.318118
656.564730	0.318463
656.769802	0.318477
656.974856	0.318449
657.179892	0.318727
657.384909	0.318796
657.589908	0.318590
657.794889	0.318998
657.999852	0.319333
658.204797	0.319622
658.409723	0.319608
658.614631	0.319903
658.819521	0.319931
659.024393	0.320336
659.229246	0.320163
659.434081	0.320653
659.638898	0.320824
659.843697	0.320978
660.048478	0.321173
660.253240	0.321593
660.457984	0.321757
660.662710	0.322170
660.867417	0.322098
661.072107	0.322709
661.276778	0.323021
661.481431	0.323438
661.686066	0.323855
661.890682	0.323913
662.095281	0.323616
662.299861	0.323779
662.504422	0.324205
662.708966	0.324542
662.913491	0.324807
663.117999	0.324989
663.322488	0.325090
663.526958	0.325508
663.731411	0.325931
663.935845	0.326484
664.140261	0.326726
664.344659	0.326736
664.549038	0.326914
664.753400	0.327135
664.957743	0.327477
665.162068	0.327629
665.366375	0.327633
665.570663	0.328077
665.774933	0.328413
665.979185	0.328766
666.183419	0.329107
666.387635	0.329210
666.591832	0.329372
666.796011	0.329223
667.000172	0.329495
667.204315	0.329700
667.408439	0.329775
667.612545	0.330195
667.816634	0.330690
668.020703	0.330985
668.224755	0.331288
668.428788	0.331605
668.632803	0.332055
668.836800	0.332159
669.040779	0.332548
669.244739	0.332760
669.448681	0.332550
669.652605	0.332478
669.856511	0.332696
670.060399	0.333205
670.264268	0.333222
670.468119	0.333553
670.671952	0.333645
670.875767	0.333769
671.079563	0.334166
671.283341	0.334809
671.487101	0.335194
671.690843	0.335666
671.894567	0.335513
672.098272	0.335845
672.301959	0.335525
672.505628	0.335916
672.709278	0.336264
672.912911	0.336226
673.116525	0.336025
673.320121	0.335923
673.523699	0.335620
673.727258	0.336135
673.930799	0.336513
674.134322	0.337121
674.337827	0.337395
674.541314	0.337647
674.744782	0.337926
674.948232	0.338259
675.151664	0.338821
675.355078	0.339185
675.558474	0.339167
675.761851	0.339452
675.965210	0.339682
676.168551	0.339743
676.371873	0.339712
676.575178	0.340107
676.778464	0.340213
676.981732	0.340292
677.184981	0.340678
677.388213	0.341095
677.591426	0.341044
677.794621	0.341223
677.997798	0.341702
678.200956	0.341893
678.404097	0.342050
678.607219	0.342469
678.810323	0.342674
679.013408	0.342750
679.216476	0.342942
679.419525	0.343223
679.622556	0.343490
679.825569	0.343515
680.028563	0.343765
680.231540	0.343902
680.434498	0.344141
680.637438	0.344356
680.840359	0.344773
681.043263	0.344934
681.246148	0.345174
681.449015	0.345458
681.651864	0.345809
681.854694	0.346089
682.057506	0.346310
682.260301	0.346593
682.463076	0.346743
682.665834	0.347008
682.868573	0.347409
683.071295	0.347483
683.273998	0.347762
683.476682	0.347945
683.679349	0.348161
683.881997	0.348501
684.084627	0.348722
684.287239	0.348834
684.489833	0.348591
684.692408	0.348609
684.894965	0.348847
685.097504	0.349023
685.300025	0.349302
685.502527	0.349485
685.705012	0.349686
685.907478	0.349728
686.109925	0.349962
686.312355	0.350576
686.514766	0.350633
686.717159	0.350794
686.919534	0.350807
687.121891	0.350653
687.324230	0.351083
687.526550	0.351349
687.728852	0.351664
687.931136	0.351933
688.133401	0.352016
688.335649	0.352262
688.537878	0.352600
688.740089	0.352860
688.942281	0.353040
689.144456	0.352803
689.346612	0.352659
689.548750	0.352697
689.750870	0.353183
689.952971	0.353352
690.155055	0.353509
690.357120	0.353802
690.559167	0.354095
690.761195	0.354562
690.963206	0.354974
691.165198	0.355483
691.367172	0.355801
691.569128	0.355902
691.771065	0.356230
691.972984	0.356362
692.174885	0.356516
692.376768	0.356603
692.578633	0.356677
692.780479	0.356543
692.982308	0.356252
693.184118	0.356562
