sample name	sample
index	1426
start time	 05-10-2021  12:22:03 PM


Wavelength (nm)	Absorbance
494.344910	-0.025947
494.563924	-0.025947
494.782919	-0.025947
495.001897	0.072274
495.220856	-0.008786
495.439797	-0.013302
495.658719	-0.010145
495.877624	-0.006988
496.096510	-0.004760
496.315378	0.017963
496.534227	0.015368
496.753059	0.020845
496.971872	0.004107
497.190667	0.056475
497.409444	0.084944
497.628203	0.092889
497.846943	0.096841
498.065665	0.097944
498.284369	0.099115
498.503055	0.101898
498.721723	0.102767
498.940372	0.104766
499.159003	0.104786
499.377616	0.104605
499.596210	0.104655
499.814787	0.105531
500.033345	0.105967
500.251885	0.106611
500.470406	0.106125
500.688910	0.106502
500.907395	0.105451
501.125862	0.104887
501.344311	0.105299
501.562742	0.105925
501.781154	0.105158
501.999548	0.105664
502.217924	0.104787
502.436282	0.104930
502.654621	0.105266
502.872942	0.106483
503.091245	0.107168
503.309530	0.106395
503.527797	0.105902
503.746045	0.105436
503.964275	0.104954
504.182487	0.106001
504.400681	0.105779
504.618856	0.105717
504.837013	0.105136
505.055152	0.105810
505.273273	0.106457
505.491376	0.107008
505.709460	0.107805
505.927526	0.107193
506.145574	0.106987
506.363604	0.108549
506.581615	0.108622
506.799608	0.109341
507.017583	0.108761
507.235540	0.108345
507.453478	0.108353
507.671399	0.108372
507.889301	0.109047
508.107185	0.108434
508.325050	0.106756
508.542898	0.106963
508.760727	0.106297
508.978538	0.106813
509.196330	0.107480
509.414105	0.106969
509.631861	0.106807
509.849599	0.107677
510.067319	0.108629
510.285021	0.109069
510.502704	0.108573
510.720369	0.108817
510.938016	0.109086
511.155645	0.108401
511.373255	0.108588
511.590848	0.109181
511.808422	0.109224
512.025977	0.109262
512.243515	0.110140
512.461034	0.110054
512.678536	0.110210
512.896018	0.110171
513.113483	0.110374
513.330930	0.110406
513.548358	0.109770
513.765768	0.110020
513.983160	0.110364
514.200533	0.109804
514.417889	0.110032
514.635226	0.110094
514.852545	0.110514
515.069845	0.110930
515.287128	0.111481
515.504392	0.111832
515.721638	0.110826
515.938866	0.109846
516.156075	0.110438
516.373267	0.111307
516.590440	0.110796
516.807594	0.110116
517.024731	0.110160
517.241850	0.109535
517.458950	0.110365
517.676032	0.111467
517.893095	0.112302
518.110141	0.111640
518.327168	0.110792
518.544177	0.111389
518.761168	0.111841
518.978141	0.112632
519.195095	0.113957
519.412031	0.113746
519.628949	0.113078
519.845849	0.113605
520.062731	0.114517
520.279594	0.114634
520.496439	0.114841
520.713266	0.115467
520.930074	0.115009
521.146865	0.113963
521.363637	0.113745
521.580391	0.113921
521.797127	0.113388
522.013844	0.113066
522.230543	0.113499
522.447224	0.113583
522.663887	0.113113
522.880532	0.112791
523.097158	0.113444
523.313766	0.112956
523.530356	0.112965
523.746928	0.113585
523.963481	0.113327
524.180017	0.113355
524.396534	0.112385
524.613032	0.112984
524.829513	0.113372
525.045975	0.113631
525.262420	0.114276
525.478845	0.114682
525.695253	0.114129
525.911643	0.114609
526.128014	0.114879
526.344367	0.116202
526.560702	0.116173
526.777018	0.116454
526.993316	0.115959
527.209597	0.116129
527.425858	0.115478
527.642102	0.115367
527.858328	0.115729
528.074535	0.115278
528.290724	0.114938
528.506894	0.115277
528.723047	0.115517
528.939181	0.116339
529.155297	0.116176
529.371395	0.117422
529.587475	0.117959
529.803536	0.117337
530.019579	0.117824
530.235604	0.118102
530.451611	0.117150
530.667600	0.116800
530.883570	0.116390
531.099522	0.116378
531.315456	0.116253
531.531372	0.115794
531.747269	0.116406
531.963148	0.116947
532.179009	0.117260
532.394852	0.118045
532.610676	0.118499
532.826482	0.118322
533.042271	0.118745
533.258040	0.118548
533.473792	0.119570
533.689525	0.120077
533.905240	0.119930
534.120937	0.120284
534.336616	0.120259
534.552277	0.120231
534.767919	0.120730
534.983543	0.121345
535.199149	0.121730
535.414736	0.121561
535.630306	0.121424
535.845857	0.121545
536.061390	0.121887
536.276904	0.121802
536.492401	0.122111
536.707879	0.121959
536.923339	0.121880
537.138781	0.121703
537.354204	0.121331
537.569610	0.121359
537.784997	0.121403
538.000366	0.120992
538.215716	0.121762
538.431049	0.122191
538.646363	0.122572
538.861659	0.122292
539.076937	0.122477
539.292196	0.122593
539.507438	0.122330
539.722661	0.122488
539.937866	0.122723
540.153052	0.122257
540.368221	0.122127
540.583371	0.121887
540.798503	0.121916
541.013617	0.121946
541.228712	0.122322
541.443789	0.123056
541.658848	0.123299
541.873889	0.123332
542.088912	0.123267
542.303916	0.123417
542.518902	0.123857
542.733870	0.124331
542.948820	0.124580
543.163752	0.124770
543.378665	0.124308
543.593560	0.124209
543.808437	0.124469
544.023295	0.125257
544.238136	0.125001
544.452958	0.125335
544.667762	0.125633
544.882548	0.125833
545.097315	0.126114
545.312064	0.126077
545.526795	0.126341
545.741508	0.126072
545.956203	0.125824
546.170879	0.126023
546.385537	0.125825
546.600177	0.125730
546.814799	0.125854
547.029402	0.126011
547.243988	0.126642
547.458555	0.126412
547.673103	0.126630
547.887634	0.126860
548.102146	0.127345
548.316640	0.127715
548.531116	0.127932
548.745574	0.127847
548.960013	0.127691
549.174435	0.128175
549.388838	0.128752
549.603222	0.128625
549.817589	0.128493
550.031937	0.127829
550.246267	0.127781
550.460579	0.127412
550.674873	0.127088
550.889148	0.127152
551.103405	0.126487
551.317644	0.126174
551.531865	0.126676
551.746068	0.126835
551.960252	0.127285
552.174418	0.127424
552.388566	0.128091
552.602696	0.128229
552.816807	0.128557
553.030900	0.128937
553.244975	0.129146
553.459032	0.128909
553.673070	0.128962
553.887091	0.128947
554.101093	0.128999
554.315077	0.128716
554.529042	0.128955
554.742990	0.128742
554.956919	0.128899
555.170830	0.129155
555.384722	0.129269
555.598597	0.129044
555.812453	0.129396
556.026291	0.129403
556.240111	0.129682
556.453913	0.129853
556.667696	0.129653
556.881461	0.129457
557.095208	0.128862
557.308937	0.128886
557.522647	0.129240
557.736339	0.128611
557.950013	0.128714
558.163669	0.128583
558.377307	0.128734
558.590926	0.129015
558.804527	0.128940
559.018110	0.129082
559.231675	0.128816
559.445221	0.128883
559.658749	0.129039
559.872259	0.128592
560.085751	0.128624
560.299225	0.128411
560.512680	0.128147
560.726117	0.128399
560.939536	0.128990
561.152937	0.129639
561.366319	0.129505
561.579683	0.130063
561.793029	0.130335
562.006357	0.130218
562.219667	0.130595
562.432958	0.130923
562.646231	0.130863
562.859486	0.130852
563.072723	0.130712
563.285941	0.130924
563.499141	0.130911
563.712323	0.131079
563.925487	0.131293
564.138632	0.131770
564.351760	0.132163
564.564869	0.132276
564.777960	0.132428
564.991032	0.132288
565.204087	0.132524
565.417123	0.132904
565.630141	0.133370
565.843140	0.133739
566.056122	0.133308
566.269085	0.133302
566.482030	0.133557
566.694957	0.133340
566.907866	0.133565
567.120756	0.133338
567.333628	0.132753
567.546482	0.132458
567.759318	0.132201
567.972135	0.132167
568.184935	0.131966
568.397716	0.131731
568.610478	0.131820
568.823223	0.132020
569.035949	0.132298
569.248657	0.132710
569.461347	0.132685
569.674019	0.133168
569.886672	0.133485
570.099308	0.133628
570.311925	0.134109
570.524523	0.133995
570.737104	0.134182
570.949666	0.134156
571.162210	0.134160
571.374736	0.134732
571.587244	0.134573
571.799733	0.134447
572.012205	0.134509
572.224658	0.134555
572.437092	0.134855
572.649509	0.135119
572.861907	0.135335
573.074287	0.135498
573.286649	0.135061
573.498993	0.134873
573.711318	0.135228
573.923625	0.135563
574.135914	0.135957
574.348185	0.135833
574.560438	0.135464
574.772672	0.135376
574.984888	0.135475
575.197086	0.135848
575.409266	0.136120
575.621427	0.135885
575.833570	0.135981
576.045695	0.135708
576.257802	0.135927
576.469890	0.136264
576.681961	0.136575
576.894013	0.136670
577.106046	0.136556
577.318062	0.136798
577.530059	0.137220
577.742039	0.136965
577.954000	0.137100
578.165942	0.137102
578.377867	0.136900
578.589773	0.136830
578.801661	0.136756
579.013531	0.136894
579.225382	0.136914
579.437216	0.136706
579.649031	0.137290
579.860828	0.137380
580.072606	0.137587
580.284367	0.138039
580.496109	0.138059
580.707833	0.138070
580.919539	0.138167
581.131227	0.137950
581.342896	0.138021
581.554547	0.137598
581.766180	0.137486
581.977795	0.137517
582.189391	0.137470
582.400969	0.137715
582.612529	0.138141
582.824071	0.138264
583.035595	0.138759
583.247100	0.139035
583.458587	0.139375
583.670056	0.139678
583.881506	0.139999
584.092939	0.140347
584.304353	0.140567
584.515749	0.140660
584.727127	0.140913
584.938486	0.140977
585.149828	0.141448
585.361151	0.141659
585.572456	0.141770
585.783742	0.141836
585.995011	0.141718
586.206261	0.141476
586.417493	0.141302
586.628706	0.141617
586.839902	0.141854
587.051079	0.141521
587.262238	0.141820
587.473379	0.141977
587.684502	0.141860
587.895606	0.142268
588.106692	0.143118
588.317760	0.143120
588.528810	0.142937
588.739841	0.142791
588.950855	0.143097
589.161850	0.143119
589.372827	0.143063
589.583785	0.143407
589.794726	0.143284
590.005648	0.143025
590.216552	0.143597
590.427437	0.143845
590.638305	0.144141
590.849154	0.143974
591.059985	0.143932
591.270798	0.143887
591.481592	0.143856
591.692369	0.143844
591.903127	0.143528
592.113867	0.143420
592.324588	0.143329
592.535292	0.143541
592.745977	0.143960
592.956644	0.144098
593.167293	0.144047
593.377923	0.143820
593.588536	0.143889
593.799130	0.144167
594.009706	0.144176
594.220263	0.144064
594.430803	0.143988
594.641324	0.144122
594.851827	0.144224
595.062312	0.144399
595.272778	0.145186
595.483227	0.145311
595.693657	0.145318
595.904069	0.145585
596.114462	0.145888
596.324838	0.145376
596.535195	0.145053
596.745534	0.144865
596.955855	0.145003
597.166157	0.144668
597.376441	0.144544
597.586707	0.144583
597.796955	0.144259
598.007185	0.144166
598.217396	0.144606
598.427589	0.144454
598.637764	0.144665
598.847921	0.144773
599.058060	0.144872
599.268180	0.144814
599.478282	0.145065
599.688366	0.145195
599.898431	0.145208
600.108479	0.145246
600.318508	0.145362
600.528519	0.145182
600.738511	0.145026
600.948486	0.144897
601.158442	0.145068
601.368380	0.145211
601.578300	0.145343
601.788202	0.145359
601.998085	0.145575
602.207950	0.145830
602.417797	0.146333
602.627626	0.146631
602.837436	0.146795
603.047228	0.146825
603.257002	0.146601
603.466758	0.146770
603.676496	0.147036
603.886215	0.146885
604.095916	0.147112
604.305599	0.147283
604.515264	0.147407
604.724910	0.147541
604.934538	0.147952
605.144148	0.148166
605.353740	0.148310
605.563314	0.148356
605.772869	0.148378
605.982406	0.148483
606.191925	0.148042
606.401425	0.148018
606.610908	0.148254
606.820372	0.148294
607.029818	0.148225
607.239246	0.148438
607.448655	0.148309
607.658047	0.148626
607.867420	0.148586
608.076775	0.148907
608.286111	0.149088
608.495430	0.148932
608.704730	0.149039
608.914012	0.149117
609.123275	0.149151
609.332521	0.149735
609.541748	0.149800
609.750957	0.149729
609.960148	0.149551
610.169321	0.149620
610.378475	0.149837
610.587611	0.149526
610.796729	0.149924
611.005829	0.149885
611.214910	0.149458
611.423974	0.149646
611.633019	0.149929
611.842045	0.150038
612.051054	0.150074
612.260044	0.150103
612.469017	0.150499
612.677970	0.150557
612.886906	0.150316
613.095824	0.150598
613.304723	0.150518
613.513604	0.150489
613.722467	0.150712
613.931311	0.150705
614.140138	0.150729
614.348946	0.150617
614.557736	0.150445
614.766507	0.150739
614.975261	0.151016
615.183996	0.151425
615.392713	0.151276
615.601412	0.151455
615.810092	0.151597
616.018754	0.151510
616.227399	0.151521
616.436024	0.151688
616.644632	0.151667
616.853222	0.151411
617.061793	0.151148
617.270346	0.151639
617.478880	0.151544
617.687397	0.151577
617.895895	0.151778
618.104375	0.151891
618.312837	0.151872
618.521281	0.151978
618.729706	0.152116
618.938113	0.152250
619.146502	0.151874
619.354873	0.151928
619.563226	0.151900
619.771560	0.151767
619.979876	0.151943
620.188174	0.152039
620.396453	0.151960
620.604715	0.151800
620.812958	0.151746
621.021183	0.152085
621.229390	0.152164
621.437578	0.152227
621.645748	0.152604
621.853900	0.152447
622.062034	0.152415
622.270150	0.152491
622.478247	0.152912
622.686326	0.152936
622.894387	0.153061
623.102430	0.153207
623.310454	0.153487
623.518461	0.153351
623.726449	0.153755
623.934418	0.153800
624.142370	0.154025
624.350303	0.153925
624.558218	0.154009
624.766115	0.153954
624.973994	0.153715
625.181855	0.153646
625.389697	0.153715
625.597521	0.153438
625.805327	0.153423
626.013114	0.153445
626.220883	0.153640
626.428634	0.153723
626.636367	0.153590
626.844082	0.153933
627.051778	0.153833
627.259457	0.153545
627.467117	0.153810
627.674758	0.153981
627.882382	0.154158
628.089987	0.154079
628.297574	0.154174
628.505143	0.154443
628.712694	0.154443
628.920226	0.154790
629.127740	0.155269
629.335236	0.155326
629.542714	0.155289
629.750174	0.155234
629.957615	0.155304
630.165038	0.155340
630.372443	0.155437
630.579829	0.155427
630.787198	0.155120
630.994548	0.155157
631.201880	0.155199
631.409194	0.155358
631.616489	0.155413
631.823766	0.155486
632.031025	0.155518
632.238266	0.155732
632.445489	0.155999
632.652693	0.156425
632.859879	0.156384
633.067047	0.156419
633.274197	0.156487
633.481329	0.156417
633.688442	0.156561
633.895537	0.156698
634.102614	0.156500
634.309672	0.156437
634.516713	0.156353
634.723735	0.156529
634.930739	0.156423
635.137724	0.156499
635.344692	0.156786
635.551641	0.156889
635.758572	0.157004
635.965485	0.157045
636.172379	0.156907
636.379256	0.157063
636.586114	0.157118
636.792954	0.157573
636.999775	0.157685
637.206579	0.157740
637.413364	0.157955
637.620131	0.158137
637.826880	0.158336
638.033610	0.158522
638.240323	0.158653
638.447017	0.158948
638.653692	0.158995
638.860350	0.159158
639.066990	0.159123
639.273611	0.159109
639.480214	0.159082
639.686798	0.159123
639.893365	0.159431
640.099913	0.159328
640.306443	0.159285
640.512955	0.159472
640.719449	0.159355
640.925924	0.159600
641.132381	0.159437
641.338820	0.159507
641.545241	0.159527
641.751644	0.159331
641.958028	0.159273
642.164394	0.159391
642.370742	0.159191
642.577071	0.159545
642.783383	0.159506
642.989676	0.159770
643.195951	0.159824
643.402207	0.159919
643.608446	0.159894
643.814666	0.160378
644.020868	0.160491
644.227052	0.160660
644.433218	0.160735
644.639365	0.161064
644.845494	0.161183
645.051605	0.161299
645.257698	0.161503
645.463772	0.161914
645.669828	0.161770
645.875866	0.161745
646.081886	0.161752
646.287888	0.161837
646.493871	0.161657
646.699836	0.161663
646.905783	0.161643
647.111712	0.161816
647.317622	0.161870
647.523514	0.161864
647.729388	0.161950
647.935244	0.161921
648.141082	0.161722
648.346901	0.161850
648.552702	0.161998
648.758485	0.161999
648.964250	0.161782
649.169996	0.161932
649.375724	0.161850
649.581434	0.161824
649.787126	0.161998
649.992800	0.162158
650.198455	0.162183
650.404092	0.162157
650.609711	0.162261
650.815311	0.162387
651.020894	0.162030
651.226458	0.162140
651.432004	0.162301
651.637532	0.162308
651.843041	0.162271
652.048532	0.162322
652.254006	0.162185
652.459460	0.162235
652.664897	0.162091
652.870315	0.162402
653.075716	0.162652
653.281097	0.162759
653.486461	0.162877
653.691807	0.163003
653.897134	0.163133
654.102443	0.163368
654.307734	0.163589
654.513006	0.164074
654.718261	0.164309
654.923497	0.164481
655.128715	0.164474
655.333915	0.164730
655.539096	0.164822
655.744259	0.164915
655.949404	0.164924
656.154531	0.164969
656.359640	0.164866
656.564730	0.164768
656.769802	0.164566
656.974856	0.164512
657.179892	0.164466
657.384909	0.164675
657.589908	0.164856
657.794889	0.164953
657.999852	0.165034
658.204797	0.165142
658.409723	0.165135
658.614631	0.165502
658.819521	0.165680
659.024393	0.165639
659.229246	0.165607
659.434081	0.165795
659.638898	0.166034
659.843697	0.166180
660.048478	0.166169
660.253240	0.166254
660.457984	0.166152
660.662710	0.166252
660.867417	0.166304
661.072107	0.166369
661.276778	0.166387
661.481431	0.166498
661.686066	0.166520
661.890682	0.166694
662.095281	0.167050
662.299861	0.167144
662.504422	0.167297
662.708966	0.167386
662.913491	0.167675
663.117999	0.167698
663.322488	0.167727
663.526958	0.167813
663.731411	0.167757
663.935845	0.167606
664.140261	0.167916
664.344659	0.168064
664.549038	0.168093
664.753400	0.168064
664.957743	0.167985
665.162068	0.167843
665.366375	0.167791
665.570663	0.167897
665.774933	0.168109
665.979185	0.168165
666.183419	0.168190
666.387635	0.168291
666.591832	0.168365
666.796011	0.168572
667.000172	0.168821
667.204315	0.168934
667.408439	0.169181
667.612545	0.169114
667.816634	0.169113
668.020703	0.169158
668.224755	0.169336
668.428788	0.169506
668.632803	0.169549
668.836800	0.169610
669.040779	0.169838
669.244739	0.169739
669.448681	0.169924
669.652605	0.170080
669.856511	0.170070
670.060399	0.170500
670.264268	0.170584
670.468119	0.170765
670.671952	0.170830
670.875767	0.170785
671.079563	0.171029
671.283341	0.171213
671.487101	0.171362
671.690843	0.171586
671.894567	0.171279
672.098272	0.171307
672.301959	0.171483
672.505628	0.171782
672.709278	0.172049
672.912911	0.171995
673.116525	0.171980
673.320121	0.171776
673.523699	0.171704
673.727258	0.171906
673.930799	0.171868
674.134322	0.171800
674.337827	0.171597
674.541314	0.171575
674.744782	0.172030
674.948232	0.172130
675.151664	0.172156
675.355078	0.172216
675.558474	0.172173
675.761851	0.172331
675.965210	0.172225
676.168551	0.172353
676.371873	0.172490
676.575178	0.172447
676.778464	0.172488
676.981732	0.172894
677.184981	0.172925
677.388213	0.173067
677.591426	0.172827
677.794621	0.173075
677.997798	0.173197
678.200956	0.173098
678.404097	0.172950
678.607219	0.172873
678.810323	0.172917
679.013408	0.173198
679.216476	0.173396
679.419525	0.173802
679.622556	0.173890
679.825569	0.173975
680.028563	0.174269
680.231540	0.174557
680.434498	0.174850
680.637438	0.174986
680.840359	0.175214
681.043263	0.175338
681.246148	0.175564
681.449015	0.175573
681.651864	0.175711
681.854694	0.175632
682.057506	0.175711
682.260301	0.175743
682.463076	0.175600
682.665834	0.175475
682.868573	0.175450
683.071295	0.175442
683.273998	0.175781
683.476682	0.176014
683.679349	0.176199
683.881997	0.176192
684.084627	0.176376
684.287239	0.176670
684.489833	0.176919
684.692408	0.176742
684.894965	0.176762
685.097504	0.176694
685.300025	0.176575
685.502527	0.176550
685.705012	0.176497
685.907478	0.176428
686.109925	0.176241
686.312355	0.176101
686.514766	0.176287
686.717159	0.176431
686.919534	0.176395
687.121891	0.176502
687.324230	0.176454
687.526550	0.176564
687.728852	0.176551
687.931136	0.176711
688.133401	0.176841
688.335649	0.176994
688.537878	0.176940
688.740089	0.176828
688.942281	0.176690
689.144456	0.176973
689.346612	0.176908
689.548750	0.177023
689.750870	0.177048
689.952971	0.177140
690.155055	0.177183
690.357120	0.177021
690.559167	0.177257
690.761195	0.177554
690.963206	0.177422
691.165198	0.177679
691.367172	0.177721
691.569128	0.177786
691.771065	0.177725
691.972984	0.177886
692.174885	0.178348
692.376768	0.178522
692.578633	0.178084
692.780479	0.178098
692.982308	0.178013
693.184118	0.178130
693.385909	0.178290
