sample name	sample
index	153
start time	 02-15-2021  02:43:36 PM


Wavelength (nm)	Absorbance
494.344910	-0.633254
494.563924	-0.633254
494.782919	-0.633254
495.001897	-0.116506
495.220856	-0.592917
495.439797	-0.876119
495.658719	-1.478233
495.877624	NaN
496.096510	NaN
496.315378	NaN
496.534227	1.880814
496.753059	NaN
496.971872	NaN
497.190667	0.250010
497.409444	0.176428
497.628203	0.151998
497.846943	0.151069
498.065665	0.151297
498.284369	0.152332
498.503055	0.150565
498.721723	0.149358
498.940372	0.146583
499.159003	0.146556
499.377616	0.148080
499.596210	0.152320
499.814787	0.150626
500.033345	0.150103
500.251885	0.148234
500.470406	0.150551
500.688910	0.147940
500.907395	0.146397
501.125862	0.144351
501.344311	0.146678
501.562742	0.142585
501.781154	0.139848
501.999548	0.138325
502.217924	0.140326
502.436282	0.140155
502.654621	0.143196
502.872942	0.143771
503.091245	0.145165
503.309530	0.141535
503.527797	0.140994
503.746045	0.142856
503.964275	0.143394
504.182487	0.142093
504.400681	0.139827
504.618856	0.138534
504.837013	0.140864
505.055152	0.140486
505.273273	0.141345
505.491376	0.143115
505.709460	0.145249
505.927526	0.145363
506.145574	0.146943
506.363604	0.147975
506.581615	0.147106
506.799608	0.146987
507.017583	0.148244
507.235540	0.149291
507.453478	0.149871
507.671399	0.148719
507.889301	0.148831
508.107185	0.148296
508.325050	0.148174
508.542898	0.148990
508.760727	0.148671
508.978538	0.147617
509.196330	0.145796
509.414105	0.147254
509.631861	0.147984
509.849599	0.149094
510.067319	0.149518
510.285021	0.149697
510.502704	0.150573
510.720369	0.148799
510.938016	0.148411
511.155645	0.152403
511.373255	0.152390
511.590848	0.151308
511.808422	0.150469
512.025977	0.150466
512.243515	0.150142
512.461034	0.150597
512.678536	0.152961
512.896018	0.155789
513.113483	0.155757
513.330930	0.155187
513.548358	0.155567
513.765768	0.156222
513.983160	0.157210
514.200533	0.156402
514.417889	0.154078
514.635226	0.154776
514.852545	0.154611
515.069845	0.153412
515.287128	0.153461
515.504392	0.153107
515.721638	0.154425
515.938866	0.152975
516.156075	0.154678
516.373267	0.157880
516.590440	0.156409
516.807594	0.155753
517.024731	0.155052
517.241850	0.155107
517.458950	0.158329
517.676032	0.158496
517.893095	0.159538
518.110141	0.161439
518.327168	0.159657
518.544177	0.162038
518.761168	0.161342
518.978141	0.161930
519.195095	0.161859
519.412031	0.160797
519.628949	0.161112
519.845849	0.159207
520.062731	0.157624
520.279594	0.159044
520.496439	0.156965
520.713266	0.159590
520.930074	0.158742
521.146865	0.160457
521.363637	0.160501
521.580391	0.161370
521.797127	0.163351
522.013844	0.162377
522.230543	0.163173
522.447224	0.162589
522.663887	0.161222
522.880532	0.162538
523.097158	0.163126
523.313766	0.161541
523.530356	0.161303
523.746928	0.162419
523.963481	0.164723
524.180017	0.166197
524.396534	0.167646
524.613032	0.169207
524.829513	0.169201
525.045975	0.170036
525.262420	0.173628
525.478845	0.174548
525.695253	0.175346
525.911643	0.177120
526.128014	0.175363
526.344367	0.176893
526.560702	0.176247
526.777018	0.177620
526.993316	0.176258
527.209597	0.175035
527.425858	0.174526
527.642102	0.172940
527.858328	0.173124
528.074535	0.175930
528.290724	0.174601
528.506894	0.174575
528.723047	0.174935
528.939181	0.175515
529.155297	0.176569
529.371395	0.176887
529.587475	0.177560
529.803536	0.175765
530.019579	0.173970
530.235604	0.175120
530.451611	0.176009
530.667600	0.176526
530.883570	0.176548
531.099522	0.175731
531.315456	0.176605
531.531372	0.177068
531.747269	0.179147
531.963148	0.179640
532.179009	0.179905
532.394852	0.180469
532.610676	0.180193
532.826482	0.181426
533.042271	0.181396
533.258040	0.181784
533.473792	0.182492
533.689525	0.181553
533.905240	0.183218
534.120937	0.183277
534.336616	0.182320
534.552277	0.181671
534.767919	0.181452
534.983543	0.182033
535.199149	0.181353
535.414736	0.180796
535.630306	0.182414
535.845857	0.180456
536.061390	0.181209
536.276904	0.182438
536.492401	0.183236
536.707879	0.184124
536.923339	0.184138
537.138781	0.183749
537.354204	0.185014
537.569610	0.185049
537.784997	0.186566
538.000366	0.185907
538.215716	0.186321
538.431049	0.186692
538.646363	0.187366
538.861659	0.187891
539.076937	0.189179
539.292196	0.189481
539.507438	0.189417
539.722661	0.188748
539.937866	0.189447
540.153052	0.189775
540.368221	0.191431
540.583371	0.190157
540.798503	0.191274
541.013617	0.191941
541.228712	0.191192
541.443789	0.192439
541.658848	0.192957
541.873889	0.193969
542.088912	0.194478
542.303916	0.193757
542.518902	0.194412
542.733870	0.194336
542.948820	0.194336
543.163752	0.195939
543.378665	0.195040
543.593560	0.195504
543.808437	0.194906
544.023295	0.195060
544.238136	0.194304
544.452958	0.195066
544.667762	0.194859
544.882548	0.195142
545.097315	0.195609
545.312064	0.196081
545.526795	0.197629
545.741508	0.198506
545.956203	0.198189
546.170879	0.199717
546.385537	0.199503
546.600177	0.199785
546.814799	0.199604
547.029402	0.198914
547.243988	0.198890
547.458555	0.197705
547.673103	0.197928
547.887634	0.199094
548.102146	0.198567
548.316640	0.198450
548.531116	0.199694
548.745574	0.200541
548.960013	0.200079
549.174435	0.200283
549.388838	0.200610
549.603222	0.200957
549.817589	0.200940
550.031937	0.201073
550.246267	0.202551
550.460579	0.203373
550.674873	0.202374
550.889148	0.203996
551.103405	0.205559
551.317644	0.206504
551.531865	0.207880
551.746068	0.207952
551.960252	0.207830
552.174418	0.206666
552.388566	0.207156
552.602696	0.208464
552.816807	0.207909
553.030900	0.205782
553.244975	0.205543
553.459032	0.204541
553.673070	0.204829
553.887091	0.206367
554.101093	0.207485
554.315077	0.206014
554.529042	0.206300
554.742990	0.207120
554.956919	0.208205
555.170830	0.208267
555.384722	0.208799
555.598597	0.208407
555.812453	0.206897
556.026291	0.207572
556.240111	0.208767
556.453913	0.209152
556.667696	0.209475
556.881461	0.210157
557.095208	0.209523
557.308937	0.209919
557.522647	0.210982
557.736339	0.211820
557.950013	0.210880
558.163669	0.210844
558.377307	0.210679
558.590926	0.210651
558.804527	0.211073
559.018110	0.212309
559.231675	0.212046
559.445221	0.210923
559.658749	0.211436
559.872259	0.211612
560.085751	0.211429
560.299225	0.211144
560.512680	0.211552
560.726117	0.210766
560.939536	0.211101
561.152937	0.211406
561.366319	0.212104
561.579683	0.212404
561.793029	0.212485
562.006357	0.212776
562.219667	0.213931
562.432958	0.214863
562.646231	0.216020
562.859486	0.216934
563.072723	0.216603
563.285941	0.217034
563.499141	0.216821
563.712323	0.218180
563.925487	0.218610
564.138632	0.217935
564.351760	0.218123
564.564869	0.217850
564.777960	0.217891
564.991032	0.218742
565.204087	0.218023
565.417123	0.218520
565.630141	0.217759
565.843140	0.218624
566.056122	0.218030
566.269085	0.217825
566.482030	0.217388
566.694957	0.217007
566.907866	0.216531
567.120756	0.218005
567.333628	0.218267
567.546482	0.219146
567.759318	0.218533
567.972135	0.219462
568.184935	0.218903
568.397716	0.219737
568.610478	0.219521
568.823223	0.220684
569.035949	0.221624
569.248657	0.221893
569.461347	0.222097
569.674019	0.221811
569.886672	0.221945
570.099308	0.222948
570.311925	0.223644
570.524523	0.224305
570.737104	0.224149
570.949666	0.223540
571.162210	0.223680
571.374736	0.223532
571.587244	0.224381
571.799733	0.225224
572.012205	0.224110
572.224658	0.224148
572.437092	0.223390
572.649509	0.223112
572.861907	0.221608
573.074287	0.221619
573.286649	0.222132
573.498993	0.222121
573.711318	0.222695
573.923625	0.222888
574.135914	0.222760
574.348185	0.222512
574.560438	0.222728
574.772672	0.224113
574.984888	0.224659
575.197086	0.224650
575.409266	0.225520
575.621427	0.224430
575.833570	0.225263
576.045695	0.225690
576.257802	0.226716
576.469890	0.226889
576.681961	0.227808
576.894013	0.227702
577.106046	0.226762
577.318062	0.226086
577.530059	0.226497
577.742039	0.226510
577.954000	0.226908
578.165942	0.226439
578.377867	0.226753
578.589773	0.226761
578.801661	0.227271
579.013531	0.228595
579.225382	0.228532
579.437216	0.228172
579.649031	0.229103
579.860828	0.228472
580.072606	0.229154
580.284367	0.229681
580.496109	0.229283
580.707833	0.229482
580.919539	0.229794
581.131227	0.230372
581.342896	0.230782
581.554547	0.230784
581.766180	0.230685
581.977795	0.231159
582.189391	0.230789
582.400969	0.232256
582.612529	0.232163
582.824071	0.231364
583.035595	0.232525
583.247100	0.233842
583.458587	0.233722
583.670056	0.235225
583.881506	0.236161
584.092939	0.236612
584.304353	0.235738
584.515749	0.236957
584.727127	0.237173
584.938486	0.235734
585.149828	0.234763
585.361151	0.234632
585.572456	0.234615
585.783742	0.234715
585.995011	0.235642
586.206261	0.235915
586.417493	0.235372
586.628706	0.236695
586.839902	0.237757
587.051079	0.238611
587.262238	0.239369
587.473379	0.239200
587.684502	0.239161
587.895606	0.238708
588.106692	0.238461
588.317760	0.238060
588.528810	0.238207
588.739841	0.238570
588.950855	0.239504
589.161850	0.239124
589.372827	0.239422
589.583785	0.239155
589.794726	0.239138
590.005648	0.239991
590.216552	0.241011
590.427437	0.241116
590.638305	0.240229
590.849154	0.239212
591.059985	0.239671
591.270798	0.239493
591.481592	0.240704
591.692369	0.241398
591.903127	0.242309
592.113867	0.242309
592.324588	0.242198
592.535292	0.242952
592.745977	0.244209
592.956644	0.245191
593.167293	0.245356
593.377923	0.244319
593.588536	0.244518
593.799130	0.244046
594.009706	0.243685
594.220263	0.243753
594.430803	0.243395
594.641324	0.243114
594.851827	0.242356
595.062312	0.243404
595.272778	0.243750
595.483227	0.243888
595.693657	0.243520
595.904069	0.243714
596.114462	0.244430
596.324838	0.244744
596.535195	0.245721
596.745534	0.246299
596.955855	0.246016
597.166157	0.245811
597.376441	0.245201
597.586707	0.245500
597.796955	0.245528
598.007185	0.245675
598.217396	0.246234
598.427589	0.245188
598.637764	0.245728
598.847921	0.245739
599.058060	0.246348
599.268180	0.246563
599.478282	0.247089
599.688366	0.248296
599.898431	0.247871
600.108479	0.248593
600.318508	0.249164
600.528519	0.248477
600.738511	0.248953
600.948486	0.248986
601.158442	0.249726
601.368380	0.249488
601.578300	0.249047
601.788202	0.249800
601.998085	0.249886
602.207950	0.249529
602.417797	0.249350
602.627626	0.249532
602.837436	0.250214
603.047228	0.250116
603.257002	0.250147
603.466758	0.250973
603.676496	0.250739
603.886215	0.250982
604.095916	0.250878
604.305599	0.252055
604.515264	0.252363
604.724910	0.252489
604.934538	0.252592
605.144148	0.252733
605.353740	0.252867
605.563314	0.253463
605.772869	0.253017
605.982406	0.253867
606.191925	0.254354
606.401425	0.255036
606.610908	0.255129
606.820372	0.255330
607.029818	0.255930
607.239246	0.255673
607.448655	0.255409
607.658047	0.255967
607.867420	0.256792
608.076775	0.255802
608.286111	0.254703
608.495430	0.254913
608.704730	0.254927
608.914012	0.255047
609.123275	0.254797
609.332521	0.254878
609.541748	0.255212
609.750957	0.254587
609.960148	0.255401
610.169321	0.255821
610.378475	0.256040
610.587611	0.257084
610.796729	0.257311
611.005829	0.257288
611.214910	0.257826
611.423974	0.257663
611.633019	0.258052
611.842045	0.257854
612.051054	0.258893
612.260044	0.259468
612.469017	0.259246
612.677970	0.259528
612.886906	0.260485
613.095824	0.260691
613.304723	0.261043
613.513604	0.260568
613.722467	0.261475
613.931311	0.260332
614.140138	0.260194
614.348946	0.260297
614.557736	0.260580
614.766507	0.259515
614.975261	0.259194
615.183996	0.259392
615.392713	0.259711
615.601412	0.259621
615.810092	0.260102
616.018754	0.260269
616.227399	0.260088
616.436024	0.259523
616.644632	0.260424
616.853222	0.260728
617.061793	0.260161
617.270346	0.260660
617.478880	0.260749
617.687397	0.261825
617.895895	0.262138
618.104375	0.263176
618.312837	0.263884
618.521281	0.264205
618.729706	0.264574
618.938113	0.265526
619.146502	0.265437
619.354873	0.265618
619.563226	0.265467
619.771560	0.265721
619.979876	0.265150
620.188174	0.265005
620.396453	0.264951
620.604715	0.264377
620.812958	0.264330
621.021183	0.265060
621.229390	0.265256
621.437578	0.265366
621.645748	0.265046
621.853900	0.265255
622.062034	0.265327
622.270150	0.265581
622.478247	0.266360
622.686326	0.266862
622.894387	0.267056
623.102430	0.267050
623.310454	0.266883
623.518461	0.267428
623.726449	0.268112
623.934418	0.268818
624.142370	0.269510
624.350303	0.269865
624.558218	0.269831
624.766115	0.270105
624.973994	0.270486
625.181855	0.270724
625.389697	0.271094
625.597521	0.270908
625.805327	0.271024
626.013114	0.270166
626.220883	0.270534
626.428634	0.270669
626.636367	0.271166
626.844082	0.271568
627.051778	0.272161
627.259457	0.271736
627.467117	0.271778
627.674758	0.272645
627.882382	0.273080
628.089987	0.272920
628.297574	0.273195
628.505143	0.272646
628.712694	0.272884
628.920226	0.272989
629.127740	0.273546
629.335236	0.273738
629.542714	0.272808
629.750174	0.273786
629.957615	0.274076
630.165038	0.274015
630.372443	0.274182
630.579829	0.274434
630.787198	0.274737
630.994548	0.274480
631.201880	0.275004
631.409194	0.275335
631.616489	0.275308
631.823766	0.275230
632.031025	0.275318
632.238266	0.275447
632.445489	0.274886
632.652693	0.274594
632.859879	0.275001
633.067047	0.275492
633.274197	0.275897
633.481329	0.275800
633.688442	0.276088
633.895537	0.276444
634.102614	0.277215
634.309672	0.277501
634.516713	0.278350
634.723735	0.278705
634.930739	0.278398
635.137724	0.278286
635.344692	0.279019
635.551641	0.279519
635.758572	0.280283
635.965485	0.280156
636.172379	0.280727
636.379256	0.280446
636.586114	0.280586
636.792954	0.281055
636.999775	0.281640
637.206579	0.281333
637.413364	0.281538
637.620131	0.281395
637.826880	0.281657
638.033610	0.281289
638.240323	0.281455
638.447017	0.281577
638.653692	0.281855
638.860350	0.282495
639.066990	0.282821
639.273611	0.283023
639.480214	0.283199
639.686798	0.283050
639.893365	0.283832
640.099913	0.283630
640.306443	0.283617
640.512955	0.283820
640.719449	0.283353
640.925924	0.283529
641.132381	0.283465
641.338820	0.284099
641.545241	0.284612
641.751644	0.284874
641.958028	0.285150
642.164394	0.285349
642.370742	0.284800
642.577071	0.284927
642.783383	0.285430
642.989676	0.286518
643.195951	0.286375
643.402207	0.286551
643.608446	0.286843
643.814666	0.287480
644.020868	0.288239
644.227052	0.288905
644.433218	0.289262
644.639365	0.289356
644.845494	0.288884
645.051605	0.289094
645.257698	0.289103
645.463772	0.289153
645.669828	0.289254
645.875866	0.288838
646.081886	0.289137
646.287888	0.289639
646.493871	0.289805
646.699836	0.290017
646.905783	0.290381
647.111712	0.290644
647.317622	0.290809
647.523514	0.291577
647.729388	0.292084
647.935244	0.292508
648.141082	0.292513
648.346901	0.292599
648.552702	0.293178
648.758485	0.293588
648.964250	0.293963
649.169996	0.294727
649.375724	0.294792
649.581434	0.295218
649.787126	0.295360
649.992800	0.295407
650.198455	0.296042
650.404092	0.295881
650.609711	0.295679
650.815311	0.296198
651.020894	0.296193
651.226458	0.296574
651.432004	0.296502
651.637532	0.296601
651.843041	0.297461
652.048532	0.296819
652.254006	0.297154
652.459460	0.297412
652.664897	0.297315
652.870315	0.297694
653.075716	0.298132
653.281097	0.298126
653.486461	0.299167
653.691807	0.299513
653.897134	0.300500
654.102443	0.300506
654.307734	0.300892
654.513006	0.301685
654.718261	0.300890
654.923497	0.300734
655.128715	0.300954
655.333915	0.300023
655.539096	0.299652
655.744259	0.299651
655.949404	0.300582
656.154531	0.300876
656.359640	0.301263
656.564730	0.301816
656.769802	0.301964
656.974856	0.302260
657.179892	0.303180
657.384909	0.303762
657.589908	0.304080
657.794889	0.303900
657.999852	0.303451
658.204797	0.302969
658.409723	0.303578
658.614631	0.304076
658.819521	0.304515
659.024393	0.304585
659.229246	0.304999
659.434081	0.305409
659.638898	0.305453
659.843697	0.306221
660.048478	0.306706
660.253240	0.306524
660.457984	0.306277
660.662710	0.306984
660.867417	0.307005
661.072107	0.306886
661.276778	0.307014
661.481431	0.307862
661.686066	0.307741
661.890682	0.307893
662.095281	0.307961
662.299861	0.308391
662.504422	0.308582
662.708966	0.309276
662.913491	0.309917
663.117999	0.309856
663.322488	0.309699
663.526958	0.309814
663.731411	0.309918
663.935845	0.310981
664.140261	0.311527
664.344659	0.311977
664.549038	0.311709
664.753400	0.311763
664.957743	0.311985
665.162068	0.312207
665.366375	0.312977
665.570663	0.313429
665.774933	0.313983
665.979185	0.313907
666.183419	0.313563
666.387635	0.313931
666.591832	0.313975
666.796011	0.314619
667.000172	0.315276
667.204315	0.315558
667.408439	0.315918
667.612545	0.315675
667.816634	0.315669
668.020703	0.316345
668.224755	0.316864
668.428788	0.317565
668.632803	0.317855
668.836800	0.318458
669.040779	0.318807
669.244739	0.319232
669.448681	0.319260
669.652605	0.319806
669.856511	0.320298
670.060399	0.320183
670.264268	0.320354
670.468119	0.320651
670.671952	0.320650
670.875767	0.320339
671.079563	0.320116
671.283341	0.320196
671.487101	0.320552
671.690843	0.320635
671.894567	0.321449
672.098272	0.321679
672.301959	0.321828
672.505628	0.321977
672.709278	0.322382
672.912911	0.322856
673.116525	0.323348
673.320121	0.323594
673.523699	0.323421
673.727258	0.323161
673.930799	0.323416
674.134322	0.323623
674.337827	0.323428
674.541314	0.323987
674.744782	0.324320
674.948232	0.324661
675.151664	0.324419
675.355078	0.324760
675.558474	0.324887
675.761851	0.324854
675.965210	0.325615
676.168551	0.325978
676.371873	0.326281
676.575178	0.326585
676.778464	0.326343
676.981732	0.326724
677.184981	0.327601
677.388213	0.328339
677.591426	0.328473
677.794621	0.328140
677.997798	0.328622
678.200956	0.328148
678.404097	0.328374
678.607219	0.329232
678.810323	0.329848
679.013408	0.329133
679.216476	0.329425
679.419525	0.329663
679.622556	0.329848
679.825569	0.329761
680.028563	0.330481
680.231540	0.330941
680.434498	0.330909
680.637438	0.331634
680.840359	0.332068
681.043263	0.331637
681.246148	0.331766
681.449015	0.332011
681.651864	0.332181
681.854694	0.332499
682.057506	0.332756
682.260301	0.333099
682.463076	0.332819
682.665834	0.333298
682.868573	0.334028
683.071295	0.334545
683.273998	0.334908
683.476682	0.335167
683.679349	0.335763
683.881997	0.335978
684.084627	0.336598
684.287239	0.336514
684.489833	0.337524
684.692408	0.337578
684.894965	0.337739
685.097504	0.338210
685.300025	0.339190
685.502527	0.339429
685.705012	0.339448
685.907478	0.339453
686.109925	0.339877
686.312355	0.339446
686.514766	0.339708
686.717159	0.340027
686.919534	0.340345
687.121891	0.340516
687.324230	0.340726
687.526550	0.340807
687.728852	0.341516
687.931136	0.342237
688.133401	0.342184
688.335649	0.342530
688.537878	0.342445
688.740089	0.343008
688.942281	0.342546
689.144456	0.342793
689.346612	0.342806
689.548750	0.342290
689.750870	0.342309
689.952971	0.342687
690.155055	0.343347
690.357120	0.343778
690.559167	0.343095
690.761195	0.343663
690.963206	0.344187
691.165198	0.345024
691.367172	0.345172
691.569128	0.345286
691.771065	0.345648
691.972984	0.345668
692.174885	0.346185
692.376768	0.346725
692.578633	0.346645
692.780479	0.346161
692.982308	0.346219
693.184118	0.347051
693.385909	0.347301
693.587683	0.347373
