sample name	sample
index	852
start time	 04-08-2021  10:50:03 AM
880	0.437573
Peak Time (s)	102.536
Peak Height 	0.4376
calc peak height	100,103
Baseline Time (s)	10.034
Baseline Value 	-0.007928
subtract baseline	10,4
Abs	0.337834
Peak Time (s)	102.536
Peak Height 	0.3378
calc peak height	100,103
Baseline Time (s)	11.036
Baseline Value 	0.001817
subtract baseline	10,3
PK_550	0.176184
Peak Time (s)	102.536
Peak Height 	0.1762
calc peak height	100,103
Baseline Time (s)	9.535
Baseline Value 	8.8918E-4
subtract baseline	10,2
PK_880	0.313370
Peak Time (s)	102.536
Peak Height 	0.3134
calc peak height	100,103
Baseline Time (s)	8.537
Baseline Value 	0.003911
subtract baseline	10,1


Time (s)	A880-A510	A880-A775	A880-A975	A880	I510	I775	I975	I880	
0.034500	-0.000422	0.000273	0.003690	0.003827	6849.152489	42466.432183	3845.246762	22573.276042
0.538000	-0.002505	-0.000042	0.000211	0.006373	6805.150705	42205.463634	3829.049379	22457.034056
1.035500	-0.001252	-0.000458	0.001459	0.005760	6822.830977	42223.369847	3834.027137	22484.953152
1.539000	-0.004619	-0.001209	-0.000622	0.007612	6773.570108	41987.332678	3823.531333	22400.722642
2.039000	-0.001796	-0.000092	0.003093	0.001376	6859.473075	42657.810029	3850.278915	22685.871770
2.536500	-0.001126	-0.001201	0.003626	0.000289	6876.332622	42655.758409	3854.691596	22735.979509
3.036500	-0.001520	-0.000382	-0.001912	0.002831	6848.187592	42497.706895	3832.845222	22618.968573
3.540000	-0.001520	-0.000361	0.001043	0.001941	6856.693751	42581.212561	3843.190457	22659.848716
4.037000	-0.001777	-0.000161	0.002174	0.000765	6865.505155	42707.697197	3849.440432	22714.031330
4.537500	-0.000140	0.000366	0.002275	0.001343	6875.685668	42703.063827	3848.146955	22687.395355
5.035000	-0.001382	-0.000116	0.001193	0.003281	6845.202135	42480.772612	3839.976508	22598.311032
5.535500	0.000331	0.001113	0.000411	0.001686	6876.911689	42740.173767	3842.172107	22671.582899
6.038500	-0.001454	-0.000111	-0.001254	0.000414	6871.978206	42744.701760	3841.112135	22730.227493
6.536000	0.000759	0.000254	-0.001597	0.000390	6893.532495	42780.412216	3840.247728	22731.296739
7.036000	-0.001131	-0.000351	-0.000184	0.000036	6878.718754	42757.282368	3845.022570	22747.645350
7.536500	-0.002339	-0.000343	0.000728	-0.000070	6868.122864	42767.821097	3847.782557	22752.559770
8.036500	0.000082	-0.000095	-0.000322	0.000297	6887.889259	42756.844212	3843.943284	22735.603921
8.537000	0.000000	-0.000840	0.002946	-0.000301	6892.870520	42743.305827	3854.443287	22763.214480
9.037500	-0.001408	0.000171	0.001066	0.000304	6873.478988	42780.750560	3847.683078	22735.272944
9.535000	0.000608	0.000000	-0.000384	0.000315	6892.792109	42763.940570	3843.727199	22734.760222
10.034500	-0.001095	0.000291	0.000557	0.000000	6879.414227	42819.861199	3847.128003	22749.324178
10.535500	0.000394	-0.000297	-0.000991	-0.000351	6897.168908	42798.037617	3843.887236	22765.544286
11.035500	-0.000078	0.000249	0.000000	0.000156	6887.708177	42801.559346	3845.195293	22742.102240
11.536000	0.000822	-0.000084	-0.000778	-0.000223	6900.065182	42805.829030	3844.117814	22759.629139
12.036500	-0.000011	0.000780	0.004613	0.000334	6886.646143	42834.205730	3857.264813	22733.913300
12.536500	0.000797	0.000675	0.005444	-0.000086	6898.499280	42863.350562	3860.690337	22753.307455
13.036500	-0.002788	-0.000035	-0.004287	0.004875	6816.656056	42342.542243	3821.066769	22525.369660
13.537000	-0.000535	0.000178	0.000974	-0.000565	6890.259136	42861.654773	3849.793555	22775.433774
14.037500	-0.001032	0.000821	-0.000953	0.003029	6850.954514	42589.766321	3834.884021	22609.851165
14.535000	-0.001110	-0.000578	-0.001740	0.001650	6863.414733	42587.937267	3836.472542	22673.231832
15.035500	-0.003196	-0.000438	-0.000131	0.004665	6814.785304	42324.973641	3832.704276	22534.969744
15.536000	0.001497	0.000229	0.001685	-0.000515	6909.430751	42861.744550	3851.591103	22773.123399
16.035500	-0.001831	-0.000245	0.002804	-0.000750	6879.543480	42839.590442	3855.280789	22783.987739
16.536500	0.002234	0.000955	0.003290	-0.000101	6912.564038	42890.610016	3854.838636	22753.989442
17.036500	0.000230	-0.000520	0.002414	0.002593	6867.223137	42506.781118	3845.134958	22629.882848
17.536000	0.001030	0.000487	0.003191	0.001649	6883.998344	42686.009590	3849.802799	22673.292231
18.037000	-0.000210	0.000004	0.000296	0.001250	6875.894073	42678.147095	3843.037633	22691.635883
18.537500	-0.000682	0.000110	-0.000378	0.001233	6871.520536	42689.530753	3841.263530	22692.428533
19.034500	-0.001494	0.000040	-0.000100	0.003360	6843.376493	42487.841120	3836.285618	22594.680964
19.535000	-0.002418	-0.000384	0.002647	0.000929	6857.792595	42672.103766	3850.280568	22706.471044
20.038000	-0.000399	0.000215	0.000591	0.001052	6875.986319	42715.851510	3844.370409	22700.758736
20.535500	-0.001636	-0.000325	0.003965	0.000801	6866.508641	42689.228114	3854.216461	22712.333552
21.036000	-0.001777	-0.001260	-0.000854	0.000772	6865.434896	42605.963709	3841.222889	22713.674904
21.536500	0.000016	0.000015	0.000596	0.001191	6878.649829	42684.744616	3844.010676	22694.396803
22.037000	-0.000204	0.000495	0.005120	0.001463	6873.905333	42703.758570	3855.563284	22681.840483
22.537000	-0.001892	-0.000327	0.001743	0.001140	6860.799890	42657.902699	3847.252872	22696.706782
23.034000	-0.001231	0.000718	0.005346	0.002047	6858.457583	42670.614503	3854.587091	22654.994970
23.537500	-0.001700	0.000167	0.001980	0.001054	6863.475407	42711.241138	3848.128467	22700.693519
24.035000	-0.002490	-0.001385	0.001227	0.000307	6863.055336	42637.224011	3848.111185	22735.143600
24.537500	-0.000999	-0.000550	0.001282	0.000759	6873.030952	42672.439419	3847.036340	22714.283945
25.035500	-0.000887	0.000583	0.005570	0.001802	6864.097163	42680.729047	3855.868622	22666.255742
25.536000	-0.001194	-0.000153	0.004814	0.001061	6868.256910	42681.143033	3855.825725	22700.355562
26.036000	-0.001860	-0.000887	0.002234	0.000869	6863.713555	42631.402314	3849.322174	22709.235936
26.536500	-0.001256	0.000072	0.001530	0.001097	6867.319434	42698.509320	3846.790355	22698.694331
27.039500	-0.002856	-0.000764	0.001811	0.003867	6825.583225	42368.009320	3840.063283	22571.465159
27.536000	0.001721	-0.000030	0.002521	-0.001515	6921.315312	42930.231139	3856.598314	22819.416674
28.037500	0.001481	0.000207	-0.000215	-0.000745	6911.504375	42880.898857	3847.054070	22783.751667
28.535000	-0.000086	-0.000608	0.002910	-0.001179	6900.529473	42845.660213	3856.742273	22803.846223
29.035500	-0.002814	-0.000749	0.002306	0.004741	6817.686470	42289.657012	3839.043591	22531.503313
29.535500	0.001642	-0.000707	-0.003360	-0.001642	6921.791560	42879.453302	3840.975699	22825.338856
30.035500	0.000142	-0.000409	0.002820	-0.001637	6907.180197	42906.570117	3857.751068	22825.111056
30.536500	-0.004068	-0.000214	0.002241	0.002184	6830.066498	42572.433360	3845.773211	22648.690616
31.036000	-0.001215	-0.000652	-0.000320	0.004444	6835.706424	42325.548157	3832.786403	22545.053763
31.537500	-0.000536	0.000886	0.001320	-0.000458	6889.215283	42917.186831	3850.441723	22770.486140
32.042500	0.000245	0.000072	0.000387	-0.000758	6899.660675	42869.689188	3848.723065	22784.381405
32.537000	0.002019	-0.000864	0.004336	-0.000796	6917.228344	42786.749578	3859.599414	22786.132486
33.037500	-0.002902	0.000141	-0.004295	0.004881	6815.520749	42358.001637	3821.028520	22525.076016
33.538000	-0.001293	-0.000005	0.001312	0.001786	6860.358919	42628.099854	3844.335620	22666.987152
34.038000	-0.002437	-0.000826	0.001372	0.000962	6857.298659	42628.450394	3846.729728	22704.945145
34.535500	0.000509	0.000207	0.005181	0.001994	6875.666201	42628.502451	3854.280256	22657.416879
35.036000	-0.002623	-0.000025	0.000095	0.003611	6830.233548	42458.956885	3836.136185	22583.210799
35.536000	-0.000343	0.000419	0.001571	0.002127	6866.200480	42635.714844	3844.114956	22651.296676
36.036500	0.000962	0.000766	0.004948	0.002342	6876.676604	42647.871286	3852.698706	22641.435255
36.536500	-0.001098	-0.000072	0.001686	0.001810	6862.002738	42619.740920	3845.284030	22665.888487
37.037000	-0.001821	0.000544	0.006238	0.002928	6844.384129	42573.650928	3854.617439	22614.500398
37.536500	-0.001520	0.000532	0.005764	0.002266	6853.587194	42633.410354	3855.129394	22644.924966
38.034500	-0.001357	-0.000089	0.003108	0.001650	6861.048068	42632.904247	3849.573271	22673.237485
38.538000	-0.001311	0.000089	0.000450	0.001525	6862.688281	42660.794450	3842.711105	22679.000635
39.037500	-0.001924	-0.000560	0.004162	0.001839	6853.810817	42572.347190	3851.928373	22664.554895
39.535500	-0.000811	0.000749	0.001559	0.002370	6859.380039	42643.689401	3843.425390	22640.126234
40.035500	-0.001482	-0.000104	-0.003845	0.001530	6861.001921	42642.535591	3831.152489	22678.767359
40.536000	-0.002007	-0.000061	-0.000881	0.001530	6855.962604	42646.433183	3839.107746	22678.745249
41.036000	-0.001213	-0.000250	0.001311	0.002089	6858.228575	42577.793994	3843.515022	22653.065268
41.537000	-0.000325	0.000707	0.000993	0.002367	6864.064800	42640.154561	3841.902230	22640.255913
42.039000	-0.001797	0.000035	-0.002698	0.001819	6855.213325	42628.731060	3833.448995	22665.451629
42.537500	-0.000396	0.000152	-0.000598	0.001909	6867.787776	42631.235082	3838.848765	22661.339483
43.037500	-0.002211	0.000279	0.002307	0.003329	6836.844547	42512.656502	3842.854908	22596.124622
43.540500	0.002162	0.000131	0.003167	-0.002871	6938.821172	43070.949673	3862.082689	22882.388332
44.034500	0.002424	0.000856	0.002128	0.000010	6913.341134	42871.218605	3851.368856	22748.882502
44.535500	0.001719	0.000680	0.004771	-0.000031	6906.890910	42858.638693	3858.695192	22750.752255
45.035500	-0.001930	-0.000962	-0.003311	0.003218	6840.575973	42409.225852	3828.069572	22601.209903
45.536000	0.000718	0.000315	0.004047	-0.000781	6904.464658	42894.265066	3858.765733	22785.435101
46.036500	0.000339	-0.000898	-0.000812	-0.000944	6902.374632	42797.306746	3845.975852	22792.988795
46.536500	0.000165	-0.000395	-0.001191	-0.000833	6899.609438	42833.458690	3844.649151	22787.839656
47.037000	-0.001547	0.000227	0.001142	0.004856	6828.627329	42368.230824	3835.604848	22526.231743
47.537500	0.000225	0.000251	-0.001946	0.000772	6884.692730	42744.943571	3838.280246	22713.670750
48.034500	0.000980	0.000157	0.004504	-0.000332	6902.655025	42838.237887	3858.788955	22764.683617
48.536000	0.001191	0.000944	0.005852	0.000021	6901.277912	42878.287754	3861.515668	22748.339970
49.035500	-0.002491	-0.000083	-0.000888	0.005044	6817.871554	42322.674461	3829.661329	22517.620801
49.536000	0.001929	-0.000478	0.006777	-0.002378	6931.745239	42968.777625	3870.673428	22859.498272
50.036000	0.000537	0.000377	0.003630	-0.001499	6909.662033	42966.461801	3859.589344	22818.689022
50.536500	0.004171	0.001017	0.003804	-0.022275	7153.148811	45000.908417	3918.405524	23805.296886
51.039500	-0.067973	-0.027057	0.035971	0.277525	4590.172864	22593.827883	3343.877301	13275.057594
51.537000	-0.053265	-0.016024	0.001752	-0.003936	6439.905443	41693.089561	3861.123022	22931.997181
52.037000	-0.040678	-0.029480	-0.012206	-0.181003	8488.738619	59523.072662	4404.283849	33123.843610
52.537500	-0.019098	-0.023668	-0.003000	-0.169744	8627.997675	58815.150798	4396.103263	32344.840989
53.034000	-0.025906	-0.018862	-0.007550	-0.132580	8057.005688	54787.558765	4237.977660	29912.296720
53.535000	-0.016566	-0.019696	-0.000123	-0.154561	8457.746871	57385.597974	4347.865219	31325.813455
54.035500	-0.003740	-0.016540	-0.005305	-0.160204	8707.963278	58504.392052	4349.649995	31700.432331
54.536000	0.009811	-0.008806	0.005595	-0.147559	8720.503934	57877.162876	4342.911939	30867.764362
55.035500	0.013936	-0.005081	0.005049	-0.123122	8445.340260	55308.455873	4249.366635	29325.780640
55.537000	0.022017	-0.000311	0.012933	-0.105672	8322.686990	53795.240259	4214.947943	28276.563677
56.039500	0.004723	0.000154	0.023390	-0.028337	7221.512519	45510.056166	3994.380493	24102.146087
56.537000	0.017992	0.002496	0.023650	-0.044429	7537.883879	47365.344605	4045.217523	24910.614280
57.040000	0.029361	0.009046	0.023776	-0.037666	7589.479841	47343.486488	4024.353350	24567.187691
57.535000	0.038221	0.011428	0.038245	-0.011665	7400.190824	44981.537788	3988.851035	23295.563740
58.035000	0.043303	0.016729	0.046274	0.033860	6982.106829	41243.180976	3879.721863	21244.441025
58.535500	0.050494	0.019950	0.060528	0.050628	6888.677324	40060.038028	3872.736343	20541.500306
59.035000	0.058738	0.026019	0.077582	0.070149	6781.272440	38921.268446	3865.922789	19756.664573
59.535500	0.072385	0.033476	0.090852	0.082906	6789.649841	38482.158364	3867.336487	19262.490061
60.036500	0.082146	0.040063	0.100302	0.099108	6729.412736	37699.124870	3848.857849	18655.419855
60.537000	0.091456	0.046699	0.113339	0.110814	6707.236988	37293.146935	3852.477664	18230.712585
61.037000	0.099149	0.052927	0.125391	0.121661	6678.224197	36927.439950	3855.764720	17847.238996
61.540000	0.110698	0.061875	0.129391	0.151550	6513.650226	35317.101843	3787.115483	16838.823913
62.034500	0.118000	0.066275	0.143020	0.184980	6290.892171	33209.546749	3737.306494	15790.223994
62.535000	0.123974	0.068317	0.143482	0.191782	6284.042035	32877.205024	3721.830162	15586.552453
63.035000	0.127873	0.072393	0.152144	0.199258	6254.634322	32642.034792	3724.708631	15366.380037
63.542000	0.135840	0.074562	0.153434	0.200329	6311.550734	32717.770651	3725.239521	15335.126052
64.036000	0.142167	0.078857	0.162383	0.206871	6309.765656	32562.944545	3731.108194	15146.001687
64.538500	0.145261	0.080742	0.157252	0.210122	6308.462903	32469.265283	3710.816172	15053.070624
65.036500	0.147393	0.082997	0.165199	0.216755	6271.235611	32170.874047	3713.969786	14865.607551
65.537000	0.155382	0.086826	0.169830	0.218229	6325.241174	32330.991975	3721.591458	14824.339126
66.040000	0.160229	0.087984	0.172947	0.221679	6336.927310	32175.110790	3720.784322	14728.281392
66.537500	0.162780	0.091606	0.171199	0.227543	6309.275870	32023.539883	3702.520185	14566.778172
67.037500	0.160986	0.091773	0.178995	0.237577	6212.256593	31365.207913	3697.209066	14295.382594
67.535000	0.168055	0.094012	0.184682	0.236949	6275.094460	31554.969036	3712.262920	14312.199110
68.035500	0.172332	0.097242	0.191845	0.243724	6254.575032	31320.575598	3713.193806	14132.209146
68.536000	0.172306	0.097522	0.188373	0.248111	6218.623762	31051.385792	3694.476191	14017.161425
69.035500	0.176353	0.099416	0.190677	0.259478	6159.785658	30440.149638	3673.310966	13724.407760
69.536500	0.179678	0.100833	0.197218	0.258906	6190.985613	30567.389077	3689.887085	13738.962573
70.042000	0.183830	0.102963	0.199683	0.265257	6173.346400	30298.023727	3680.796201	13578.488318
70.537000	0.187040	0.105606	0.201602	0.271404	6149.924867	30076.419712	3670.998829	13425.391068
71.037000	0.185871	0.105016	0.198258	0.279974	6073.386876	29505.477213	3643.900018	13215.519159
71.535000	0.191844	0.108707	0.207923	0.282518	6100.138094	29576.362555	3660.007992	13154.022986
72.035000	0.194136	0.108740	0.212060	0.286707	6085.309333	29320.530187	3659.888460	13053.509533
72.535000	0.198493	0.110749	0.216257	0.293410	6067.063681	29034.668398	3654.190926	12894.724363
73.036000	0.196409	0.111329	0.218326	0.303073	5977.163619	28489.979549	3637.123284	12670.060370
73.536000	0.202951	0.113776	0.221143	0.303422	6024.256594	28614.794984	3642.635770	12662.031577
74.042000	0.208511	0.116446	0.230964	0.309300	6021.816162	28424.183056	3651.509967	12527.901996
74.536500	0.209301	0.115974	0.233848	0.312284	6005.079049	28220.527644	3651.286670	12460.520248
75.037000	0.209674	0.117614	0.231216	0.322555	5930.566656	27718.732309	3622.546509	12232.043923
75.537000	0.214674	0.120386	0.239152	0.321394	5976.747650	27946.140315	3642.719532	12257.596033
76.034500	0.219907	0.122753	0.241478	0.326790	5975.508733	27770.833038	3635.865044	12139.387464
76.535000	0.220540	0.123426	0.239288	0.329500	5959.874169	27653.596557	3625.021900	12080.574482
77.035000	0.220622	0.125185	0.240381	0.338869	5890.879120	27220.522828	3606.988738	11880.068961
77.535500	0.222888	0.126256	0.250825	0.336440	5925.572401	27418.743667	3635.190126	11931.627819
78.036000	0.228438	0.127162	0.250463	0.338207	5953.811554	27369.897570	3630.468784	11894.094295
78.536000	0.230204	0.129009	0.253526	0.342270	5936.629419	27244.344270	3628.256660	11808.322603
79.036500	0.234041	0.131705	0.257297	0.347355	5927.347992	27109.890954	3625.361580	11702.141204
79.536500	0.236395	0.131596	0.256446	0.348656	5935.183827	27030.857360	3620.638293	11675.168448
80.040000	0.236938	0.132932	0.263377	0.351656	5916.916830	26937.852133	3629.284856	11613.264562
80.537500	0.239918	0.134489	0.266560	0.355318	5911.873216	26820.782316	3628.228636	11538.309201
81.037500	0.240223	0.134812	0.259035	0.357102	5900.939175	26739.793691	3607.896266	11502.005764
81.535000	0.244918	0.135936	0.270135	0.359706	5916.402735	26658.126710	3626.434841	11449.306431
82.035500	0.248165	0.138938	0.271095	0.363059	5915.618969	26638.761556	3621.176172	11381.902511
82.535000	0.248592	0.140318	0.274830	0.364782	5906.029530	26619.909797	3625.594413	11347.463863
83.036000	0.247840	0.140009	0.271618	0.371015	5854.853688	26262.590659	3605.027178	11224.025929
83.536000	0.254688	0.143845	0.276911	0.370540	5908.525892	26497.404803	3617.533962	11233.371228
84.036500	0.257616	0.145963	0.278809	0.373133	5911.002540	26471.444070	3616.019064	11182.479861
84.539500	0.259607	0.145894	0.287962	0.374269	5917.335814	26405.677826	3633.653814	11160.295366
85.037000	0.260818	0.147023	0.285698	0.376318	5911.133324	26355.497302	3624.125872	11120.392962
85.537000	0.260434	0.147887	0.285732	0.377644	5898.502004	26330.357821	3621.289095	11094.677215
86.035000	0.263481	0.147755	0.287172	0.379008	5910.933072	26249.241186	3621.457394	11068.312507
86.535000	0.265285	0.150394	0.286830	0.381501	5905.838813	26257.087019	3615.262106	11020.316367
87.035500	0.263180	0.150324	0.288170	0.388039	5842.637794	25901.704455	3604.010549	10895.775589
87.535500	0.268730	0.151324	0.294655	0.384390	5909.946533	26151.185305	3626.072026	10965.050347
88.035500	0.271712	0.152317	0.292321	0.386204	5918.594741	26106.886831	3616.980161	10930.536102
88.536500	0.273411	0.153726	0.294795	0.388112	5917.049937	26080.055516	3618.215421	10894.397806
89.039500	0.272357	0.154563	0.299114	0.394531	5862.138174	25781.771837	3613.639020	10773.953502
89.537000	0.276547	0.156567	0.296245	0.392589	5907.127633	25992.242043	3611.628090	10810.208899
90.036500	0.278510	0.157406	0.298951	0.393853	5912.290816	25969.460538	3614.759395	10786.585649
90.537500	0.279162	0.156903	0.304285	0.394490	5912.403269	25908.553765	3625.038288	10774.716105
91.035000	0.279748	0.157449	0.299379	0.402508	5857.868098	25513.023922	3597.022396	10626.735358
91.535000	0.284218	0.159485	0.309131	0.399274	5914.421852	25791.303295	3625.176222	10686.099716
92.035500	0.284912	0.161465	0.306075	0.401874	5900.330166	25758.386830	3612.809557	10638.336103
92.536000	0.286424	0.161729	0.314645	0.403172	5901.907531	25703.561472	3628.736305	10614.591836
93.036000	0.287579	0.161630	0.310997	0.408477	5871.440155	25419.342554	3609.165023	10518.320836
93.536500	0.287644	0.162694	0.312534	0.406050	5889.703693	25602.575005	3617.780549	10562.224894
94.036500	0.291085	0.162752	0.310686	0.407960	5900.972575	25505.195631	3609.609139	10527.647844
94.537000	0.293210	0.165081	0.314631	0.410647	5896.832393	25486.386444	3612.337573	10479.277895
95.037500	0.290243	0.163585	0.310504	0.415639	5838.749596	25148.847050	3592.748406	10390.199078
95.535000	0.296288	0.166055	0.317729	0.413994	5894.856846	25362.392408	3611.799849	10419.452973
96.035000	0.295355	0.166343	0.321390	0.414964	5880.881122	25326.866615	3617.655165	10402.193368
96.535000	0.298979	0.168843	0.316705	0.418444	5881.931546	25275.903365	3599.996075	10340.599372
97.036000	0.303820	0.169489	0.319182	0.420992	5898.789018	25177.352089	3599.845351	10295.822402
97.536500	0.303088	0.170442	0.324793	0.422319	5883.650219	25157.990066	3609.067731	10272.601030
