sample name	sample
index	1190
start time	 04-26-2021  12:10:48 PM
880	0.484284
Peak Time (s)	92.035
Peak Height 	0.4843
calc peak height	90,93
Baseline Time (s)	9.537
Baseline Value 	-0.002677
subtract baseline	10,4
Abs	0.329619
Peak Time (s)	91.037
Peak Height 	0.3296
calc peak height	90,93
Baseline Time (s)	10.534
Baseline Value 	0.001297
subtract baseline	10,3
PK_550	0.174744
Peak Time (s)	90.037
Peak Height 	0.1747
calc peak height	90,93
Baseline Time (s)	9.537
Baseline Value 	8.3859E-5
subtract baseline	10,2
PK_880	0.311238
Peak Time (s)	92.035
Peak Height 	0.3112
calc peak height	90,93
Baseline Time (s)	9.037
Baseline Value 	-8.4236E-5
subtract baseline	10,1


Time (s)	A880-A510	A880-A775	A880-A975	A880	I510	I775	I975	I880	
0.036500	-0.001160	0.000237	0.004560	0.002368	6159.606947	43732.894760	3873.070979	22582.364359
0.534500	-0.006386	-0.000752	-0.005637	0.006198	6092.543916	43282.626572	3841.624090	22409.567158
1.037500	-0.001301	-0.000202	-0.000158	0.003552	6149.708507	43580.714437	3859.715418	22528.796268
1.536000	-0.001853	-0.000111	-0.000971	0.000882	6165.543422	43839.887643	3863.896160	22649.795591
2.035000	0.000109	0.000466	0.000445	0.001238	6177.602148	43860.750995	3866.292747	22633.634384
2.535500	-0.001546	-0.000178	-0.006166	0.004678	6139.496670	43477.689771	3843.813458	22477.974923
3.035500	0.000988	0.000399	0.000811	-0.001358	6203.852611	44099.725783	3873.017186	22751.916826
3.536000	0.000365	0.000461	0.005353	0.000537	6184.806493	43926.326350	3879.066638	22665.489887
4.036500	-0.000179	0.000395	0.000847	0.000453	6181.342664	43927.999928	3868.981211	22669.310161
4.537000	-0.001776	0.000244	0.004963	0.001281	6163.128139	43835.730478	3876.471404	22631.678723
5.040000	-0.002987	-0.000040	0.000696	0.000261	6161.701865	43905.139046	3869.075887	22678.083203
5.534500	-0.000607	0.000660	0.005018	0.000924	6174.585119	43908.685806	3877.414168	22647.922622
6.035000	-0.002120	0.000381	0.003293	0.000668	6165.148204	43906.461333	3874.058378	22659.554682
6.535500	-0.002271	0.000229	0.000767	0.000312	6166.674579	43925.690713	3869.119454	22675.723228
7.036000	-0.000118	0.000936	0.001410	0.000884	6178.562796	43938.440200	3869.282572	22649.733505
7.535500	-0.000953	-0.000399	-0.000307	0.000016	6178.805540	43894.361820	3867.356696	22689.223988
8.036000	-0.002790	0.000590	0.000688	0.000416	6162.016548	43950.008429	3868.705326	22671.020754
8.536500	-0.000386	-0.000422	-0.002605	-0.000397	6186.194870	43931.205652	3863.098336	22708.068959
9.036500	0.000000	-0.000651	-0.001178	-0.000656	6191.060714	43933.978035	3866.905902	22719.858698
9.537000	0.001110	0.000000	0.000421	0.000000	6194.492773	43933.544840	3869.043421	22689.955849
10.037500	0.001119	0.001385	0.004513	0.000648	6189.662454	44003.228123	3876.888545	22660.461399
10.534500	-0.003528	-0.000038	0.000000	0.003707	6131.983027	43581.480886	3859.721494	22521.765943
11.034500	-0.000695	0.000147	-0.001507	-0.000310	6183.212774	43976.794846	3865.380331	22704.102377
11.535500	0.000493	0.000572	0.000314	0.000536	6185.789919	43936.939512	3867.586603	22665.565124
12.035500	0.000577	0.000568	0.004082	-0.000074	6191.020347	43994.205134	3877.553014	22693.307914
12.536000	-0.001999	0.000417	-0.001646	0.003469	6145.120933	43646.376860	3856.563077	22532.528099
13.036000	-0.000683	-0.000223	0.005814	-0.001050	6188.874340	44011.675773	3883.771368	22737.831543
13.536500	-0.001659	-0.000496	0.003891	-0.000785	6179.525816	43960.848937	3878.746118	22725.764306
14.036500	-0.001463	0.000605	-0.002765	0.002501	6156.341493	43754.965499	3856.223931	22576.331691
14.540500	-0.003252	-0.000041	0.002611	0.003985	6131.966673	43555.214071	3864.977925	22509.214892
15.034000	0.001306	0.001205	0.007906	0.000264	6193.981840	44022.456661	3885.564251	22677.941434
15.534500	-0.001537	0.000751	-0.000596	-0.000976	6181.876868	44096.939978	3868.950037	22734.464981
16.035000	0.000335	0.000225	0.004532	-0.000852	6195.078263	44035.349338	3880.369290	22728.814906
16.535500	-0.003558	-0.000516	-0.003454	0.003129	6136.050628	43590.905666	3853.280531	22547.924206
17.035500	0.004372	0.000436	0.003105	-0.002815	6240.777326	44241.634163	3881.601159	22818.646007
17.536000	0.000662	0.001546	0.007298	0.001144	6182.475303	43971.487954	3882.137678	22637.901232
18.036500	-0.000603	0.000543	0.004379	0.000869	6175.018382	43902.718795	3876.077931	22650.390738
18.536500	-0.003421	-0.000040	0.003984	0.002086	6144.824284	43733.270056	3872.400571	22595.137137
19.039500	-0.001498	-0.000468	-0.002110	0.000127	6173.874428	43877.364493	3863.031168	22684.161177
19.537000	-0.001735	0.001047	0.001594	0.001417	6162.419770	43898.645822	3868.491806	22625.521852
20.037500	-0.001838	0.000419	-0.001729	0.001243	6162.950565	43855.870851	3861.374945	22633.408899
20.535000	0.000849	0.000201	0.000903	0.002860	6170.976869	43683.287635	3863.662276	22560.077053
21.035500	-0.002909	-0.000445	0.004095	0.000631	6159.507340	43832.027491	3875.970948	22661.211132
21.535500	-0.002238	-0.000189	-0.001054	0.001183	6160.405783	43804.281229	3863.033044	22636.148884
22.035500	-0.003053	-0.000014	0.000376	0.000891	6156.497278	43848.196186	3866.922582	22649.423676
22.536500	-0.002799	-0.000728	0.005629	0.002387	6147.221632	43640.467967	3875.464106	22581.483449
23.036500	-0.001216	-0.000259	0.003422	0.001458	6166.002871	43771.758333	3872.551588	22623.656490
23.537000	-0.001420	0.000008	0.000467	0.001258	6165.971200	43815.713794	3866.298152	22632.727180
24.037000	-0.001116	0.000433	0.000523	0.001408	6167.125234	43841.548477	3866.084030	22625.902879
24.534500	-0.000088	0.000197	0.005270	0.001000	6177.914854	43857.790378	3877.815610	22644.464043
25.034500	-0.000035	0.000166	0.002821	0.001172	6177.012754	43838.679376	3871.833326	22636.624189
25.535000	-0.001371	0.000189	-0.001555	0.000920	6168.878048	43864.639359	3862.494787	22648.099349
26.035500	-0.000384	0.000058	0.000580	0.001339	6173.141701	43812.770407	3866.370812	22629.053494
26.535000	-0.000982	0.000498	0.003826	0.001273	6169.140950	43860.354385	3873.891284	22632.019537
27.036000	0.003005	0.000307	0.004043	-0.001162	6217.695180	44072.500130	3879.958311	22742.986822
27.536000	-0.000347	0.000680	0.002778	-0.000681	6188.632733	44062.181641	3875.961325	22721.000257
28.037000	0.000400	0.000407	-0.003880	0.001967	6174.310408	43786.561857	3854.925187	22600.546384
28.540000	-0.001917	0.000337	0.003938	0.000245	6169.844378	43942.221813	3876.496502	22678.801469
29.037500	-0.002163	0.000475	0.001911	-0.000061	6170.290438	43984.236324	3872.570454	22692.746274
29.534500	0.001845	-0.000497	0.004983	-0.000378	6202.926499	43922.309793	3880.317218	22707.189310
30.035000	-0.001183	0.000241	-0.000676	0.002362	6159.475669	43733.784952	3861.227681	22582.641223
30.535000	-0.003246	0.000466	0.003128	0.002905	6140.031961	43703.900643	3868.593453	22558.030305
31.035000	-0.001812	0.000645	0.001014	0.002120	6156.578357	43794.492651	3865.583867	22593.589127
31.535000	0.001178	0.000177	0.002877	-0.000656	6199.977012	44012.338601	3876.131656	22719.888209
32.039000	-0.002754	-0.000544	-0.000406	0.002150	6149.318872	43679.971864	3862.311168	22592.235111
32.536500	-0.005596	0.000064	0.002883	0.004771	6108.827361	43491.548044	3863.819163	22473.767878
33.036000	-0.001848	0.000551	0.007538	-0.000383	6175.082366	44021.848508	3886.210455	22707.434738
33.537000	-0.002587	0.000008	-0.001473	-0.000770	6172.430120	44007.042073	3866.496059	22725.049202
34.037000	-0.000507	0.000142	-0.003462	0.000832	6176.021176	43868.430310	3858.404124	22652.089362
34.535000	-0.002745	0.001187	0.005073	0.002661	6145.578356	43794.597645	3873.571279	22569.068723
35.035000	-0.001787	0.000301	0.005757	0.001708	6159.845046	43800.848434	3877.308837	22612.275846
35.535000	-0.001650	0.000068	0.006136	0.001586	6161.792036	43790.501949	3878.456410	22617.841274
36.036000	-0.003205	0.000793	0.000431	0.002584	6142.729514	43764.828785	3863.222895	22572.593001
36.536000	-0.003261	-0.000070	0.001384	0.001817	6148.030497	43755.780325	3867.108766	22607.355286
37.036000	-0.000328	0.000219	0.004553	0.001722	6170.674243	43791.816088	3874.525542	22611.632421
37.536500	-0.002281	0.000749	0.004026	0.002217	6152.356257	43795.236870	3872.198843	22589.212275
38.039500	0.000054	0.000968	-0.001129	0.002272	6169.420059	43810.640454	3860.409115	22586.706559
38.537000	-0.002358	0.000364	0.001156	0.003607	6141.423204	43628.525944	3862.550027	22526.305232
39.037500	-0.000091	0.000324	-0.001913	0.002135	6169.364622	43762.985064	3858.956652	22592.931955
39.535000	-0.002048	-0.000159	-0.000251	0.001469	6159.685408	43780.129371	3864.196403	22623.120214
40.035500	-0.000260	0.000904	0.003988	0.002295	6166.892915	43802.403688	3871.932942	22585.660624
40.535500	-0.000691	0.000637	-0.000515	0.003331	6155.912825	43679.997517	3859.409477	22538.782044
41.036000	-0.001121	0.000385	0.007161	0.001848	6163.782900	43795.569814	3880.204899	22605.918006
41.535500	-0.000731	0.000265	0.000266	0.001683	6167.950454	43799.922811	3864.882354	22613.442975
42.036000	-0.001339	0.000978	0.004350	0.002319	6158.634095	43807.195373	3872.705014	22584.597098
42.537000	-0.003476	0.000672	0.000471	0.003152	6136.487695	43700.060839	3862.029946	22546.856526
43.037000	-0.004681	0.000539	-0.001171	0.001927	6136.637649	43802.717771	3861.090643	22602.343434
43.534000	-0.004766	0.001062	0.004419	0.002490	6131.831640	43798.958827	3872.472473	22576.851119
44.037500	0.001151	0.000878	0.003455	-0.001629	6207.145833	44170.863831	3879.679345	22764.299008
44.535500	-0.003532	0.000095	0.003664	0.003304	6134.946596	43631.741501	3868.905109	22539.996458
45.035500	-0.000598	0.000357	0.005746	0.000103	6180.829113	43957.518096	3880.963733	22685.263570
45.535500	0.001263	0.000576	0.001107	-0.000435	6198.944968	44029.054310	3871.589665	22709.776512
46.036000	-0.001855	0.000799	-0.002128	0.005028	6134.593226	43536.203632	3851.999827	22462.177061
46.536500	-0.002990	-0.000249	-0.001961	0.003590	6136.849958	43572.706097	3855.586798	22527.076648
47.036500	0.000115	0.000316	0.004219	0.000009	6186.907983	43962.593542	3877.678106	22689.559776
47.539500	-0.000352	0.001151	-0.000517	0.003268	6158.919033	43734.199103	3859.547118	22541.639191
48.037000	-0.002429	0.000833	-0.001404	0.004966	6130.795545	43545.186887	3853.755373	22464.988696
48.535500	-0.000379	0.000987	-0.000661	0.004160	6152.045675	43635.092867	3857.222519	22501.327632
49.035000	-0.000485	-0.000229	0.002150	-0.000352	6185.107786	43945.148684	3873.778362	22706.015864
49.535000	-0.000069	0.000970	0.006105	0.000098	6184.852443	44015.971971	3881.799806	22685.492065
50.038000	-0.004389	-0.000164	0.001168	0.003418	6127.742152	43596.672102	3863.001492	22534.818618
50.535500	-0.001854	-0.000182	-0.000619	0.006280	6125.320545	43328.043994	3852.574664	22405.911940
51.035500	0.008564	-0.004321	0.005230	0.029430	6032.423465	40867.751643	3814.735872	21393.519865
51.536000	0.022819	-0.021633	0.010910	0.186465	5157.539803	28323.881004	3540.761324	15782.927245
52.036500	0.006427	-0.018234	0.005037	-0.066267	6783.059544	48728.768669	4043.739962	25951.702794
52.549000	0.007437	-0.028277	0.011152	-0.141741	7528.912638	56175.543584	4283.492451	30326.361918
53.034000	0.029284	-0.012898	0.035893	-0.052700	6866.803560	47868.870188	4090.851468	25242.792486
53.534500	0.045533	-0.002264	0.051998	0.023182	6359.136607	41600.150233	3935.622082	21661.461912
54.035000	0.061429	0.008821	0.068963	0.083551	6023.407460	37451.760733	3835.569835	19227.031377
54.536000	0.070720	0.024716	0.077237	0.093776	6016.717605	37905.430935	3831.306587	18847.210479
55.034500	0.102760	0.042301	0.113291	0.157978	5794.953697	34345.785448	3771.834338	16656.107468
55.536500	0.130987	0.057021	0.132922	0.138867	6127.204687	36890.768147	3854.705729	17274.819358
56.036000	0.156292	0.076445	0.164616	0.171648	6072.296530	35862.215702	3852.277812	16229.947001
56.536500	0.174563	0.090286	0.187871	0.213628	5904.282892	33796.163445	3811.403286	15002.020669
57.036000	0.199969	0.106109	0.210186	0.235032	5931.996932	33401.994781	3813.350198	14420.164439
57.533500	0.218396	0.117195	0.225480	0.264173	5858.355067	32161.248104	3784.177196	13672.726684
58.034500	0.234960	0.124994	0.240970	0.300713	5725.807804	30289.386726	3741.569587	12803.666062
58.534500	0.249009	0.134093	0.260826	0.336022	5591.284399	28687.136245	3711.582822	12030.576962
59.035000	0.262669	0.141245	0.268285	0.365944	5492.738600	27371.601910	3669.849982	11422.883096
59.535500	0.270308	0.144914	0.278790	0.389985	5397.009674	26251.554044	3645.722956	10964.055004
60.035500	0.277775	0.150532	0.286293	0.413284	5307.981128	25321.191385	3618.505284	10542.996605
60.536000	0.278094	0.153053	0.297285	0.426854	5235.916430	24758.741855	3614.154727	10307.961952
61.036500	0.282899	0.157122	0.292082	0.454135	5118.601150	23622.729788	3561.510613	9857.115216
61.539000	0.285910	0.154934	0.305530	0.453988	5134.722091	23525.713588	3583.064800	9859.468454
62.036500	0.285614	0.161263	0.300790	0.439461	5208.827753	24538.846812	3599.005215	10096.091879
62.537000	0.290753	0.169259	0.300884	0.463135	5112.779303	23772.725317	3561.200834	9714.483225
63.036500	0.289113	0.170455	0.300425	0.459785	5121.468965	23992.047639	3565.726971	9767.228765
63.535000	0.292667	0.172708	0.300229	0.454810	5165.331467	24345.490608	3573.274641	9846.316391
64.038000	0.287062	0.170330	0.297042	0.455871	5130.975596	24176.583150	3566.560720	9829.362437
64.536000	0.287061	0.173690	0.302824	0.455717	5131.760301	24349.178964	3575.958525	9831.823243
65.038500	0.293153	0.175032	0.308488	0.448649	5200.115313	24767.958938	3596.554250	9945.505126
65.539000	0.294955	0.177921	0.312554	0.450608	5199.290291	24814.819095	3600.020931	9913.816988
66.036500	0.292841	0.176599	0.305794	0.453871	5171.117987	24584.991480	3583.678247	9861.340552
66.537000	0.297260	0.178490	0.302966	0.449316	5218.327318	24908.777064	3586.467170	9934.698450
67.037000	0.294920	0.176997	0.309070	0.449229	5206.387321	24837.738736	3596.558829	9936.118316
67.537000	0.298447	0.178996	0.310210	0.450949	5215.954971	24851.813477	3595.606598	9908.306338
68.038000	0.297187	0.179289	0.318425	0.458331	5170.521627	24496.895785	3596.972132	9790.238430
68.535000	0.293541	0.179310	0.305698	0.460422	5140.856644	24394.355821	3573.045336	9757.162916
69.035500	0.298452	0.179275	0.315390	0.456987	5184.149664	24563.071217	3594.202746	9811.598954
69.535500	0.296529	0.179758	0.310778	0.460056	5158.153456	24434.658704	3581.745915	9762.944321
70.035500	0.290386	0.178255	0.296767	0.467750	5087.654463	23984.053563	3547.715670	9642.486689
70.536500	0.293163	0.178617	0.306616	0.471020	5085.182805	23843.529562	3557.851430	9591.927559
71.039500	0.291947	0.179869	0.307872	0.469194	5088.240892	23992.281539	3562.651868	9620.110612
71.537000	0.297896	0.180490	0.304768	0.472169	5103.205822	23878.423855	3553.213197	9574.247762
72.037000	0.294335	0.179907	0.302494	0.480740	5042.784325	23441.522663	3536.701233	9443.880907
72.537500	0.291439	0.179082	0.309606	0.483679	5014.322438	23264.525036	3543.007188	9399.765257
73.035000	0.295839	0.178752	0.302234	0.479925	5054.206769	23425.472420	3537.536858	9456.169085
73.535500	0.295031	0.177250	0.306923	0.481151	5044.188365	23297.158949	3542.771342	9437.696090
74.035000	0.295759	0.177666	0.305828	0.490241	5003.482224	22894.394301	3527.494327	9302.336392
74.535500	0.292032	0.177557	0.312154	0.492611	4974.302976	22780.772824	3533.385930	9267.517405
75.036500	0.297875	0.176209	0.306335	0.487271	5028.146824	22964.099226	3532.669768	9346.257267
75.536500	0.300385	0.177702	0.310190	0.490290	5025.668299	22893.813431	3533.920348	9301.620051
76.036500	0.301192	0.176937	0.310332	0.490655	5027.820185	22841.913150	3533.585713	9296.242509
76.537000	0.295685	0.176122	0.319859	0.496309	4974.087901	22547.533270	3539.407805	9213.550440
77.034000	0.302807	0.176542	0.310503	0.491844	5029.900083	22769.438184	3532.064721	9278.767408
77.534000	0.302914	0.175528	0.310456	0.491645	5031.392317	22732.277999	3532.292528	9281.688780
78.035000	0.302061	0.176601	0.320239	0.492240	5024.332096	22754.067249	3546.160268	9272.955919
78.535000	0.301266	0.176218	0.316363	0.497198	4996.508270	22511.768907	3532.820784	9200.642934
79.035500	0.302701	0.175258	0.318076	0.490277	5037.041136	22782.352504	3545.854930	9301.806791
79.536000	0.308852	0.177731	0.316833	0.491434	5061.646941	22842.640193	3542.206868	9284.790842
80.039000	0.309034	0.177503	0.312724	0.490743	5065.972008	22863.868257	3537.042634	9294.946754
80.539000	0.306273	0.176757	0.309275	0.489455	5058.677789	22888.790354	3533.800369	9313.939903
81.037000	0.303803	0.175884	0.317412	0.487953	5053.891741	22917.696927	3548.390880	9336.143889
81.537000	0.307707	0.176834	0.318255	0.488287	5071.586340	22946.018365	3549.170544	9331.194635
82.037500	0.308452	0.175618	0.317631	0.486297	5085.242243	22981.779102	3551.267249	9360.724363
82.535000	0.307135	0.177785	0.310114	0.486954	5075.377994	23051.587428	3538.819973	9350.962026
83.035500	0.307371	0.175998	0.320284	0.484754	5087.559055	23070.745964	3557.748423	9383.713245
83.535500	0.304894	0.176576	0.317700	0.484735	5075.271371	23098.439840	3553.779324	9383.995341
84.037000	0.306158	0.176547	0.314729	0.488358	5063.537407	22929.557615	3543.682397	9330.152671
84.536000	0.306529	0.175825	0.323125	0.482970	5092.284973	23145.543510	3564.965434	9410.378006
85.039500	0.308537	0.176146	0.320259	0.482679	5103.873034	23174.089346	3560.938032	9414.746915
85.537000	0.308653	0.175031	0.320976	0.481614	5109.840637	23171.731919	3563.722290	9430.728874
86.037000	0.305015	0.174189	0.318746	0.482893	5085.076675	23073.152573	3558.248879	9411.534305
86.537000	0.304617	0.175223	0.322180	0.487047	5062.394985	22928.943676	3557.132566	9349.574108
87.034500	0.311107	0.175534	0.317471	0.481730	5121.718082	23189.805786	3558.075175	9428.987295
87.535000	0.310026	0.175013	0.319085	0.480578	5122.079900	23219.234286	3562.384780	9446.321138
88.035000	0.311252	0.175432	0.315410	0.483583	5113.038351	23098.810063	3552.026325	9401.211297
88.535500	0.310548	0.174561	0.328881	0.480715	5124.046258	23191.757301	3577.649537	9444.266119
89.036000	0.309954	0.175119	0.319498	0.480641	5121.393469	23221.278088	3562.932642	9445.377027
89.536000	0.310141	0.173429	0.328870	0.479369	5128.835271	23201.754583	3579.786386	9464.564768
90.036500	0.308997	0.174744	0.317292	0.483231	5103.403061	23083.200338	3555.471610	9406.473481
90.537000	0.309416	0.173453	0.326717	0.480431	5119.724797	23153.379840	3574.651897	9448.541420
91.037000	0.309795	0.173366	0.329619	0.481003	5118.740136	23122.698083	3578.367886	9439.924010
91.534500	0.309307	0.172312	0.319839	0.480442	5119.115937	23099.813049	3563.777735	9448.380098
92.034500	0.311238	0.172547	0.328345	0.484284	5109.412809	22932.961442	3571.119614	9390.718421
92.535000	0.309750	0.172517	0.327061	0.481846	5114.233937	23044.185702	3572.949765	9427.252247
93.035500	0.312032	0.171733	0.331328	0.482904	5120.451052	22959.074392	3578.061032	9411.373976
93.535500	0.308790	0.171000	0.318129	0.482622	5105.439826	22938.260936	3557.713789	9415.603101
94.036000	0.312592	0.170922	0.321196	0.486370	5105.708805	22762.779360	3556.655693	9359.630242
94.539000	0.311698	0.171398	0.326189	0.491024	5077.835768	22572.902586	3557.182296	9290.815422
95.036500	0.312621	0.170446	0.323874	0.486010	5107.675756	22757.465930	3561.379961	9364.987361
95.534000	0.313528	0.170617	0.324078	0.487350	5105.487653	22704.185390	3559.610660	9345.084936
96.037500	0.308250	0.169159	0.323904	0.489154	5069.973895	22556.213410	3556.539087	9318.379353
96.535000	0.313233	0.171009	0.323849	0.495348	5063.959602	22360.922811	3546.927004	9227.536250
