sample name	sample
index	1358
start time	 05-03-2021  01:47:06 PM


Wavelength (nm)	Absorbance
494.344910	0.111266
494.563924	0.111266
494.782919	0.111266
495.001897	1.733219
495.220856	0.061766
495.439797	0.066533
495.658719	0.044198
495.877624	-0.000602
496.096510	-0.055115
496.315378	-0.073121
496.534227	-0.052955
496.753059	-0.014139
496.971872	0.014662
497.190667	0.083243
497.409444	0.097375
497.628203	0.101623
497.846943	0.105983
498.065665	0.107648
498.284369	0.109532
498.503055	0.107438
498.721723	0.106785
498.940372	0.107288
499.159003	0.107780
499.377616	0.108470
499.596210	0.109220
499.814787	0.108699
500.033345	0.108087
500.251885	0.106749
500.470406	0.108607
500.688910	0.108394
500.907395	0.108878
501.125862	0.108237
501.344311	0.107916
501.562742	0.107427
501.781154	0.106802
501.999548	0.106313
502.217924	0.105889
502.436282	0.105131
502.654621	0.106058
502.872942	0.105444
503.091245	0.105450
503.309530	0.104406
503.527797	0.104481
503.746045	0.106180
503.964275	0.106383
504.182487	0.107915
504.400681	0.108872
504.618856	0.108679
504.837013	0.108716
505.055152	0.109384
505.273273	0.111225
505.491376	0.111765
505.709460	0.111526
505.927526	0.112074
506.145574	0.112504
506.363604	0.111783
506.581615	0.112466
506.799608	0.112933
507.017583	0.113193
507.235540	0.112192
507.453478	0.111668
507.671399	0.112358
507.889301	0.112561
508.107185	0.112476
508.325050	0.112747
508.542898	0.112005
508.760727	0.111569
508.978538	0.111230
509.196330	0.111761
509.414105	0.112867
509.631861	0.111851
509.849599	0.112553
510.067319	0.111384
510.285021	0.112158
510.502704	0.112575
510.720369	0.112575
510.938016	0.113154
511.155645	0.112364
511.373255	0.111701
511.590848	0.112348
511.808422	0.111929
512.025977	0.112178
512.243515	0.111930
512.461034	0.112546
512.678536	0.112968
512.896018	0.112750
513.113483	0.113672
513.330930	0.114025
513.548358	0.113640
513.765768	0.114845
513.983160	0.116455
514.200533	0.115673
514.417889	0.115423
514.635226	0.115047
514.852545	0.115912
515.069845	0.114924
515.287128	0.114743
515.504392	0.114908
515.721638	0.113324
515.938866	0.112409
516.156075	0.113371
516.373267	0.114003
516.590440	0.113811
516.807594	0.113192
517.024731	0.114424
517.241850	0.113917
517.458950	0.114099
517.676032	0.114848
517.893095	0.114488
518.110141	0.114469
518.327168	0.114587
518.544177	0.115686
518.761168	0.116426
518.978141	0.116250
519.195095	0.116590
519.412031	0.116410
519.628949	0.116809
519.845849	0.117556
520.062731	0.117792
520.279594	0.116989
520.496439	0.116887
520.713266	0.115352
520.930074	0.116352
521.146865	0.117432
521.363637	0.117994
521.580391	0.118421
521.797127	0.119516
522.013844	0.119677
522.230543	0.120896
522.447224	0.121273
522.663887	0.123014
522.880532	0.123132
523.097158	0.123371
523.313766	0.123536
523.530356	0.123594
523.746928	0.122876
523.963481	0.123189
524.180017	0.123116
524.396534	0.123786
524.613032	0.123033
524.829513	0.122842
525.045975	0.122675
525.262420	0.123179
525.478845	0.123137
525.695253	0.123158
525.911643	0.122793
526.128014	0.122892
526.344367	0.122906
526.560702	0.123565
526.777018	0.123761
526.993316	0.124133
527.209597	0.124370
527.425858	0.125398
527.642102	0.126168
527.858328	0.127126
528.074535	0.127221
528.290724	0.127366
528.506894	0.127678
528.723047	0.128576
528.939181	0.129106
529.155297	0.129027
529.371395	0.129280
529.587475	0.129740
529.803536	0.130375
530.019579	0.130805
530.235604	0.131834
530.451611	0.132383
530.667600	0.132653
530.883570	0.133457
531.099522	0.134753
531.315456	0.134744
531.531372	0.134432
531.747269	0.134205
531.963148	0.134534
532.179009	0.134270
532.394852	0.134412
532.610676	0.134684
532.826482	0.134474
533.042271	0.134175
533.258040	0.134495
533.473792	0.134498
533.689525	0.135360
533.905240	0.135750
534.120937	0.135997
534.336616	0.136650
534.552277	0.136714
534.767919	0.137172
534.983543	0.138329
535.199149	0.138671
535.414736	0.140095
535.630306	0.140052
535.845857	0.140427
536.061390	0.140516
536.276904	0.140543
536.492401	0.140910
536.707879	0.141074
536.923339	0.140482
537.138781	0.141254
537.354204	0.141023
537.569610	0.141637
537.784997	0.141841
538.000366	0.142537
538.215716	0.143216
538.431049	0.143210
538.646363	0.143418
538.861659	0.144135
539.076937	0.143690
539.292196	0.143601
539.507438	0.143805
539.722661	0.143983
539.937866	0.144667
540.153052	0.144642
540.368221	0.145399
540.583371	0.145824
540.798503	0.145742
541.013617	0.146120
541.228712	0.146743
541.443789	0.147151
541.658848	0.147817
541.873889	0.147894
542.088912	0.147840
542.303916	0.147976
542.518902	0.148333
542.733870	0.148874
542.948820	0.149056
543.163752	0.149560
543.378665	0.149740
543.593560	0.149747
543.808437	0.149402
544.023295	0.149631
544.238136	0.149984
544.452958	0.150124
544.667762	0.150183
544.882548	0.150619
545.097315	0.150237
545.312064	0.150134
545.526795	0.150231
545.741508	0.150691
545.956203	0.151443
546.170879	0.151085
546.385537	0.151332
546.600177	0.151687
546.814799	0.151723
547.029402	0.152069
547.243988	0.152003
547.458555	0.152407
547.673103	0.152533
547.887634	0.152951
548.102146	0.153590
548.316640	0.153207
548.531116	0.153425
548.745574	0.153926
548.960013	0.154412
549.174435	0.155028
549.388838	0.154971
549.603222	0.155455
549.817589	0.155143
550.031937	0.155186
550.246267	0.156265
550.460579	0.156782
550.674873	0.156835
550.889148	0.157175
551.103405	0.156947
551.317644	0.157135
551.531865	0.157397
551.746068	0.157640
551.960252	0.157614
552.174418	0.157722
552.388566	0.157369
552.602696	0.157590
552.816807	0.157716
553.030900	0.158580
553.244975	0.159260
553.459032	0.159297
553.673070	0.159745
553.887091	0.160328
554.101093	0.160669
554.315077	0.160892
554.529042	0.160885
554.742990	0.161135
554.956919	0.161123
555.170830	0.161127
555.384722	0.161050
555.598597	0.161042
555.812453	0.161381
556.026291	0.161264
556.240111	0.161912
556.453913	0.162374
556.667696	0.162578
556.881461	0.162851
557.095208	0.162782
557.308937	0.163319
557.522647	0.163850
557.736339	0.163634
557.950013	0.163769
558.163669	0.163749
558.377307	0.164240
558.590926	0.164207
558.804527	0.164489
559.018110	0.164474
559.231675	0.164286
559.445221	0.164040
559.658749	0.164372
559.872259	0.164331
560.085751	0.164154
560.299225	0.163669
560.512680	0.163228
560.726117	0.163000
560.939536	0.163345
561.152937	0.163685
561.366319	0.163974
561.579683	0.163994
561.793029	0.164010
562.006357	0.164292
562.219667	0.164508
562.432958	0.165331
562.646231	0.165664
562.859486	0.165787
563.072723	0.165650
563.285941	0.166036
563.499141	0.166214
563.712323	0.166792
563.925487	0.167052
564.138632	0.167107
564.351760	0.167156
564.564869	0.167206
564.777960	0.167428
564.991032	0.167904
565.204087	0.167564
565.417123	0.167387
565.630141	0.167353
565.843140	0.167452
566.056122	0.167615
566.269085	0.167471
566.482030	0.167621
566.694957	0.167873
566.907866	0.167822
567.120756	0.168067
567.333628	0.168629
567.546482	0.168861
567.759318	0.168853
567.972135	0.169024
568.184935	0.169807
568.397716	0.169864
568.610478	0.169805
568.823223	0.170097
569.035949	0.170060
569.248657	0.169695
569.461347	0.169530
569.674019	0.169585
569.886672	0.169398
570.099308	0.169248
570.311925	0.169104
570.524523	0.168786
570.737104	0.168616
570.949666	0.169050
571.162210	0.169474
571.374736	0.170150
571.587244	0.170411
571.799733	0.170935
572.012205	0.170802
572.224658	0.170987
572.437092	0.171673
572.649509	0.171485
572.861907	0.171591
573.074287	0.171489
573.286649	0.170907
573.498993	0.171224
573.711318	0.171048
573.923625	0.170905
574.135914	0.171318
574.348185	0.171371
574.560438	0.171537
574.772672	0.171470
574.984888	0.171751
575.197086	0.171710
575.409266	0.171232
575.621427	0.171762
575.833570	0.172142
576.045695	0.171882
576.257802	0.171876
576.469890	0.172302
576.681961	0.172475
576.894013	0.172398
577.106046	0.172755
577.318062	0.172935
577.530059	0.172331
577.742039	0.172421
577.954000	0.172579
578.165942	0.172207
578.377867	0.172484
578.589773	0.172616
578.801661	0.173030
579.013531	0.172865
579.225382	0.172911
579.437216	0.173364
579.649031	0.173497
579.860828	0.173723
580.072606	0.174021
580.284367	0.173994
580.496109	0.173760
580.707833	0.173846
580.919539	0.173970
581.131227	0.174001
581.342896	0.173978
581.554547	0.174010
581.766180	0.173733
581.977795	0.174209
582.189391	0.174120
582.400969	0.174320
582.612529	0.174128
582.824071	0.174096
583.035595	0.174319
583.247100	0.174309
583.458587	0.174892
583.670056	0.175253
583.881506	0.175349
584.092939	0.175714
584.304353	0.176312
584.515749	0.176729
584.727127	0.177308
584.938486	0.177753
585.149828	0.177944
585.361151	0.177473
585.572456	0.177524
585.783742	0.177757
585.995011	0.177634
586.206261	0.177545
586.417493	0.177739
586.628706	0.177647
586.839902	0.177736
587.051079	0.177947
587.262238	0.177914
587.473379	0.178040
587.684502	0.177940
587.895606	0.178085
588.106692	0.178149
588.317760	0.178142
588.528810	0.178211
588.739841	0.178150
588.950855	0.178647
589.161850	0.179197
589.372827	0.179606
589.583785	0.179619
589.794726	0.180052
590.005648	0.180281
590.216552	0.180221
590.427437	0.180315
590.638305	0.180604
590.849154	0.180620
591.059985	0.180874
591.270798	0.180671
591.481592	0.181031
591.692369	0.181068
591.903127	0.180941
592.113867	0.181277
592.324588	0.181980
592.535292	0.182073
592.745977	0.182085
592.956644	0.182509
593.167293	0.182524
593.377923	0.182573
593.588536	0.182796
593.799130	0.183112
594.009706	0.183037
594.220263	0.182916
594.430803	0.183150
594.641324	0.183198
594.851827	0.183081
595.062312	0.183717
595.272778	0.184007
595.483227	0.184083
595.693657	0.183889
595.904069	0.184121
596.114462	0.184404
596.324838	0.184321
596.535195	0.184768
596.745534	0.184421
596.955855	0.184474
597.166157	0.184511
597.376441	0.184429
597.586707	0.184652
597.796955	0.185026
598.007185	0.185062
598.217396	0.185197
598.427589	0.185242
598.637764	0.185634
598.847921	0.185767
599.058060	0.185886
599.268180	0.186088
599.478282	0.186617
599.688366	0.186775
599.898431	0.186893
600.108479	0.187534
600.318508	0.187853
600.528519	0.188349
600.738511	0.188213
600.948486	0.188554
601.158442	0.188842
601.368380	0.188830
601.578300	0.188859
601.788202	0.188987
601.998085	0.188857
602.207950	0.189195
602.417797	0.188914
602.627626	0.189484
602.837436	0.189698
603.047228	0.189851
603.257002	0.189939
603.466758	0.190102
603.676496	0.190443
603.886215	0.190318
604.095916	0.190200
604.305599	0.190430
604.515264	0.190183
604.724910	0.189933
604.934538	0.190406
605.144148	0.190326
605.353740	0.190313
605.563314	0.190064
605.772869	0.190536
605.982406	0.190675
606.191925	0.190765
606.401425	0.191084
606.610908	0.191350
606.820372	0.191321
607.029818	0.191795
607.239246	0.191939
607.448655	0.192325
607.658047	0.192375
607.867420	0.192399
608.076775	0.192636
608.286111	0.192809
608.495430	0.192873
608.704730	0.192857
608.914012	0.193032
609.123275	0.193051
609.332521	0.192966
609.541748	0.192862
609.750957	0.192704
609.960148	0.192717
610.169321	0.192614
610.378475	0.192842
610.587611	0.192847
610.796729	0.192347
611.005829	0.192637
611.214910	0.192826
611.423974	0.193051
611.633019	0.193268
611.842045	0.193193
612.051054	0.193545
612.260044	0.193766
612.469017	0.194072
612.677970	0.194894
612.886906	0.195109
613.095824	0.195225
613.304723	0.195427
613.513604	0.195655
613.722467	0.195882
613.931311	0.196104
614.140138	0.196022
614.348946	0.195754
614.557736	0.195629
614.766507	0.195757
614.975261	0.196084
615.183996	0.196190
615.392713	0.196384
615.601412	0.196495
615.810092	0.196687
616.018754	0.196698
616.227399	0.196996
616.436024	0.196991
616.644632	0.196785
616.853222	0.196724
617.061793	0.196767
617.270346	0.196826
617.478880	0.197197
617.687397	0.197118
617.895895	0.197407
618.104375	0.197549
618.312837	0.197823
618.521281	0.197798
618.729706	0.197931
618.938113	0.198281
619.146502	0.198654
619.354873	0.198524
619.563226	0.198949
619.771560	0.199059
619.979876	0.199130
620.188174	0.199173
620.396453	0.199693
620.604715	0.199946
620.812958	0.199760
621.021183	0.199721
621.229390	0.200145
621.437578	0.200095
621.645748	0.200494
621.853900	0.200774
622.062034	0.201056
622.270150	0.200976
622.478247	0.200966
622.686326	0.201446
622.894387	0.201528
623.102430	0.201589
623.310454	0.201520
623.518461	0.201462
623.726449	0.201663
623.934418	0.201870
624.142370	0.202121
624.350303	0.202790
624.558218	0.203091
624.766115	0.203271
624.973994	0.203474
625.181855	0.203997
625.389697	0.204145
625.597521	0.203932
625.805327	0.203934
626.013114	0.204253
626.220883	0.204107
626.428634	0.203866
626.636367	0.204182
626.844082	0.204221
627.051778	0.203866
627.259457	0.204132
627.467117	0.204657
627.674758	0.204831
627.882382	0.204881
628.089987	0.204959
628.297574	0.205155
628.505143	0.205091
628.712694	0.205504
628.920226	0.205800
629.127740	0.205776
629.335236	0.205873
629.542714	0.206144
629.750174	0.206369
629.957615	0.206405
630.165038	0.206661
630.372443	0.206934
630.579829	0.206892
630.787198	0.207197
630.994548	0.207488
631.201880	0.207711
631.409194	0.207693
631.616489	0.207943
631.823766	0.208272
632.031025	0.208394
632.238266	0.208647
632.445489	0.208861
632.652693	0.208954
632.859879	0.209012
633.067047	0.209103
633.274197	0.209165
633.481329	0.209080
633.688442	0.209158
633.895537	0.209432
634.102614	0.209404
634.309672	0.209421
634.516713	0.209547
634.723735	0.209736
634.930739	0.209863
635.137724	0.210316
635.344692	0.210370
635.551641	0.210376
635.758572	0.210242
635.965485	0.210473
636.172379	0.210747
636.379256	0.210736
636.586114	0.210844
636.792954	0.210985
636.999775	0.210899
637.206579	0.211146
637.413364	0.211354
637.620131	0.211625
637.826880	0.211657
638.033610	0.211562
638.240323	0.211741
638.447017	0.211800
638.653692	0.211363
638.860350	0.211453
639.066990	0.211493
639.273611	0.211460
639.480214	0.211428
639.686798	0.211536
639.893365	0.211485
640.099913	0.211716
640.306443	0.211888
640.512955	0.212781
640.719449	0.212773
640.925924	0.213141
641.132381	0.213423
641.338820	0.213829
641.545241	0.214021
641.751644	0.214521
641.958028	0.214687
642.164394	0.214851
642.370742	0.214827
642.577071	0.215183
642.783383	0.215480
642.989676	0.215486
643.195951	0.215285
643.402207	0.215579
643.608446	0.215549
643.814666	0.215709
644.020868	0.216089
644.227052	0.216204
644.433218	0.216356
644.639365	0.216494
644.845494	0.216990
645.051605	0.217486
645.257698	0.217409
645.463772	0.217970
645.669828	0.218334
645.875866	0.218472
646.081886	0.218833
646.287888	0.219106
646.493871	0.219078
646.699836	0.219010
646.905783	0.219229
647.111712	0.219542
647.317622	0.219593
647.523514	0.219719
647.729388	0.219946
647.935244	0.219936
648.141082	0.220208
648.346901	0.220462
648.552702	0.220732
648.758485	0.220851
648.964250	0.221181
649.169996	0.221235
649.375724	0.221512
649.581434	0.221462
649.787126	0.221759
649.992800	0.221931
650.198455	0.222002
650.404092	0.222142
650.609711	0.222216
650.815311	0.222286
651.020894	0.222668
651.226458	0.222500
651.432004	0.222973
651.637532	0.223021
651.843041	0.222996
652.048532	0.223108
652.254006	0.223249
652.459460	0.223430
652.664897	0.223458
652.870315	0.223507
653.075716	0.223680
653.281097	0.223438
653.486461	0.223598
653.691807	0.223766
653.897134	0.224064
654.102443	0.224384
654.307734	0.224511
654.513006	0.224693
654.718261	0.224850
654.923497	0.225309
655.128715	0.225774
655.333915	0.225998
655.539096	0.226423
655.744259	0.226442
655.949404	0.226662
656.154531	0.226915
656.359640	0.227032
656.564730	0.227350
656.769802	0.227533
656.974856	0.227621
657.179892	0.227639
657.384909	0.227460
657.589908	0.227657
657.794889	0.227590
657.999852	0.227808
658.204797	0.227988
658.409723	0.227947
658.614631	0.227769
658.819521	0.227672
659.024393	0.227797
659.229246	0.227815
659.434081	0.228034
659.638898	0.228188
659.843697	0.227869
660.048478	0.227967
660.253240	0.227742
660.457984	0.228004
660.662710	0.228241
660.867417	0.228501
661.072107	0.228601
661.276778	0.228535
661.481431	0.228646
661.686066	0.228893
661.890682	0.229227
662.095281	0.229652
662.299861	0.229841
662.504422	0.230024
662.708966	0.230292
662.913491	0.230802
663.117999	0.231054
663.322488	0.231228
663.526958	0.231590
663.731411	0.231825
663.935845	0.232082
664.140261	0.232076
664.344659	0.232491
664.549038	0.232549
664.753400	0.232712
664.957743	0.233086
665.162068	0.233512
665.366375	0.233732
665.570663	0.233670
665.774933	0.233742
665.979185	0.234128
666.183419	0.233831
666.387635	0.234102
666.591832	0.234137
666.796011	0.234087
667.000172	0.234224
667.204315	0.234574
667.408439	0.234822
667.612545	0.235184
667.816634	0.235402
668.020703	0.235807
668.224755	0.236087
668.428788	0.236224
668.632803	0.236750
668.836800	0.236997
669.040779	0.236948
669.244739	0.237228
669.448681	0.237298
669.652605	0.237485
669.856511	0.237808
670.060399	0.237768
670.264268	0.237877
670.468119	0.237787
670.671952	0.237862
670.875767	0.238130
671.079563	0.238176
671.283341	0.238424
671.487101	0.238714
671.690843	0.238913
671.894567	0.239425
672.098272	0.239956
672.301959	0.240287
672.505628	0.240398
672.709278	0.240614
672.912911	0.240788
673.116525	0.240986
673.320121	0.241196
673.523699	0.241160
673.727258	0.241282
673.930799	0.241410
674.134322	0.241541
674.337827	0.241998
674.541314	0.242270
674.744782	0.242806
674.948232	0.242948
675.151664	0.243159
675.355078	0.243445
675.558474	0.243604
675.761851	0.243635
675.965210	0.243994
676.168551	0.243998
676.371873	0.244152
676.575178	0.244069
676.778464	0.244450
676.981732	0.244538
677.184981	0.244812
677.388213	0.244907
677.591426	0.244918
677.794621	0.245054
677.997798	0.245086
678.200956	0.245065
678.404097	0.245421
678.607219	0.245329
678.810323	0.245339
679.013408	0.245648
679.216476	0.245856
679.419525	0.246261
679.622556	0.246342
679.825569	0.246781
680.028563	0.247107
680.231540	0.247230
680.434498	0.247451
680.637438	0.247767
680.840359	0.247725
681.043263	0.247780
681.246148	0.248012
681.449015	0.248165
681.651864	0.248141
681.854694	0.248246
682.057506	0.248395
682.260301	0.248675
682.463076	0.248745
682.665834	0.249050
682.868573	0.249323
683.071295	0.249676
683.273998	0.249931
683.476682	0.250148
683.679349	0.250387
683.881997	0.250693
684.084627	0.250824
684.287239	0.251150
684.489833	0.251261
684.692408	0.251360
684.894965	0.251361
685.097504	0.251645
685.300025	0.251929
685.502527	0.251989
685.705012	0.252094
685.907478	0.252122
686.109925	0.252130
686.312355	0.252380
686.514766	0.252552
686.717159	0.252702
686.919534	0.252778
687.121891	0.252712
687.324230	0.253137
687.526550	0.253129
687.728852	0.253395
687.931136	0.253411
688.133401	0.253512
688.335649	0.253660
688.537878	0.253747
688.740089	0.253893
688.942281	0.254177
689.144456	0.254210
689.346612	0.254475
689.548750	0.254525
689.750870	0.255021
689.952971	0.255129
690.155055	0.255410
690.357120	0.255738
690.559167	0.255836
690.761195	0.256155
690.963206	0.256305
691.165198	0.256430
691.367172	0.256999
691.569128	0.256970
691.771065	0.257064
691.972984	0.257175
692.174885	0.257249
692.376768	0.257517
692.578633	0.257651
692.780479	0.257772
692.982308	0.257858
693.184118	0.257782
693.385909	0.257974
