sample name	sample
index	105
start time	 02-15-2021  11:22:59 AM
880	0.442500
Peak Time (s)	92.04
Peak Height 	0.4425
calc peak height	90,93
Baseline Time (s)	9.036
Baseline Value 	-0.002724
subtract baseline	10,4
Abs	0.340035
Peak Time (s)	90.535
Peak Height 	0.34
calc peak height	90,93
Baseline Time (s)	9.036
Baseline Value 	-0.001147
subtract baseline	10,3
PK_550	0.155667
Peak Time (s)	91.537
Peak Height 	0.1557
calc peak height	90,93
Baseline Time (s)	9.536
Baseline Value 	2.9092E-4
subtract baseline	10,2
PK_880	0.315473
Peak Time (s)	90.535
Peak Height 	0.3155
calc peak height	90,93
Baseline Time (s)	9.036
Baseline Value 	-8.0171E-4
subtract baseline	10,1


Time (s)	A880-A510	A880-A775	A880-A975	A880	I510	I775	I975	I880	
0.036000	0.001998	-0.001064	0.004279	0.000369	4135.933098	14886.449388	3207.487785	8595.343244
0.536500	-0.000765	0.000439	-0.004232	0.007578	4109.531593	14731.576791	3197.280278	8502.465095
1.036500	0.000646	-0.000878	0.012307	0.003161	4124.886209	14815.478114	3210.970853	8559.186870
1.539000	0.000889	0.000965	-0.002796	0.001180	4130.802673	14919.780041	3202.320693	8584.816800
2.037000	-0.001081	0.000138	0.004751	-0.000459	4129.920535	14942.075214	3208.349179	8606.116590
2.540500	-0.001621	0.000143	0.005219	0.003256	4118.638460	14840.647002	3206.203844	8557.962680
3.035000	0.002262	0.001366	-0.003583	-0.000350	4138.569039	14972.832796	3202.804313	8604.699763
3.535000	0.001695	0.001330	0.004876	0.001186	4132.937069	14929.643820	3207.342931	8584.742891
4.035500	0.001180	-0.000303	0.006715	0.000669	4132.941565	14899.059769	3208.903806	8591.445577
4.535500	-0.002598	0.001176	0.011442	0.002666	4117.616595	14884.892138	3210.723371	8565.577651
5.036500	0.002359	0.001208	0.013241	0.001734	4133.247008	14911.266235	3212.555553	8577.636403
5.536000	-0.001721	-0.000056	-0.003331	0.000581	4125.451244	14908.219448	3202.362316	8592.588641
6.036000	-0.002087	0.000477	0.001541	0.000649	4124.303238	14920.979720	3205.499405	8591.710557
6.537000	-0.002828	0.000640	0.002434	0.001132	4121.060660	14912.211304	3205.768749	8585.441574
7.037000	0.002060	0.001811	0.007379	0.001086	4134.178654	14945.565193	3209.067819	8586.036209
7.534500	-0.000925	-0.000583	-0.013545	-0.000528	4130.519217	14924.176563	3196.511597	8607.010017
8.035000	0.003471	0.001555	0.012339	0.000721	4138.939751	14948.591875	3212.630605	8590.779293
8.535500	0.003440	-0.000806	-0.005187	0.000112	4140.490534	14900.532185	3201.463430	8598.682104
9.036000	0.000000	0.000430	0.000000	0.000000	4131.578929	14937.470482	3204.914567	8600.142969
9.536000	-0.000704	0.000000	0.004686	0.000455	4128.491741	14913.220954	3207.700409	8594.229991
10.036000	-0.000837	-0.000880	-0.001880	-0.000327	4130.217677	14910.538495	3203.899006	8604.396489
10.536500	-0.000388	-0.000009	0.000176	-0.000110	4130.839285	14928.455182	3205.102628	8601.578958
11.036500	0.003312	0.000676	-0.010360	0.000321	4139.587348	14935.418093	3198.001173	8595.971898
11.536500	0.002547	0.000409	0.009200	-0.000738	4140.377191	14957.178027	3211.501519	8609.744526
12.037500	0.003511	0.000651	0.001965	-0.000509	4142.353628	14957.529610	3206.540287	8606.766843
12.535000	0.003006	0.000106	0.006945	-0.000916	4142.092900	14953.755322	3210.112919	8612.071201
13.034500	-0.000333	0.000664	0.001106	0.004914	4117.663730	14809.741671	3202.430086	8536.601071
13.534500	-0.000882	0.000023	-0.003359	-0.001687	4133.726962	14972.653352	3203.821166	8622.118942
14.036000	-0.001969	0.000065	-0.011592	0.001389	4122.653490	14889.455671	3196.534284	8582.109512
14.536000	0.003013	0.001502	-0.007621	0.002376	4133.279519	14901.746678	3198.438592	8569.336466
15.036000	-0.004882	-0.002522	0.008100	0.001379	4114.992265	14819.214572	3209.352501	8582.234257
15.536500	-0.000262	-0.000493	-0.001958	-0.002151	4136.630548	14971.227060	3205.041019	8628.184130
16.034500	-0.002370	-0.001818	-0.003005	-0.004299	4136.737221	14993.885169	3205.763946	8656.317279
16.540000	-0.001162	-0.002573	-0.005020	-0.003708	4138.392157	14956.840231	3204.056254	8648.568328
17.035000	-0.005104	0.000187	0.001853	0.000885	4115.710565	14906.571578	3205.549514	8588.650846
17.536500	-0.004456	0.001009	0.014253	0.000425	4118.627936	14941.706895	3214.120939	8594.613339
18.035000	0.006798	0.000978	-0.005111	0.001277	4146.404429	14917.490986	3200.759662	8583.566436
18.535500	0.004837	0.001796	0.005845	0.001827	4139.637596	14924.816466	3207.559531	8576.431765
19.035500	-0.001838	-0.000345	0.010969	0.000776	4124.624393	14894.985917	3211.672297	8590.058469
19.536000	0.000850	-0.000530	-0.002371	0.000336	4132.950014	14901.974133	3203.146403	8595.771922
20.036500	0.002637	0.000379	0.016445	0.000891	4136.246249	14911.645211	3215.291131	8588.565839
20.536500	0.005556	0.002409	0.006538	0.001892	4141.395895	14939.860281	3207.975399	8575.592695
21.037000	0.000308	0.000665	0.009862	0.001588	4128.170388	14900.420490	3210.388201	8579.535752
21.537500	-0.002670	-0.001616	0.004549	-0.000547	4125.929073	14896.439382	3208.273369	8607.264228
22.035000	0.001178	0.000159	0.005107	0.000676	4132.919825	14911.535438	3207.832869	8591.363908
22.535500	0.003806	-0.000148	-0.003076	0.000742	4139.781078	14901.291731	3202.423098	8590.496655
23.035500	0.001426	0.001093	0.001777	0.001735	4130.755291	14908.103303	3204.941696	8577.624885
23.535500	0.002858	-0.000774	0.018257	-0.000625	4140.908233	14921.582947	3217.559682	8608.269822
24.036000	-0.001774	0.000517	0.001128	0.000107	4126.569555	14936.914679	3205.583924	8598.747230
24.536500	0.005642	0.000495	0.010598	0.001820	4141.821845	14889.421229	3210.724868	8576.523569
25.037000	-0.000341	0.000255	0.010180	0.002041	4125.241109	14876.805703	3210.297967	8573.662482
25.537000	0.001799	-0.000169	0.008260	0.000466	4135.140735	14908.280734	3210.068146	8594.087137
26.040000	-0.003986	-0.000161	0.018116	0.000506	4119.655929	14907.413302	3216.691075	8593.571436
26.535000	0.001220	0.001581	-0.002430	0.002583	4127.945629	14898.232144	3201.648030	8566.650356
27.035500	-0.001904	0.000838	-0.003878	-0.001497	4130.494018	14989.869619	3203.358425	8619.639430
27.534500	0.003401	0.000853	0.013232	-0.001452	4144.601466	14989.062008	3214.701335	8619.059864
28.036000	0.006842	0.001177	-0.004735	-0.000512	4151.366817	14972.069168	3202.160364	8606.802037
28.536000	0.001658	-0.000559	0.016124	0.000450	4134.807278	14898.051711	3215.372500	8594.294002
29.036000	0.000452	0.000153	0.010801	-0.002072	4138.332422	14986.833800	3213.475853	8627.150048
29.536500	0.000181	0.000395	0.000796	-0.001618	4136.387656	14980.998846	3206.500472	8621.218029
30.037000	0.004083	0.000694	0.007355	0.000009	4142.497851	14944.476275	3209.768884	8600.020209
30.537500	0.001947	0.000202	0.013744	0.002423	4130.308243	14864.939101	3212.430082	8568.721438
31.034500	0.000055	0.001297	0.015733	0.004916	4118.681643	14826.870395	3212.091315	8536.575294
31.535000	0.002882	0.000480	0.021912	-0.001064	4142.155401	14968.091118	3220.375200	8613.991699
32.038000	0.003120	-0.000059	0.016360	-0.001437	4143.800357	14963.532253	3216.818422	8618.857031
32.535500	0.002100	-0.000409	0.005792	-0.000551	4138.673291	14929.595022	3209.101558	8607.315095
33.036000	0.004210	-0.001048	-0.003663	-0.002282	4149.030686	14959.561583	3204.010947	8629.893883
33.536500	-0.001074	-0.000372	-0.001245	0.000106	4128.435465	14912.590591	3204.030709	8598.764346
34.036500	0.003373	0.002237	0.008350	0.002335	4134.351880	14923.003270	3208.883821	8569.865043
34.536500	0.001283	-0.000633	0.006313	0.001555	4130.852230	14865.843649	3208.049177	8579.957303
35.037000	0.003397	0.000455	0.010137	0.002169	4134.859650	14878.800266	3210.183771	8572.009912
35.540000	-0.002137	-0.000289	0.007060	0.001017	4123.194661	14889.948577	3208.901706	8586.933784
36.037500	-0.002656	0.000313	0.001707	0.001273	4121.143370	14899.385900	3205.198801	8583.613484
36.535000	0.001791	-0.000467	-0.002420	0.001179	4133.213855	14880.659771	3202.566230	8584.832862
37.035000	0.001287	0.001769	0.010016	0.002368	4128.699652	14909.277439	3209.970165	8569.436152
37.535500	-0.002953	-0.001714	0.009555	-0.000125	4124.057135	14882.190708	3211.328642	8601.762208
38.036000	0.000065	0.001117	0.016936	0.001566	4127.581835	14913.409591	3215.166933	8579.822965
38.536500	0.003591	0.000637	-0.003891	0.002294	4135.046316	14880.349606	3200.890315	8570.396508
39.036500	-0.002696	0.001225	0.021053	0.002369	4118.145661	14894.365497	3217.425122	8569.426857
39.536500	-0.000541	0.001543	0.006428	0.002536	4123.398520	14898.486095	3207.475907	8567.259037
40.039500	0.000454	0.001276	-0.005169	0.001965	4127.554660	14906.811649	3200.278365	8574.651142
40.534500	0.003511	0.000528	0.010751	0.001938	4135.782452	14887.081472	3210.748314	8574.998334
41.035000	0.005292	0.000458	0.008664	0.002228	4139.783647	14877.268780	3209.163614	8571.249143
41.535000	0.003957	0.001222	-0.005520	0.002453	4135.598603	14892.000270	3199.738163	8568.342512
42.034500	0.005419	0.001206	0.013432	0.002160	4140.307328	14899.575672	3212.397703	8572.128280
42.535500	0.000129	-0.000521	-0.017192	0.000857	4129.638511	14887.980197	3193.330182	8589.010731
43.036000	0.001952	0.000962	0.023748	0.003104	4128.508737	14867.105474	3218.768415	8559.924238
43.536000	0.007699	0.000835	0.007440	-0.002178	4158.233900	15008.573629	3211.287019	8628.535293
44.037000	0.010921	0.001013	0.011946	-0.000050	4161.224099	14954.866176	3212.884783	8600.794245
44.537000	-0.000602	0.001569	0.007840	0.000025	4129.908874	14968.108696	3210.082485	8599.824235
45.037500	0.003566	-0.000591	0.006843	0.005160	4127.333360	14769.063089	3206.019622	8533.446156
45.537500	0.002208	0.000762	0.013944	0.000543	4136.028803	14931.688757	3213.832349	8593.085453
46.035000	0.005110	-0.000030	0.002252	-0.001020	4148.049187	14952.865496	3207.066891	8613.422543
46.535000	0.008315	0.002493	0.013331	0.001215	4150.677618	14960.760346	3212.965327	8584.364507
47.036000	-0.000397	-0.000706	-0.001085	0.002504	4123.866369	14838.035972	3202.572462	8567.681941
47.536000	-0.000094	-0.000437	0.008371	0.002054	4125.861581	14857.591758	3209.084276	8573.501641
48.036000	0.001313	-0.000076	0.005542	-0.000727	4137.033326	14943.543493	3209.052499	8609.603597
48.536000	0.003367	0.000990	0.001172	-0.000580	4142.159453	14968.816880	3206.065221	8607.692394
49.037000	0.003918	-0.000341	0.028578	0.004479	4130.082644	14794.277223	3221.152144	8542.203770
49.539000	0.004268	0.001095	0.011914	-0.001732	4147.699030	15003.440011	3213.998394	8622.705336
50.037500	0.002676	0.001800	0.013491	-0.000914	4141.199150	15000.330327	3214.512156	8612.044821
50.534500	0.004168	-0.001474	0.011952	0.002886	4135.004071	14806.781420	3210.918110	8562.745411
51.035000	-0.065937	-0.038243	0.004591	0.254139	3527.353878	9092.635573	3080.532963	6098.537429
51.535500	-0.039196	-0.021564	-0.002805	0.051252	3913.726590	13087.894902	3171.608522	7971.536809
52.035500	-0.002829	-0.011452	-0.000937	-0.127488	4516.829031	18572.115044	3301.185397	10526.819153
52.536000	0.003332	-0.007874	0.017453	-0.082702	4385.439408	17164.309392	3278.727143	9784.708166
53.036000	0.004992	-0.011171	0.019126	-0.028972	4225.835878	15423.824677	3238.243231	8989.717513
53.536500	0.021210	-0.006096	0.030155	-0.073051	4412.455356	16910.207859	3281.253401	9634.574248
54.037000	0.038733	-0.000759	0.030398	-0.068948	4457.635482	16949.757277	3278.060264	9571.756061
54.537000	0.035285	-0.000441	0.031393	-0.035918	4338.012136	15939.064262	3252.622254	9087.029515
55.036500	0.043594	0.001808	0.060415	0.009875	4225.128052	14706.578997	3240.036114	8473.190838
55.535000	0.068520	0.011638	0.069872	0.030570	4237.389204	14417.828534	3231.869282	8216.311962
56.035500	0.082967	0.013950	0.092482	0.070326	4165.799421	13476.322070	3219.809229	7755.898022
56.535000	0.109903	0.023943	0.100037	0.111753	4126.652956	12746.255344	3197.339854	7318.935363
57.035500	0.122764	0.031938	0.122747	0.151036	4058.550372	12070.194353	3186.968179	6941.367985
57.536000	0.141412	0.044716	0.153182	0.188781	4011.844414	11564.598985	3182.518144	6609.379407
58.036500	0.165950	0.057895	0.175778	0.217756	4001.282764	11259.410624	3178.695551	6373.401332
58.537000	0.183805	0.070152	0.196515	0.244653	3980.091331	10986.288416	3175.056509	6167.994772
59.039500	0.209574	0.084034	0.201247	0.276023	3967.184707	10671.873944	3159.902263	5943.962228
59.537000	0.221012	0.097627	0.248069	0.301159	3936.311391	10471.192662	3172.169088	5775.774277
60.035000	0.224657	0.103144	0.255206	0.329580	3882.884698	10088.398995	3160.124287	5596.962663
60.535000	0.236451	0.115214	0.263637	0.347467	3870.206093	9994.371921	3154.959519	5490.284183
61.035500	0.245706	0.113027	0.261587	0.364384	3854.513821	9694.228792	3144.933152	5393.352009
61.536000	0.251206	0.117981	0.259298	0.363775	3867.003833	9780.269352	3144.066422	5396.777709
62.036500	0.258374	0.126544	0.301133	0.369733	3869.498614	9820.935537	3163.333570	5363.480230
62.536500	0.259666	0.128124	0.286964	0.369999	3871.618978	9841.555833	3155.389657	5362.006610
63.038000	0.261532	0.128767	0.290776	0.366001	3883.837885	9914.840643	3159.655005	5384.286789
63.540500	0.266395	0.130094	0.273629	0.367066	3891.839189	9918.997350	3149.826614	5378.330223
64.042000	0.266740	0.130463	0.294917	0.371135	3883.993028	9860.481329	3159.108863	5355.716691
64.537500	0.273960	0.134392	0.293683	0.372470	3896.424194	9901.458577	3157.700054	5348.341251
65.035000	0.264899	0.133539	0.297751	0.379616	3862.592893	9775.872225	3156.023846	5309.250843
65.535000	0.277053	0.138041	0.294997	0.380202	3886.611923	9837.065323	3154.218259	5306.073939
66.035500	0.272417	0.135979	0.277914	0.383178	3870.734319	9758.447070	3143.661605	5290.006912
66.536000	0.279660	0.136181	0.292911	0.381348	3889.690317	9790.049982	3152.484575	5299.874351
67.036000	0.274067	0.137155	0.300003	0.387387	3865.457793	9711.533610	3153.047775	5267.464281
67.536500	0.276330	0.138889	0.301932	0.383266	3878.678507	9802.376273	3156.312435	5289.533203
68.036500	0.282680	0.140920	0.303322	0.390438	3876.963935	9722.558927	3153.191424	5251.262855
68.540000	0.286440	0.143837	0.309212	0.389786	3886.195805	9777.858183	3156.725583	5254.716111
69.037000	0.281763	0.142426	0.313851	0.395456	3864.690924	9668.566797	3156.164569	5224.859431
69.534000	0.288494	0.145547	0.301248	0.392632	3884.532717	9760.216064	3150.914455	5239.683586
70.035000	0.281136	0.144077	0.291475	0.399173	3855.816376	9637.021857	3142.413280	5205.500562
70.535000	0.281200	0.144991	0.315165	0.394436	3865.630130	9723.670550	3157.435444	5230.201871
71.036000	0.288052	0.145250	0.321274	0.401933	3864.305242	9612.877451	3156.679002	5191.229830
71.536000	0.293255	0.149459	0.313130	0.401860	3875.203116	9678.213376	3152.327551	5191.610291
72.036000	0.290241	0.146972	0.307230	0.405781	3860.906533	9580.682206	3147.139871	5171.487583
72.536500	0.298955	0.148183	0.315536	0.404020	3882.588790	9625.745665	3152.459184	5180.503379
73.036500	0.289726	0.147991	0.317066	0.408455	3854.409273	9555.733870	3150.911150	5157.869814
73.537000	0.297994	0.146857	0.317643	0.404688	3879.181089	9595.472162	3153.229363	5177.077107
74.035000	0.294237	0.146975	0.305474	0.409335	3861.812536	9527.262358	3144.383929	5153.408765
74.535000	0.298298	0.147146	0.329163	0.406491	3876.059562	9572.595112	3158.498635	5167.864313
75.035000	0.297115	0.148470	0.329567	0.408554	3869.333936	9561.465497	3157.590816	5157.370535
75.535500	0.301490	0.149820	0.323090	0.410656	3874.039448	9550.137962	3152.950552	5146.727739
76.035500	0.294134	0.149432	0.322899	0.415233	3849.613293	9475.911013	3150.410471	5123.728843
76.536000	0.302582	0.154772	0.320400	0.416268	3864.706241	9540.211487	3148.545376	5118.559938
77.036000	0.300197	0.152302	0.328277	0.413283	3865.941106	9547.971882	3154.325845	5133.499391
77.536500	0.297482	0.155561	0.315448	0.417478	3851.842948	9533.913255	3145.330532	5112.537375
78.036500	0.298688	0.150306	0.315957	0.420939	3847.290058	9404.481734	3143.806838	5095.397734
78.537500	0.294477	0.152048	0.311027	0.415603	3849.557758	9509.376286	3144.015331	5121.879726
79.037000	0.304605	0.153261	0.330841	0.417518	3866.295019	9498.904373	3153.426736	5112.338392
79.534500	0.303516	0.153340	0.316188	0.419643	3859.707489	9468.449430	3144.593404	5101.798169
80.035000	0.301466	0.152008	0.310497	0.424692	3845.328493	9374.396722	3139.115415	5076.961797
80.535000	0.302288	0.151500	0.331798	0.418733	3859.058756	9454.654183	3153.288045	5106.305090
81.036000	0.298670	0.150102	0.322022	0.417309	3854.592479	9455.049419	3148.851316	5113.376957
81.536500	0.308063	0.154243	0.318461	0.423948	3860.202908	9418.135750	3143.546807	5080.605314
82.036500	0.296128	0.152088	0.316654	0.428352	3827.437594	9322.237546	3140.377115	5059.138726
82.539500	0.306220	0.153386	0.322742	0.422857	3858.668627	9421.588375	3146.325281	5085.958584
83.037000	0.303650	0.153787	0.338039	0.424026	3851.074499	9410.274280	3153.797521	5080.221997
83.534500	0.305770	0.154413	0.327507	0.427003	3849.342881	9375.771634	3146.647299	5065.689714
84.035000	0.298529	0.154468	0.315104	0.426417	3836.013617	9385.157395	3140.572612	5068.543584
84.535000	0.302518	0.154269	0.317681	0.426394	3844.024407	9382.572531	3141.894870	5068.653649
85.035500	0.295158	0.154445	0.322815	0.432834	3816.777968	9291.486116	3141.229868	5037.517674
85.537500	0.304468	0.155219	0.340988	0.428356	3843.999900	9367.774738	3153.056038	5059.118662
86.036000	0.306412	0.154041	0.326246	0.428599	3847.420052	9347.040348	3145.163730	5057.943383
86.536000	0.305365	0.153860	0.309457	0.428596	3845.320291	9344.459458	3136.639420	5057.957879
87.036500	0.302068	0.155563	0.345120	0.430851	3834.237630	9336.413087	3153.935007	5047.056511
87.537000	0.307478	0.153148	0.329775	0.430782	3845.171819	9302.387012	3145.861043	5047.386014
88.034500	0.304481	0.154870	0.338784	0.438428	3824.055338	9217.287146	3146.569992	5010.840487
88.534500	0.303419	0.155785	0.341830	0.434272	3830.140928	9290.061179	3150.353217	5030.627224
89.034500	0.304253	0.154383	0.313178	0.438196	3824.062898	9213.643137	3133.730965	5011.939603
89.538000	0.295944	0.148573	0.315809	0.429273	3825.268612	9258.197980	3139.484460	5054.680266
90.035500	0.307540	0.153092	0.320326	0.441096	3824.820379	9154.150663	3135.828514	4998.235652
90.535000	0.315473	0.155530	0.340035	0.435829	3851.113531	9263.949529	3148.584520	5023.189698
91.036000	0.302005	0.152042	0.307725	0.439975	3816.207498	9155.170989	3130.206944	5003.523765
91.536500	0.309152	0.155667	0.336736	0.438507	3833.103310	9227.528986	3145.464713	5010.464991
92.039500	0.311930	0.153326	0.318089	0.442500	3830.700874	9137.664900	3134.029537	4991.638098
92.536500	0.312311	0.154366	0.334546	0.438158	3840.078450	9213.938653	3144.512413	5012.117621
93.037000	0.311013	0.151866	0.314835	0.442507	3828.875034	9117.018585	3132.430568	4991.601399
93.540000	0.314905	0.153190	0.332449	0.438626	3844.334296	9190.540609	3143.192255	5009.900409
94.035000	0.304952	0.152251	0.337724	0.443382	3815.313501	9110.158160	3143.459051	4987.500418
94.535000	0.306265	0.155445	0.313063	0.441141	3822.236416	9186.849708	3132.232437	4998.024968
95.035500	0.313609	0.154077	0.324253	0.441593	3835.823147	9161.054961	3137.537101	4995.895650
95.539000	0.313618	0.154546	0.322308	0.441409	3836.206952	9170.305003	3136.658579	4996.765431
96.036500	0.316779	0.158210	0.330632	0.451916	3821.726965	9074.146512	3135.573888	4947.914281
