sample name	sample
index	917
start time	 04-12-2021  11:18:44 AM
880	0.471508
Peak Time (s)	102.541
Peak Height 	0.4715
calc peak height	100,103
Baseline Time (s)	8.536
Baseline Value 	-0.004664
subtract baseline	10,4
Abs	0.392685
Peak Time (s)	102.541
Peak Height 	0.3927
calc peak height	100,103
Baseline Time (s)	9.036
Baseline Value 	0.005465
subtract baseline	10,3
PK_550	0.228289
Peak Time (s)	102.541
Peak Height 	0.2283
calc peak height	100,103
Baseline Time (s)	8.536
Baseline Value 	4.6624E-4
subtract baseline	10,2
PK_880	0.393889
Peak Time (s)	101.037
Peak Height 	0.3939
calc peak height	100,103
Baseline Time (s)	9.036
Baseline Value 	0.002116
subtract baseline	10,1


Time (s)	A880-A510	A880-A775	A880-A975	A880	I510	I775	I975	I880	
0.042000	-0.001889	-0.000671	-0.004189	0.003159	7140.597582	43406.099999	3890.420152	23273.301791
0.536500	-0.003909	-0.000607	-0.006738	0.005991	7092.743421	43148.641533	3877.082011	23140.470615
1.037000	0.000294	-0.000576	-0.006494	0.003638	7157.543248	43370.255198	3883.499304	23250.795347
1.537500	-0.000056	0.000018	0.000053	0.000473	7185.676816	43722.418617	3907.843620	23400.157903
2.037500	0.000056	0.000119	-0.002317	0.002570	7165.820844	43535.015836	3896.577862	23301.048674
2.535000	-0.000171	-0.000235	-0.000331	0.000497	7184.284436	43696.397660	3906.810622	23399.039539
3.035500	0.000393	0.000180	-0.001512	-0.001258	7207.590354	43900.817543	3908.264290	23482.315138
3.535500	-0.001678	-0.000260	-0.003390	0.000290	7171.267187	43713.413352	3899.610962	23408.817159
4.036000	-0.000259	0.000136	0.000434	0.000404	7184.327372	43739.910973	3908.982775	23403.409952
4.539000	0.000908	-0.000679	0.001828	-0.000363	7203.752354	43735.448166	3914.479545	23439.765700
5.036500	0.000779	0.000676	-0.000178	0.000692	7191.854305	43763.683306	3906.700694	23389.772899
5.536500	0.001256	0.000500	0.000760	0.000476	7198.809533	43767.445784	3909.626656	23399.991799
6.036500	-0.001964	-0.000480	0.000264	0.000232	7169.000525	43698.245354	3908.989764	23411.582830
6.537500	-0.000486	-0.000611	0.004256	0.000146	7184.641264	43693.954704	3919.386382	23415.660409
7.035000	-0.001363	0.000406	-0.007812	0.000583	7171.499357	43748.581518	3887.813798	23394.967856
7.535500	-0.000461	0.000234	-0.004270	0.000565	7180.698470	43734.082098	3896.708067	23395.811287
8.035500	0.001484	-0.000192	-0.004719	-0.000350	7209.432153	43780.094196	3897.878861	23439.183100
8.536000	0.000443	0.000000	0.003681	0.000000	7195.425943	43765.199997	3918.286215	23422.569838
9.036000	0.000000	0.000565	0.000000	0.000350	7187.468613	43785.456460	3908.019579	23405.976189
9.536500	0.000692	0.000745	-0.001661	0.000478	7193.129686	43790.383790	3903.493287	23399.918615
10.037000	0.000655	0.000450	0.000986	0.000363	7193.908808	43773.332154	3910.489634	23405.351836
10.537500	-0.001009	-0.000336	0.000591	-0.000138	7182.251723	43746.614219	3910.759512	23429.126723
11.037500	-0.000138	-0.000856	-0.002725	-0.000577	7195.390369	43738.914964	3903.471873	23449.948144
11.537500	-0.000698	-0.000574	-0.002869	-0.000413	7188.124609	43750.069060	3902.692227	23442.154163
12.035000	-0.000046	-0.000796	-0.003865	-0.000318	7193.707369	43720.186838	3899.943653	23437.653711
12.538000	0.001150	-0.000432	0.001485	-0.000202	7204.573572	43743.505652	3913.194933	23432.146879
13.036000	0.000293	0.000339	0.003140	-0.001788	7211.921301	43966.028112	3921.483036	23507.541236
13.536000	0.000412	0.000087	-0.001673	-0.000700	7202.157450	43839.387377	3906.440371	23455.770877
14.039000	0.001240	0.000065	-0.002645	-0.000806	7211.561608	43847.273017	3904.250400	23460.814921
14.539500	-0.000904	0.000152	-0.004917	0.002756	7154.400228	43520.722374	3889.611191	23292.314675
15.036500	0.000060	0.000057	0.002212	-0.000074	7192.330158	43777.558900	3914.724704	23426.099440
15.534000	-0.000284	-0.000116	0.000920	-0.000842	7196.586696	43833.643024	3913.386678	23462.543081
16.034500	0.001278	-0.000221	0.000176	0.000614	7197.657624	43686.654236	3907.797177	23393.488821
16.537500	0.000752	-0.000084	0.000040	-0.001310	7211.727224	43880.845353	3912.337223	23484.781147
17.035000	0.000932	0.000519	0.001868	-0.000721	7207.604831	43882.165681	3915.496621	23456.782733
17.536500	0.003758	0.001541	-0.000083	-0.002301	7252.222540	44128.616774	3914.550242	23531.978436
18.036000	-0.000125	0.000165	0.001742	0.000928	7180.422227	43693.387402	3910.974547	23378.621468
18.536000	-0.001661	-0.000372	-0.000317	0.000767	7166.670669	43658.002675	3906.160044	23386.211143
19.036500	-0.000823	-0.000256	0.000390	0.000513	7177.587318	43692.818691	3908.595310	23398.253413
19.536500	-0.000733	-0.000467	-0.001238	0.000147	7182.153400	43707.428049	3905.398731	23415.594503
20.036500	-0.000128	-0.000026	-0.003235	0.001273	7176.938190	43643.032432	3897.528441	23362.285612
20.537500	-0.000170	-0.000423	0.002901	0.001040	7178.849260	43627.635166	3913.639496	23373.315849
21.035000	0.000168	0.000235	-0.003554	0.001544	7177.190667	43642.121037	3896.048779	23349.485674
21.535000	-0.000225	0.000449	-0.001048	0.001247	7176.231155	43690.137770	3903.098765	23363.518165
22.035500	0.001417	0.000670	-0.001910	0.001512	7190.029799	43686.013820	3900.261608	23351.024511
22.535500	-0.000919	-0.000646	-0.005125	0.000608	7175.677780	43647.199797	3894.457538	23393.741077
23.036000	-0.000421	-0.000337	-0.002640	0.000865	7178.092569	43652.104659	3900.048760	23381.577674
23.539000	-0.000444	0.000358	-0.001389	0.000931	7177.198128	43711.306965	3903.035659	23378.468990
24.036500	-0.000574	-0.000412	0.003318	0.001126	7173.945767	43620.613644	3914.481955	23369.228823
24.537000	-0.001145	-0.000663	-0.000810	0.000615	7173.348468	43645.017145	3905.297221	23393.412536
25.037000	-0.001664	-0.000444	0.005005	0.000628	7168.037406	43664.325627	3920.069338	23392.807163
25.537500	0.000423	-0.000009	0.001328	0.001196	7183.228232	43651.880647	3909.242204	23365.935056
26.037000	-0.001463	-0.000679	0.001750	0.000919	7167.138617	43614.993510	3911.018940	23379.042928
26.535000	-0.000737	0.000250	0.001208	0.001009	7173.482711	43693.731002	3909.411622	23374.763509
27.035500	0.000664	-0.000175	-0.001439	0.000810	7189.509084	43672.554190	3903.214923	23384.183046
27.535500	0.001192	0.000984	0.002980	-0.000323	7206.217540	43888.493980	3917.321590	23437.904310
28.037000	-0.001838	0.000223	-0.005232	0.004702	7125.824257	43345.583647	3883.988192	23200.803296
28.536000	0.002248	0.001033	-0.000738	-0.000416	7217.797399	43901.884762	3908.090052	23442.298880
29.036500	0.000717	0.000122	0.000086	-0.000918	7207.426120	43863.281878	3911.458546	23466.141628
29.537000	0.001522	-0.000286	-0.001427	-0.001286	7219.252823	43859.484409	3908.549867	23483.620158
30.037000	-0.003054	0.000114	-0.005260	0.004933	7111.541015	43313.906722	3883.345740	23189.970995
30.535000	0.001418	-0.000317	0.001530	-0.001565	7221.031528	43882.886682	3916.789874	23496.922622
31.084500	-0.000122	-0.000022	0.003409	-0.001588	7205.718169	43912.859268	3921.658324	23497.982182
31.535500	-0.002047	0.000052	0.003302	0.002724	7143.355068	43514.369667	3910.373855	23293.807482
32.035500	-0.002143	-0.000598	-0.005970	0.004412	7125.683048	43296.077029	3882.879471	23214.413847
32.581000	0.002001	0.000002	0.001021	-0.000758	7218.766397	43836.809874	3913.430469	23458.554267
33.039000	0.000749	-0.000255	-0.000247	-0.001419	7212.800920	43874.952537	3911.885826	23489.978479
33.536500	0.002852	0.000679	0.004213	-0.000419	7223.933089	43868.707754	3920.720810	23442.427055
34.037000	-0.002628	0.000607	-0.001210	0.005791	7107.288034	43279.931222	3891.286728	23149.801259
34.537000	0.001938	0.000077	0.004549	-0.002165	7232.349176	43976.796018	3926.072124	23525.461198
35.037500	0.000120	0.000282	0.000021	0.002908	7163.084060	43518.610439	3901.605057	23285.126396
35.537500	0.000268	0.000315	0.000162	0.002865	7164.992462	43525.795934	3902.070879	23287.168301
36.034500	0.000158	0.000217	-0.006795	0.003529	7157.283211	43454.529143	3883.024170	23255.933449
36.535500	-0.001618	-0.000608	-0.005859	0.001406	7160.727771	43575.948607	3890.628111	23355.987330
37.036000	-0.001538	0.000206	0.000515	0.002330	7152.329668	43565.658207	3904.311474	23312.381309
37.539000	0.000567	0.000421	-0.000546	0.002598	7170.644640	43560.766912	3900.960419	23299.765797
38.036500	-0.001385	-0.000392	-0.001625	0.002211	7155.032113	43520.782818	3899.218540	23317.991348
38.537000	-0.000615	-0.000291	0.000486	0.002182	7162.996854	43532.961122	3904.614041	23319.371567
39.037000	-0.000569	0.000664	-0.002514	0.002416	7161.121210	43600.518077	3896.468089	23308.307671
39.537500	-0.002254	-0.000033	-0.004148	0.002020	7148.288699	43572.325748	3893.367218	23326.990029
40.037000	-0.001131	-0.000436	-0.001935	0.002528	7154.408628	43487.034773	3897.642792	23303.054989
40.534500	-0.001792	-0.000878	-0.006044	0.001546	7157.602538	43537.618040	3889.818634	23349.396817
41.035000	-0.002212	-0.000522	0.001430	0.001978	7149.132200	43530.519576	3907.518521	23329.012375
41.535500	-0.001690	-0.000080	0.002509	0.002070	7153.408897	43563.293255	3910.023744	23324.668915
42.035500	-0.001676	-0.000160	0.001174	0.002292	7151.336855	43534.975333	3906.075593	23314.175503
42.536000	-0.000342	0.000115	0.000220	0.002372	7163.825681	43553.206818	3903.461132	23310.419873
43.036500	-0.001184	-0.000224	-0.000532	0.002110	7158.043904	43545.995706	3902.223995	23322.741863
43.536500	-0.000948	-0.000338	-0.002612	0.002052	7160.974467	43540.835904	3897.137447	23325.520289
44.037000	-0.001300	0.000312	0.000576	0.003481	7143.259413	43467.877610	3901.561248	23258.185344
44.534500	-0.002491	-0.000443	-0.000540	0.001723	7148.888320	43561.780115	3903.180134	23341.036238
45.035000	0.000486	-0.000093	-0.004482	-0.000965	7205.570289	43847.411959	3900.019084	23468.364828
45.535000	0.000043	-0.000052	0.000492	-0.001021	7201.665836	43856.465472	3912.751283	23471.016224
46.066500	-0.004702	-0.000555	-0.000050	0.005089	7093.806197	43237.155811	3895.944946	23182.662155
46.535500	0.000412	-0.000437	0.000414	-0.000179	7196.920599	43740.942432	3910.413222	23431.079649
47.039000	0.000816	-0.000089	0.005283	-0.001032	7209.564567	43854.037751	3925.047474	23471.554157
47.536000	-0.000238	0.000184	0.005615	-0.000612	7194.735016	43840.233001	3924.818617	23451.599569
48.036000	-0.002145	-0.000733	-0.004496	0.004385	7125.922728	43286.027744	3886.602585	23215.674468
48.537000	-0.000780	-0.000125	-0.004155	0.001147	7171.681328	43645.668163	3895.536825	23368.270362
49.034000	-0.001165	0.000544	0.007661	0.003182	7147.569856	43517.537836	3920.331022	23272.261691
49.537500	0.000598	-0.000312	0.002253	-0.000588	7202.900750	43791.239247	3916.139675	23450.475095
50.035000	-0.002316	-0.000119	-0.003741	0.004590	7122.210968	43324.127322	3887.972629	23206.080433
50.535000	0.001180	0.000849	0.002596	0.000031	7202.536709	43842.369491	3915.435460	23421.115344
51.035500	0.000725	0.000759	0.000874	-0.000734	7205.648947	43906.082723	3912.994858	23457.412983
51.536000	0.001208	-0.001174	0.004486	-0.002679	7230.176884	43907.194346	3927.237135	23550.010809
52.036500	-0.003408	-0.000095	-0.003027	0.004830	7109.074051	43303.991160	3889.152358	23194.796619
52.536500	-0.041441	-0.012786	0.011467	0.082899	6105.728660	35678.146618	3741.792127	19844.176247
53.037000	-0.117902	-0.019459	-0.064631	0.004350	6121.506608	41583.385745	3747.083571	23217.317627
53.537000	-0.095429	-0.027012	-0.051054	-0.139901	7661.004257	55905.486712	4159.042921	31249.233652
54.034500	-0.078389	-0.097625	-0.029788	-0.282970	9813.808429	65535.000000	4780.883190	42337.649881
54.537000	-0.069190	-0.135904	-0.007765	-0.321249	10620.368404	65535.000000	5074.890330	45977.917372
55.034500	-0.048773	-0.135003	0.018681	-0.320348	10978.336937	65535.000000	5212.285424	45888.496450
55.535500	-0.033328	-0.068118	0.028127	-0.248275	9982.458498	64790.839436	4889.290932	39304.245318
56.036000	-0.018864	-0.029567	0.029221	-0.185748	9233.344842	61464.994449	4614.628987	34413.427255
56.539000	-0.000335	-0.014913	0.025804	-0.152632	9021.889414	59026.150457	4468.789748	32094.601897
57.036000	0.019722	-0.000848	0.033007	-0.110084	8709.498498	55461.292249	4338.908206	29363.548463
57.536500	0.044203	0.008003	0.036166	-0.102369	8940.835491	55599.048518	4322.921279	28896.345654
58.036000	0.052062	0.014735	0.050203	-0.070227	8608.643495	52602.286981	4261.022474	27036.804950
58.537000	0.059245	0.023411	0.053740	-0.018128	8041.047153	47870.083838	4107.200469	24300.305290
59.034500	0.076660	0.034683	0.070677	0.021603	7780.146316	45015.641573	4040.720908	22423.281244
59.535000	0.090480	0.041850	0.083413	0.058282	7526.436830	42246.719624	3974.548492	20836.461980
60.035500	0.101686	0.048049	0.095833	0.077900	7436.386567	41048.628791	3955.360837	20041.178371
60.535500	0.114334	0.056649	0.114525	0.109945	7235.259630	39042.067488	3920.588058	18816.929574
61.035500	0.126269	0.062661	0.124030	0.145648	7000.750417	36651.646544	3855.401750	17555.233376
61.536000	0.140886	0.072078	0.139629	0.172839	6881.779212	35296.915364	3827.788126	16661.544904
62.036000	0.154485	0.079123	0.158384	0.199897	6758.201658	33836.465980	3808.460712	15826.096012
62.536500	0.171169	0.089458	0.178202	0.221670	6712.460400	33031.454948	3803.963736	15190.612943
63.037000	0.186159	0.098991	0.189013	0.248263	6610.156494	31869.545301	3768.383580	14456.427870
63.537000	0.176534	0.099553	0.194755	0.325725	5923.665086	27163.244773	3622.043505	12557.125929
64.037000	0.200716	0.111242	0.216369	0.308549	6232.562035	28832.865203	3698.185930	12949.521944
64.535000	0.228269	0.124613	0.220754	0.285575	6652.133866	31099.304288	3756.130732	13499.258770
65.035000	0.236934	0.127499	0.241861	0.319901	6432.944435	29127.785632	3727.677042	12688.436711
65.536000	0.251539	0.135478	0.250559	0.334601	6432.161558	28724.511452	3715.043358	12360.334611
66.038500	0.257509	0.141427	0.267376	0.350710	6349.080801	28126.636143	3716.522795	12013.302678
66.536000	0.275608	0.151350	0.281782	0.371953	6323.706053	27476.723661	3702.316942	11574.908030
67.036500	0.287085	0.157758	0.291167	0.378762	6361.450701	27454.070624	3707.643623	11438.879612
67.536500	0.299296	0.164025	0.300218	0.392220	6351.327305	27050.318718	3698.551826	11176.196770
68.037000	0.305072	0.169880	0.311732	0.395764	6369.461837	27179.326457	3715.063790	11108.366907
68.534500	0.310444	0.173662	0.311445	0.400664	6373.305222	27116.792267	3704.281739	11015.481601
69.035000	0.311891	0.175439	0.323936	0.410332	6306.904314	26680.243226	3710.135539	10835.286185
69.535000	0.319503	0.181507	0.324716	0.411388	6359.755546	26956.571066	3709.560032	10815.831479
70.034500	0.323702	0.186603	0.338784	0.411285	6394.876013	27246.679504	3739.494278	10817.728063
70.538500	0.323924	0.188882	0.341041	0.414327	6371.813729	27203.892758	3737.810479	10761.968117
71.036000	0.328569	0.191738	0.345254	0.415141	6403.177177	27318.582883	3745.124334	10747.120889
71.536500	0.330322	0.194345	0.345457	0.404718	6504.718957	28063.332832	3768.359532	10939.429620
72.036500	0.330632	0.196538	0.354155	0.423418	6352.446060	27123.633063	3746.473188	10597.663002
72.536500	0.330756	0.196800	0.351891	0.423261	6354.721863	27147.039402	3741.925792	10600.471993
73.037000	0.331272	0.200817	0.351770	0.458211	6086.204170	25477.910614	3669.398362	9999.640509
73.567000	0.340151	0.203708	0.357315	0.455721	6172.512830	25759.804937	3685.501224	10040.861137
74.035500	0.347590	0.207956	0.361098	0.454038	6243.419295	26074.553743	3696.627757	10068.854441
74.535500	0.353560	0.209136	0.360295	0.440775	6397.894277	26859.288336	3722.520244	10293.336811
75.035500	0.358807	0.210788	0.363120	0.429372	6537.257436	27591.415324	3753.008739	10491.889528
75.536500	0.364624	0.215120	0.363976	0.423095	6641.893371	28202.842495	3768.674424	10603.443177
76.036500	0.365391	0.213486	0.359170	0.415463	6716.293903	28555.159283	3774.952044	10741.260160
76.536500	0.367887	0.214510	0.362578	0.409864	6789.375921	28949.866794	3795.235958	10843.903144
77.037000	0.372661	0.216897	0.362264	0.406732	6862.085745	29283.477650	3801.669794	10901.920522
77.537000	0.375401	0.219321	0.369382	0.404831	6905.373675	29547.796377	3822.540268	10937.317540
78.037500	0.376639	0.218486	0.367695	0.400163	6961.151371	29784.327660	3829.535031	11024.930077
78.537500	0.377896	0.219748	0.371898	0.398392	6990.042222	29972.993182	3843.698573	11058.427441
79.035500	0.381139	0.220152	0.368410	0.396304	7041.397268	30128.927029	3840.360960	11098.073288
79.535000	0.381932	0.220024	0.367238	0.394024	7071.289579	30264.387597	3842.999315	11141.598091
80.038500	0.382992	0.221588	0.370943	0.395266	7069.518681	30284.711332	3848.893620	11117.871695
80.536000	0.386348	0.222884	0.373637	0.394710	7107.860579	30401.895591	3856.718741	11128.484773
81.036000	0.385823	0.222087	0.371317	0.393170	7117.854229	30448.963410	3854.834797	11157.953621
81.536500	0.386792	0.223440	0.373214	0.393512	7124.048863	30513.280125	3858.593682	11151.399533
82.039000	0.385078	0.223335	0.374869	0.393395	7108.294484	30514.035514	3862.892390	11153.646135
82.537000	0.385820	0.223550	0.374996	0.392486	7124.581585	30585.660571	3865.414518	11171.082100
83.037500	0.385864	0.223556	0.375110	0.392754	7122.364183	30568.962203	3865.037881	11165.932839
83.535000	0.386659	0.223284	0.370374	0.392523	7132.518658	30566.358772	3854.120288	11170.379446
84.035000	0.387657	0.224214	0.374079	0.394976	7118.128792	30469.367365	3857.144008	11123.391099
84.536000	0.389194	0.225749	0.372633	0.395433	7128.813814	30538.020910	3852.552579	11114.681884
85.036000	0.390584	0.224021	0.371275	0.394489	7151.962810	30488.104517	3851.556917	11132.712546
85.536000	0.392003	0.225367	0.373064	0.397308	7138.056406	30394.552002	3849.082128	11078.989748
86.036000	0.391187	0.225026	0.377542	0.399578	7107.572972	30229.537432	3854.393092	11035.980975
86.536500	0.390713	0.225499	0.376692	0.399641	7102.287108	30255.435011	3852.194119	11034.797905
87.037000	0.392862	0.227040	0.375520	0.402208	7098.175929	30190.778120	3843.234335	10986.438512
87.537500	0.393145	0.225313	0.374929	0.401946	7103.530373	30098.770257	3842.449042	10991.359645
88.038000	0.391089	0.225835	0.380253	0.404326	7060.121095	29982.511621	3849.493330	10946.755095
88.535500	0.391009	0.225933	0.384705	0.405217	7050.685019	29933.054607	3858.075651	10930.123578
89.035500	0.391866	0.225058	0.379971	0.406493	7046.615196	29799.343295	3843.631336	10906.364967
89.538500	0.390828	0.225991	0.380683	0.408577	7016.419221	29728.014230	3840.359084	10867.687174
90.036000	0.391823	0.225661	0.383003	0.410521	7007.288983	29587.770327	3841.254286	10831.789402
90.536500	0.390071	0.225149	0.379359	0.411217	6983.829208	29513.587726	3830.972399	10818.988532
91.036000	0.389272	0.226686	0.383123	0.414430	6945.636425	29410.920851	3832.272038	10760.089550
91.537000	0.391125	0.226226	0.382476	0.415572	6952.382260	29313.248140	3828.058451	10739.274628
92.037500	0.389801	0.225753	0.384142	0.419273	6904.985967	29060.221170	3823.283627	10672.152987
92.537500	0.390320	0.226805	0.383742	0.420872	6894.862620	29027.305162	3818.616544	10643.332314
93.038000	0.389899	0.226722	0.384332	0.422710	6873.785419	28911.837749	3815.714991	10610.335941
93.535500	0.390417	0.226910	0.382705	0.425836	6849.592471	28736.264527	3804.735119	10554.535295
94.036000	0.390249	0.226460	0.384901	0.427779	6830.100738	28594.064275	3805.316118	10520.046109
94.535500	0.389878	0.226344	0.381086	0.430167	6804.785182	28446.189873	3791.159187	10477.877100
95.036000	0.390162	0.225379	0.383621	0.431766	6792.782090	28295.620670	3793.284468	10449.781826
95.536000	0.388317	0.226254	0.386742	0.434261	6753.398613	28200.972242	3794.706273	10406.135135
96.036000	0.391020	0.227354	0.384658	0.438053	6743.566924	28044.384411	3781.432821	10340.258741
96.537000	0.388183	0.224955	0.383560	0.438196	6716.824648	27897.474267	3778.652918	10337.795528
97.037000	0.391533	0.226570	0.387882	0.442264	6710.401352	27756.462121	3779.219647	10267.787710
