sample name	sample
index	517
start time	 03-11-2021  03:38:14 PM
880	0.472250
Peak Time (s)	92.537
Peak Height 	0.4722
calc peak height	90,93
Baseline Time (s)	9.041
Baseline Value 	-0.004887
subtract baseline	10,4
Abs	0.312043
Peak Time (s)	92.036
Peak Height 	0.312
calc peak height	90,93
Baseline Time (s)	9.041
Baseline Value 	0.004144
subtract baseline	10,3
PK_550	0.164039
Peak Time (s)	92.537
Peak Height 	0.164
calc peak height	90,93
Baseline Time (s)	8.535
Baseline Value 	7.4346E-4
subtract baseline	10,2
PK_880	0.305690
Peak Time (s)	92.036
Peak Height 	0.3057
calc peak height	90,93
Baseline Time (s)	8.535
Baseline Value 	0.002783
subtract baseline	10,1


Time (s)	A880-A510	A880-A775	A880-A975	A880	I510	I775	I975	I880	
0.035500	-0.001176	-0.000982	0.003557	0.001237	7021.847678	45094.778274	3994.444357	24005.665152
0.539000	-0.001820	-0.000148	0.000915	0.005643	6974.355631	44749.875260	3976.476021	23792.780427
1.036500	-0.004612	-0.000015	-0.004789	0.003230	6970.817591	44995.422776	3968.186868	23909.102218
1.536500	-0.000058	-0.000686	-0.005150	-0.000166	7045.758799	45259.827562	3975.828835	24073.865638
2.037000	0.000294	-0.000061	0.000377	-0.000053	7048.038258	45309.735349	3989.597544	24068.381063
2.537000	-0.001790	-0.000459	-0.004070	0.002846	7000.878582	44989.670751	3970.959335	23927.667889
3.037500	0.000910	0.000124	0.002419	-0.001809	7070.669503	45499.316111	3999.356822	24154.062547
3.535000	0.000091	0.000167	0.002532	0.000282	7042.915738	45299.226283	3994.261185	24052.048850
4.041000	-0.000726	-0.000255	-0.001871	-0.000025	7038.069609	45288.085754	3983.787932	24067.002891
4.536000	-0.001415	-0.000124	0.001434	-0.000305	7034.192429	45328.235817	3992.952146	24080.678269
5.044500	-0.000441	-0.000154	-0.000110	-0.000378	7044.134991	45332.344147	3989.182141	24084.193970
5.536000	-0.001518	-0.001043	-0.001468	-0.001026	7040.056323	45308.842373	3987.368068	24115.814576
6.039000	-0.002089	-0.001296	-0.002689	-0.000965	7034.054530	45278.182387	3984.098003	24112.817646
6.536500	-0.003048	-0.000772	-0.002304	-0.000537	7020.916724	45287.636649	3983.990107	24091.955072
7.040000	-0.000152	0.000152	0.001576	0.000462	7038.893544	45280.328399	3991.348890	24043.313797
7.534500	-0.000093	-0.000719	-0.000131	-0.000440	7048.042112	45283.347281	3989.289348	24087.251185
8.034500	-0.000957	-0.000286	-0.003392	0.000236	7033.397694	45259.587070	3979.260882	24054.296865
8.535000	0.000000	0.000000	-0.004993	0.000305	7041.834335	45280.795175	3975.038206	24050.956683
9.041000	0.000255	0.000105	0.000000	0.000000	7047.160023	45320.745358	3988.497464	24065.798222
9.538500	-0.001676	0.000188	0.001409	-0.000046	7029.260872	45333.297200	3992.222231	24068.034567
10.036000	0.000468	-0.000469	0.001308	-0.000360	7052.617681	45299.905316	3992.769870	24083.340373
10.536000	-0.000157	-0.000259	-0.001918	0.000267	7040.697496	45259.255189	3982.924953	24052.781161
11.039500	-0.001425	0.000019	-0.000364	-0.000265	7033.717416	45338.182653	3988.243440	24078.707538
11.537000	0.000133	-0.000260	0.000346	0.000165	7044.428823	45269.142058	3988.959826	24057.765671
12.040000	-0.001237	0.000027	0.000995	0.000060	7032.416887	45307.228049	3990.890728	24062.868098
12.537500	-0.003313	-0.001520	-0.004810	0.003384	6981.527367	44835.261121	3967.750499	23901.665655
13.040000	0.000311	0.000578	0.000865	-0.002144	7068.154959	45576.654228	3996.216807	24170.469632
13.535000	0.000731	-0.000969	-0.000687	-0.001430	7065.332007	45355.415767	3990.397485	24135.535950
14.041000	-0.001077	-0.001155	-0.000416	-0.001180	7045.710725	45312.950521	3990.452483	24123.335276
14.536000	-0.001199	-0.000939	-0.004046	0.001551	7018.659004	45068.528452	3974.281782	23990.410998
15.038500	0.000849	0.000689	0.006959	0.000414	7048.876719	45337.268255	4005.352929	24045.652532
15.558000	0.000117	0.000006	-0.000513	-0.001139	7056.695953	45422.238922	3990.099360	24121.326098
16.039500	-0.000500	-0.000463	-0.000909	-0.001236	7051.741817	45385.919765	3989.334053	24126.058894
16.537000	0.000332	0.000194	-0.005544	-0.000325	7050.982162	45361.128406	3975.235890	24081.623007
17.040000	-0.001141	0.000178	0.000086	-0.001221	7045.498466	45447.066810	3991.844991	24125.342943
17.535000	0.003143	0.000396	0.003812	-0.003296	7106.435886	45671.844029	4006.816357	24226.909975
18.040500	0.001011	0.001047	-0.000239	0.001012	7044.720530	45313.904251	3985.303277	24016.575127
18.538000	-0.003204	-0.000749	-0.000871	0.001381	7001.353645	45103.377317	3982.753797	23998.639943
19.038500	0.000590	-0.000166	-0.000759	0.000102	7049.383502	45284.399998	3986.300281	24060.855314
19.536500	-0.001799	0.000333	-0.000621	0.001025	7017.963234	45243.141755	3984.299284	24015.966775
20.039000	-0.001887	-0.000937	0.001179	-0.000347	7030.105905	45252.981730	3992.404576	24082.684705
20.536500	-0.002615	0.000269	-0.000874	0.000473	7015.460845	45290.588293	3985.058497	24042.759107
21.037000	-0.000024	0.000258	-0.001148	0.000796	7036.942652	45258.035423	3983.538108	24027.062077
21.537500	-0.001601	-0.000255	0.001020	-0.000037	7029.880553	45289.222994	3991.201626	24067.584862
22.034000	-0.000597	0.000267	-0.000817	0.000652	7032.869913	45272.992244	3984.748494	24034.075012
22.535000	0.001873	-0.000504	-0.003729	0.000356	7059.189104	45226.717095	3978.103773	24048.463898
23.044000	-0.000713	0.000843	0.001134	0.001410	7024.596418	45255.323538	3987.791596	23997.261137
23.535500	-0.001461	0.000079	-0.000337	-0.000094	7031.752442	45327.378383	3987.877992	24070.384162
24.041500	-0.000953	-0.001082	0.005698	0.000014	7035.550667	45203.824993	4003.123367	24065.135787
24.536500	-0.001771	-0.000801	0.001142	-0.000011	7028.023043	45233.546905	3991.448369	24066.316481
25.039500	0.001952	-0.000373	-0.005518	0.000328	7060.201236	45242.205273	3973.652619	24049.810191
25.536500	0.000119	0.000407	-0.002081	0.000835	7037.930327	45268.770736	3981.068121	24025.169915
26.039500	0.001066	0.000270	0.000539	0.000524	7049.884751	45285.742445	3988.535248	24040.284949
26.537000	-0.001159	0.000064	-0.004267	0.000158	7032.220290	45301.303739	3977.242602	24058.089613
27.039500	-0.001268	-0.000467	0.001508	-0.000025	7032.926980	45267.510668	3992.422685	24067.033334
27.538000	0.001568	-0.000834	0.001166	-0.001717	7076.099393	45396.655517	3995.891329	24149.582877
28.035000	0.000885	0.000095	-0.001630	-0.001559	7068.046112	45472.006100	3988.315790	24141.855404
28.536000	-0.002881	-0.000267	-0.000726	0.003772	6981.939236	44918.686183	3977.059723	23882.912634
29.041000	0.001536	-0.000505	-0.001139	-0.001632	7074.967742	45420.411644	3989.757357	24145.405941
29.536000	0.001900	-0.000219	0.006256	-0.001315	7075.426351	45417.398750	4008.018550	24129.920313
30.039500	-0.002188	-0.001027	-0.001741	-0.002306	7045.848426	45435.264882	3989.942783	24178.365316
30.537000	-0.003775	-0.000911	-0.004263	0.003703	6974.219709	44863.205743	3968.319328	23886.241931
31.078000	0.000365	-0.000030	-0.001137	-0.001303	7060.623233	45434.744511	3988.921663	24129.331787
31.537500	-0.001559	-0.000304	0.000578	0.002169	7009.435929	45070.196408	3984.439696	23960.467593
32.043000	-0.000642	-0.000031	-0.002006	-0.000463	7043.028834	45352.561389	3984.558936	24088.336736
32.540500	-0.002577	-0.000213	0.000833	0.004131	6981.425437	44889.227836	3980.099365	23865.596694
33.040500	0.000070	0.000293	0.000679	-0.000749	7052.529338	45412.219721	3992.155286	24102.320469
33.536000	0.000151	-0.000210	0.000851	-0.001270	7058.272626	45413.869568	3993.932625	24127.722026
34.041500	-0.001162	-0.000288	0.001215	-0.001099	7044.129654	45389.557602	3994.428950	24119.372392
34.536500	-0.001908	0.000243	0.001033	0.004794	6981.484233	44869.281299	3978.925265	23833.661746
35.039500	-0.000766	-0.000041	-0.000132	0.001365	7024.515141	45173.704312	3984.676661	23999.443758
35.537000	-0.000374	-0.000125	-0.001927	0.001335	7028.512038	45168.432777	3980.191475	24000.891929
36.034500	-0.001425	-0.000578	-0.002944	0.000786	7023.757216	45177.863179	3979.003777	24027.579794
36.537500	-0.001755	0.000223	0.000600	0.001983	7009.336815	45139.314367	3984.967729	23969.473644
37.040500	0.000035	-0.000771	0.003238	0.000893	7036.584193	45148.655084	3994.508891	24022.381377
37.535500	-0.000627	-0.000213	0.002785	0.001382	7025.671990	45155.327184	3992.089323	23998.625714
38.035500	-0.001081	-0.000348	0.001438	0.001354	7021.635913	45144.935672	3988.712946	23999.968784
38.535500	-0.000796	0.000462	0.001905	0.001961	7018.589783	45164.671910	3988.355157	23970.519397
39.039000	0.001440	0.000468	0.002115	0.002099	7038.470064	45151.907719	3988.538639	23963.860749
39.536500	-0.001071	0.000236	0.002744	0.001999	7015.643409	45139.025241	3990.405455	23968.701052
40.036500	0.000363	0.000504	-0.000183	0.002133	7027.931439	45151.984239	3982.592263	23962.172504
40.537000	-0.002222	-0.000696	0.000678	0.001214	7012.188226	45124.810021	3987.129141	24006.783942
41.040000	-0.001658	0.000094	-0.000554	0.001892	7011.111814	45135.662247	3982.263635	23973.881811
41.535000	0.000902	0.000661	0.001568	0.002087	7033.481491	45171.794544	3987.170695	23964.417967
42.041000	-0.001218	-0.000770	-0.000766	0.001046	7023.249000	45133.870438	3983.875825	24014.910192
42.535500	-0.001254	-0.000351	0.002070	0.001489	7018.725212	45131.602550	3989.982685	23993.421134
43.035500	-0.000337	-0.000694	0.000175	0.001527	7027.045397	45094.607088	3985.046998	23991.585192
43.536000	-0.001424	-0.000077	0.001023	0.001808	7014.105719	45127.191600	3986.492696	23977.941671
44.039000	-0.001042	0.000106	0.002221	0.001475	7020.862621	45177.341837	3990.406729	23994.106161
44.536500	-0.001117	-0.000535	-0.000920	0.000844	7026.118297	45176.279965	3983.995891	24024.729987
45.039500	-0.000048	-0.000263	0.002318	-0.000913	7052.965961	45373.894794	3996.786083	24110.278928
45.543000	0.000725	-0.000277	0.005967	-0.000800	7059.263908	45361.522049	4005.929194	24104.783980
46.056000	-0.000820	0.000196	0.000097	0.001273	7024.873303	45205.603399	3985.495314	24003.881100
46.535000	-0.000977	0.000024	0.001820	0.001813	7018.276879	45136.507505	3988.515865	23977.690109
47.040500	0.001596	0.000308	0.000764	-0.000365	7063.423704	45376.089457	3991.386606	24083.560712
47.535500	0.000672	-0.000615	0.001095	-0.000605	7056.900998	45309.549385	3992.853426	24095.296582
48.038000	-0.000155	-0.000543	0.000366	-0.000351	7046.599978	45291.811923	3990.333398	24082.909137
48.536000	-0.002267	0.000414	-0.002207	0.003430	6990.900447	45017.619493	3974.182372	23899.435895
49.036000	-0.000427	-0.000256	-0.001497	0.002184	7019.977469	45073.417641	3979.129937	23959.731371
49.536500	0.002035	0.001047	0.007508	0.000547	7058.904857	45359.188975	4006.431905	24039.162820
50.039000	-0.000417	-0.000687	-0.000226	-0.000352	7044.109743	45277.843915	3988.819103	24082.931455
50.539500	0.000186	0.000293	-0.006557	0.003243	7015.764262	45024.009443	3963.727831	23908.490345
51.037500	0.000371	-0.000028	0.002952	-0.002666	7073.721611	45568.341876	4002.949955	24196.013836
51.535000	0.000885	0.000109	0.002819	-0.001655	7068.962046	45482.785249	3999.991769	24146.546994
52.040500	-0.001250	-0.000259	-0.003519	0.001062	7022.799186	45181.946717	3976.848080	24014.137241
52.535500	-0.000694	-0.000231	-0.002086	0.003289	7007.028354	44968.834956	3974.844896	23906.270307
53.039000	-0.002682	-0.002228	0.002260	-0.010226	7117.114337	46097.159157	4020.878320	24569.655868
53.536000	-0.015771	-0.006452	-0.001146	0.119741	5937.592341	34637.865543	3718.775561	18970.031369
54.039500	-0.024704	-0.015365	0.005033	-0.026314	7060.073564	46391.059554	4071.586127	25386.685847
54.539500	-0.010610	-0.031584	0.010997	-0.170730	8886.281989	61295.244371	4565.295443	34250.057114
55.040000	0.018370	-0.041391	0.040289	-0.197287	9700.959278	63587.993118	4796.793189	36225.729221
55.537500	0.031686	-0.003335	0.050197	-0.085020	8318.153419	54068.977724	4393.979789	28638.636973
56.035000	0.036201	0.005550	0.055959	-0.006504	7471.534751	46501.674215	4160.212063	24384.882334
56.535500	0.057718	0.020054	0.065197	0.004889	7579.024173	46814.511790	4153.867567	23829.087056
57.041000	0.074315	0.033327	0.090214	0.047122	7311.629533	43987.185918	4104.295474	21891.393419
57.535500	0.092220	0.043130	0.109505	0.087819	7086.798695	41171.829902	4045.333906	20194.264432
58.038500	0.130957	0.068141	0.135112	0.106605	7282.958451	41723.179993	4063.809083	19462.962015
58.536000	0.172879	0.089050	0.169152	0.129994	7473.427885	41502.624264	4093.241358	18595.528515
59.039500	0.197474	0.105761	0.195749	0.201584	7005.827185	36930.464142	3973.682898	16213.112049
59.537000	0.212543	0.116016	0.218064	0.247351	6726.591711	34265.269622	3916.103389	14883.423946
60.034500	0.225068	0.124484	0.228288	0.281796	6538.957779	32449.289761	3859.817220	13971.160624
60.537500	0.236510	0.132381	0.244647	0.308661	6412.483160	31190.142025	3836.359172	13308.184761
61.037500	0.247589	0.139467	0.251967	0.328222	6344.826585	30391.498623	3809.736098	12850.634047
61.535500	0.256470	0.144611	0.260826	0.344740	6285.033909	29683.098081	3793.455246	12479.987556
62.035500	0.263382	0.151112	0.271787	0.383430	6047.191355	27775.923150	3736.856595	11665.056093
62.536000	0.264410	0.152498	0.276209	0.374789	6117.724934	28354.903982	3763.068174	11840.812059
63.036500	0.272366	0.155252	0.278169	0.378057	6152.488523	28324.939490	3760.409679	11773.929918
63.539000	0.284214	0.164188	0.278230	0.428639	5876.179018	26007.947442	3663.549364	10800.387904
64.036500	0.288157	0.164312	0.279777	0.397103	6128.307039	27748.926911	3725.695049	11393.984366
64.536500	0.290983	0.167042	0.288146	0.409311	6059.626820	27214.385308	3718.238439	11159.072107
65.049000	0.292210	0.166101	0.282271	0.413416	6038.845427	26934.486355	3699.159730	11081.551593
65.535000	0.291019	0.166728	0.283938	0.420146	5982.370331	26600.302668	3689.645542	10956.028020
66.040500	0.293537	0.167939	0.291769	0.427819	5946.167622	26251.524271	3689.939760	10815.270266
66.535500	0.292976	0.166845	0.290365	0.431969	5913.456114	25972.298748	3679.628041	10740.177319
67.038000	0.294293	0.169761	0.292860	0.438223	5879.551787	25796.302568	3672.723580	10628.354810
67.536000	0.292109	0.168063	0.290386	0.440918	5846.430634	25566.789347	3663.327048	10580.676954
68.039000	0.298040	0.168206	0.296279	0.445436	5855.985833	25340.379548	3665.813939	10501.370159
68.536500	0.292140	0.168636	0.297863	0.447656	5801.491325	25248.453167	3664.661924	10462.714629
69.036500	0.295767	0.169753	0.294612	0.450687	5805.457736	25150.592864	3653.371223	10410.250253
69.537500	0.294939	0.169988	0.295034	0.452711	5786.535979	25059.471329	3650.518144	10375.419145
70.035000	0.296929	0.170265	0.295352	0.455813	5779.194575	24916.374585	3645.584867	10322.353184
70.535000	0.296913	0.168796	0.292657	0.455955	5778.147659	24835.163138	3640.589672	10319.933650
71.035500	0.299494	0.170865	0.293415	0.457786	5783.097941	24847.099851	3638.707605	10288.787868
71.535500	0.299929	0.170396	0.302622	0.458763	5779.523289	24774.458936	3653.254927	10272.237448
72.039000	0.299179	0.170231	0.296480	0.459775	5767.915712	24715.481083	3640.593803	10255.114801
72.538500	0.298130	0.170613	0.298114	0.461253	5751.361213	24660.720930	3640.868346	10230.189932
73.039500	0.300255	0.170283	0.301883	0.459922	5774.030700	24710.723529	3649.874332	10252.632907
73.536500	0.301439	0.170070	0.292940	0.459391	5785.346224	24726.630785	3635.074346	10261.602801
74.037000	0.303588	0.170838	0.303679	0.461364	5786.512708	24666.395556	3650.503719	10228.326617
74.534000	0.302399	0.171201	0.305719	0.460053	5787.317423	24750.147299	3656.485091	10250.423668
75.035000	0.304974	0.169943	0.307182	0.458364	5815.665621	24771.778326	3662.153172	10278.995179
75.535000	0.299800	0.170577	0.307177	0.457269	5788.537417	24858.670753	3664.121877	10297.571290
76.035000	0.302197	0.171466	0.303088	0.458504	5796.237674	24841.187351	3654.547957	10276.609122
76.535500	0.301566	0.169536	0.301116	0.456301	5806.689390	24854.938194	3654.959830	10314.026988
77.040000	0.304305	0.170483	0.303072	0.455302	5831.698812	24953.184982	3660.263513	10331.070280
77.536000	0.299934	0.168994	0.301452	0.453524	5814.329123	24967.776413	3660.547213	10361.469010
78.036500	0.302321	0.170640	0.298951	0.454135	5826.211114	25020.258682	3654.962688	10351.001193
78.537000	0.301242	0.168358	0.303323	0.452306	5831.242624	24997.274697	3666.130241	10382.375561
79.037500	0.302048	0.170214	0.299405	0.452530	5835.151178	25080.148791	3658.651995	10378.517565
79.537000	0.303161	0.169313	0.304038	0.452531	5842.640413	25034.298669	3667.019126	10378.505657
80.034500	0.302231	0.169933	0.302367	0.451854	5840.943084	25100.271054	3665.217378	10390.151763
80.537500	0.299373	0.168940	0.302611	0.452319	5818.631759	25026.142836	3664.816401	10382.149594
81.035500	0.301618	0.167095	0.305249	0.450578	5845.413857	25020.897193	3672.787667	10412.136610
81.538000	0.300425	0.167829	0.307607	0.451077	5834.010881	25032.780695	3676.194479	10403.526120
82.036000	0.301263	0.167489	0.306215	0.451168	5839.035918	25010.914834	3673.473102	10401.948062
82.536500	0.299077	0.167874	0.302298	0.452819	5813.308196	24946.763463	3663.345070	10373.554776
83.037000	0.302371	0.166740	0.301919	0.452084	5840.334916	24926.642262	3663.990088	10386.189963
83.537000	0.300549	0.167259	0.305239	0.453586	5818.018402	24877.045574	3667.284064	10360.405302
84.034500	0.295690	0.165387	0.300894	0.451444	5799.910896	24890.610600	3663.292638	10397.196134
84.534500	0.298911	0.164528	0.304570	0.453067	5810.551352	24765.846472	3667.013273	10369.308566
85.034500	0.301755	0.164827	0.305222	0.453917	5823.874490	24738.202035	3666.652111	10354.736545
85.535000	0.299400	0.164550	0.306935	0.454853	5801.915743	24677.554212	3668.064467	10338.737653
86.038500	0.299227	0.164843	0.312023	0.455537	5796.221715	24658.051142	3676.113109	10327.060714
86.538500	0.301707	0.164189	0.298361	0.457540	5799.386080	24525.849600	3647.852747	10292.965584
87.036000	0.297691	0.163182	0.302787	0.457226	5774.898362	24491.452551	3656.295843	10298.291542
87.539500	0.301098	0.163714	0.305348	0.458993	5785.722419	24430.442323	3657.720351	10268.344562
88.034000	0.300870	0.165808	0.309176	0.462355	5762.087294	24367.946585	3658.556958	10211.667605
88.537000	0.299951	0.164345	0.308991	0.461839	5759.445028	24321.329301	3659.150574	10220.334736
89.034500	0.302223	0.163775	0.302399	0.462309	5771.272424	24270.339958	3646.558960	10212.440044
89.535000	0.301911	0.162925	0.306223	0.462323	5769.130172	24228.037768	3653.326966	10212.205026
90.035000	0.298427	0.161236	0.305797	0.464132	5734.545343	24057.603493	3649.348933	10181.886881
90.537500	0.303681	0.163238	0.305238	0.466002	5756.603746	24063.975810	3645.047970	10150.670802
91.035500	0.302201	0.162858	0.311655	0.466477	5743.836157	24022.539917	3655.609048	10142.765761
91.538000	0.303220	0.163978	0.304604	0.468604	5736.628205	23973.856987	3639.357580	10107.480100
92.036000	0.305690	0.162230	0.312043	0.470520	5740.229192	23797.522041	3649.095805	10075.832243
92.536500	0.305098	0.164039	0.307217	0.472250	5725.164703	23801.322935	3637.550409	10047.387219
93.037000	0.304819	0.163202	0.308322	0.472890	5719.221361	23730.603909	3638.362297	10036.880747
93.537000	0.304890	0.163151	0.308856	0.474106	5711.837465	23670.197292	3637.170467	10016.983135
94.034500	0.303291	0.161171	0.305303	0.475604	5691.953231	23505.194550	3628.396333	9992.537992
94.538000	0.304681	0.162069	0.308694	0.476506	5695.075351	23504.997692	3632.707367	9977.857563
95.038000	0.300654	0.161361	0.308814	0.477558	5662.747500	23422.051253	3631.091269	9960.788853
95.574000	0.304955	0.163022	0.312072	0.480128	5673.725070	23379.296551	3632.283460	9919.236316
96.040000	0.304057	0.163525	0.314583	0.484127	5642.783570	23215.825296	3629.705216	9855.075747
96.536500	0.302512	0.161170	0.304970	0.481454	5649.880748	23230.658612	3617.795353	9897.904608
97.036000	0.303911	0.161058	0.311737	0.483083	5648.430857	23149.617490	3626.593070	9871.762735
97.537000	0.304559	0.160258	0.304186	0.483466	5650.097997	23094.755219	3613.050429	9865.637721
