sample name	sample
index	1058
start time	 04-22-2021  09:58:02 AM


Wavelength (nm)	Absorbance
494.344910	-0.169178
494.563924	-0.169178
494.782919	-0.169178
495.001897	0.094109
495.220856	-0.017049
495.439797	-0.027486
495.658719	-0.012673
495.877624	0.006253
496.096510	-0.003452
496.315378	-0.012429
496.534227	-0.018382
496.753059	-0.018407
496.971872	-0.030819
497.190667	0.055832
497.409444	0.084572
497.628203	0.089509
497.846943	0.089736
498.065665	0.091188
498.284369	0.092522
498.503055	0.092304
498.721723	0.092781
498.940372	0.093502
499.159003	0.094223
499.377616	0.093993
499.596210	0.093729
499.814787	0.094193
500.033345	0.094350
500.251885	0.094210
500.470406	0.094054
500.688910	0.095369
500.907395	0.095526
501.125862	0.094236
501.344311	0.093991
501.562742	0.093680
501.781154	0.093687
501.999548	0.092746
502.217924	0.093113
502.436282	0.093390
502.654621	0.091714
502.872942	0.091287
503.091245	0.091977
503.309530	0.092899
503.527797	0.092882
503.746045	0.092898
503.964275	0.093693
504.182487	0.092466
504.400681	0.092506
504.618856	0.093221
504.837013	0.093415
505.055152	0.093234
505.273273	0.092007
505.491376	0.092178
505.709460	0.091668
505.927526	0.091717
506.145574	0.092347
506.363604	0.092056
506.581615	0.091434
506.799608	0.091265
507.017583	0.091377
507.235540	0.091565
507.453478	0.091109
507.671399	0.091107
507.889301	0.090503
508.107185	0.090523
508.325050	0.090575
508.542898	0.091488
508.760727	0.090459
508.978538	0.090660
509.196330	0.090265
509.414105	0.090747
509.631861	0.091106
509.849599	0.090737
510.067319	0.090764
510.285021	0.090822
510.502704	0.090675
510.720369	0.091895
510.938016	0.091212
511.155645	0.091033
511.373255	0.090670
511.590848	0.090404
511.808422	0.090250
512.025977	0.089850
512.243515	0.090195
512.461034	0.090050
512.678536	0.089767
512.896018	0.089496
513.113483	0.090333
513.330930	0.091255
513.548358	0.090851
513.765768	0.091803
513.983160	0.091751
514.200533	0.092332
514.417889	0.092260
514.635226	0.092405
514.852545	0.092653
515.069845	0.092233
515.287128	0.091519
515.504392	0.092629
515.721638	0.092942
515.938866	0.093517
516.156075	0.092610
516.373267	0.092469
516.590440	0.092035
516.807594	0.092528
517.024731	0.092521
517.241850	0.092596
517.458950	0.091592
517.676032	0.090598
517.893095	0.090431
518.110141	0.090186
518.327168	0.089889
518.544177	0.089798
518.761168	0.089259
518.978141	0.089381
519.195095	0.088878
519.412031	0.088920
519.628949	0.089225
519.845849	0.088726
520.062731	0.088976
520.279594	0.089399
520.496439	0.089859
520.713266	0.090018
520.930074	0.090468
521.146865	0.091391
521.363637	0.092197
521.580391	0.092207
521.797127	0.092614
522.013844	0.092347
522.230543	0.092138
522.447224	0.091707
522.663887	0.092481
522.880532	0.091580
523.097158	0.091349
523.313766	0.091121
523.530356	0.090758
523.746928	0.090620
523.963481	0.091179
524.180017	0.091745
524.396534	0.092414
524.613032	0.092224
524.829513	0.091765
525.045975	0.091523
525.262420	0.091721
525.478845	0.092484
525.695253	0.092780
525.911643	0.092393
526.128014	0.092109
526.344367	0.091723
526.560702	0.091356
526.777018	0.092094
526.993316	0.091770
527.209597	0.091752
527.425858	0.091472
527.642102	0.091009
527.858328	0.091076
528.074535	0.090990
528.290724	0.090773
528.506894	0.090821
528.723047	0.090604
528.939181	0.091226
529.155297	0.091036
529.371395	0.090904
529.587475	0.091350
529.803536	0.090677
530.019579	0.090550
530.235604	0.090409
530.451611	0.090625
530.667600	0.090324
530.883570	0.090129
531.099522	0.089924
531.315456	0.090571
531.531372	0.090881
531.747269	0.091757
531.963148	0.091263
532.179009	0.091455
532.394852	0.091265
532.610676	0.091974
532.826482	0.092382
533.042271	0.092424
533.258040	0.091763
533.473792	0.091134
533.689525	0.090759
533.905240	0.091151
534.120937	0.091718
534.336616	0.091748
534.552277	0.091256
534.767919	0.090703
534.983543	0.090812
535.199149	0.091113
535.414736	0.091513
535.630306	0.091557
535.845857	0.091847
536.061390	0.091466
536.276904	0.090964
536.492401	0.090946
536.707879	0.091085
536.923339	0.090885
537.138781	0.090980
537.354204	0.090891
537.569610	0.091189
537.784997	0.091052
538.000366	0.090761
538.215716	0.091223
538.431049	0.091307
538.646363	0.091159
538.861659	0.091231
539.076937	0.090505
539.292196	0.090530
539.507438	0.090413
539.722661	0.090184
539.937866	0.089987
540.153052	0.089915
540.368221	0.089982
540.583371	0.089694
540.798503	0.090019
541.013617	0.090098
541.228712	0.089425
541.443789	0.089017
541.658848	0.089067
541.873889	0.089500
542.088912	0.088904
542.303916	0.089018
542.518902	0.089334
542.733870	0.088783
542.948820	0.088745
543.163752	0.089375
543.378665	0.089287
543.593560	0.089225
543.808437	0.089238
544.023295	0.089802
544.238136	0.089699
544.452958	0.090068
544.667762	0.090162
544.882548	0.090063
545.097315	0.089689
545.312064	0.089692
545.526795	0.089907
545.741508	0.089767
545.956203	0.089864
546.170879	0.089824
546.385537	0.089402
546.600177	0.089544
546.814799	0.090115
547.029402	0.090513
547.243988	0.091093
547.458555	0.090763
547.673103	0.091241
547.887634	0.091092
548.102146	0.091052
548.316640	0.091463
548.531116	0.091842
548.745574	0.092063
548.960013	0.091543
549.174435	0.090958
549.388838	0.090964
549.603222	0.090381
549.817589	0.090531
550.031937	0.090548
550.246267	0.089706
550.460579	0.089009
550.674873	0.088936
550.889148	0.088804
551.103405	0.088803
551.317644	0.089036
551.531865	0.088908
551.746068	0.088577
551.960252	0.088666
552.174418	0.088777
552.388566	0.088777
552.602696	0.088393
552.816807	0.088573
553.030900	0.088721
553.244975	0.088551
553.459032	0.088685
553.673070	0.088546
553.887091	0.088414
554.101093	0.088849
554.315077	0.089102
554.529042	0.089059
554.742990	0.089377
554.956919	0.089204
555.170830	0.089058
555.384722	0.088945
555.598597	0.089258
555.812453	0.089354
556.026291	0.089149
556.240111	0.089330
556.453913	0.089529
556.667696	0.089353
556.881461	0.089578
557.095208	0.089755
557.308937	0.089505
557.522647	0.089047
557.736339	0.089230
557.950013	0.089153
558.163669	0.089200
558.377307	0.089186
558.590926	0.088890
558.804527	0.089226
559.018110	0.089261
559.231675	0.089576
559.445221	0.090311
559.658749	0.090048
559.872259	0.090327
560.085751	0.090193
560.299225	0.089807
560.512680	0.090104
560.726117	0.089530
560.939536	0.089602
561.152937	0.089491
561.366319	0.088830
561.579683	0.088773
561.793029	0.088623
562.006357	0.088552
562.219667	0.088593
562.432958	0.088401
562.646231	0.088462
562.859486	0.088056
563.072723	0.088314
563.285941	0.088631
563.499141	0.088730
563.712323	0.088515
563.925487	0.088252
564.138632	0.088387
564.351760	0.088503
564.564869	0.088740
564.777960	0.089284
564.991032	0.089149
565.204087	0.089413
565.417123	0.089573
565.630141	0.089707
565.843140	0.089578
566.056122	0.089308
566.269085	0.089441
566.482030	0.089295
566.694957	0.088876
566.907866	0.088412
567.120756	0.087900
567.333628	0.087685
567.546482	0.087515
567.759318	0.087945
567.972135	0.088126
568.184935	0.088185
568.397716	0.088117
568.610478	0.088422
568.823223	0.089160
569.035949	0.089364
569.248657	0.089493
569.461347	0.089685
569.674019	0.089240
569.886672	0.089564
570.099308	0.089357
570.311925	0.089280
570.524523	0.089092
570.737104	0.088527
570.949666	0.088353
571.162210	0.088290
571.374736	0.088371
571.587244	0.088639
571.799733	0.088554
572.012205	0.088312
572.224658	0.088075
572.437092	0.087704
572.649509	0.087697
572.861907	0.088045
573.074287	0.088021
573.286649	0.087804
573.498993	0.087732
573.711318	0.087557
573.923625	0.087474
574.135914	0.087953
574.348185	0.088028
574.560438	0.088404
574.772672	0.088171
574.984888	0.088020
575.197086	0.088230
575.409266	0.088488
575.621427	0.088263
575.833570	0.088632
576.045695	0.088491
576.257802	0.088597
576.469890	0.088279
576.681961	0.088057
576.894013	0.088128
577.106046	0.087921
577.318062	0.087373
577.530059	0.087346
577.742039	0.087417
577.954000	0.087586
578.165942	0.087936
578.377867	0.088187
578.589773	0.088154
578.801661	0.088054
579.013531	0.088148
579.225382	0.088540
579.437216	0.088897
579.649031	0.089052
579.860828	0.088715
580.072606	0.088500
580.284367	0.088489
580.496109	0.088899
580.707833	0.089159
580.919539	0.089222
581.131227	0.089056
581.342896	0.088818
581.554547	0.088439
581.766180	0.088581
581.977795	0.088884
582.189391	0.088790
582.400969	0.088476
582.612529	0.088331
582.824071	0.088412
583.035595	0.088399
583.247100	0.088553
583.458587	0.088690
583.670056	0.088709
583.881506	0.088431
584.092939	0.088467
584.304353	0.088471
584.515749	0.088502
584.727127	0.088393
584.938486	0.088390
585.149828	0.088625
585.361151	0.088625
585.572456	0.088594
585.783742	0.088975
585.995011	0.089019
586.206261	0.088992
586.417493	0.088955
586.628706	0.088868
586.839902	0.088879
587.051079	0.088747
587.262238	0.088568
587.473379	0.088559
587.684502	0.088590
587.895606	0.088628
588.106692	0.088711
588.317760	0.088613
588.528810	0.088607
588.739841	0.088817
588.950855	0.088898
589.161850	0.089157
589.372827	0.089261
589.583785	0.088735
589.794726	0.088685
590.005648	0.088830
590.216552	0.088899
590.427437	0.089142
590.638305	0.088900
590.849154	0.088674
591.059985	0.088662
591.270798	0.088592
591.481592	0.088872
591.692369	0.088727
591.903127	0.088697
592.113867	0.088802
592.324588	0.088661
592.535292	0.089011
592.745977	0.089358
592.956644	0.089276
593.167293	0.089434
593.377923	0.089799
593.588536	0.089958
593.799130	0.089895
594.009706	0.089930
594.220263	0.090038
594.430803	0.090103
594.641324	0.089777
594.851827	0.089701
595.062312	0.089994
595.272778	0.089344
595.483227	0.088943
595.693657	0.089189
595.904069	0.089035
596.114462	0.088953
596.324838	0.088911
596.535195	0.088805
596.745534	0.088933
596.955855	0.088750
597.166157	0.089105
597.376441	0.089643
597.586707	0.089437
597.796955	0.089612
598.007185	0.089645
598.217396	0.089591
598.427589	0.089826
598.637764	0.089825
598.847921	0.089749
599.058060	0.089625
599.268180	0.089440
599.478282	0.089196
599.688366	0.089116
599.898431	0.089110
600.108479	0.088996
600.318508	0.088790
600.528519	0.088725
600.738511	0.088647
600.948486	0.088417
601.158442	0.088305
601.368380	0.088592
601.578300	0.088512
601.788202	0.088643
601.998085	0.088840
602.207950	0.089031
602.417797	0.088781
602.627626	0.088721
602.837436	0.088836
603.047228	0.088829
603.257002	0.088945
603.466758	0.088797
603.676496	0.088572
603.886215	0.088428
604.095916	0.088340
604.305599	0.088410
604.515264	0.088515
604.724910	0.088412
604.934538	0.088347
605.144148	0.088329
605.353740	0.088358
605.563314	0.088192
605.772869	0.088016
605.982406	0.087955
606.191925	0.088189
606.401425	0.087928
606.610908	0.088147
606.820372	0.088426
607.029818	0.088279
607.239246	0.088082
607.448655	0.088074
607.658047	0.088240
607.867420	0.088500
608.076775	0.088325
608.286111	0.088551
608.495430	0.088589
608.704730	0.088364
608.914012	0.088335
609.123275	0.088392
609.332521	0.088618
609.541748	0.088536
609.750957	0.088068
609.960148	0.088102
610.169321	0.088145
610.378475	0.087805
610.587611	0.087763
610.796729	0.087647
611.005829	0.087654
611.214910	0.087363
611.423974	0.087247
611.633019	0.087327
611.842045	0.087155
612.051054	0.086867
612.260044	0.086987
612.469017	0.087292
612.677970	0.087103
612.886906	0.087053
613.095824	0.086999
613.304723	0.086907
613.513604	0.086703
613.722467	0.086777
613.931311	0.086936
614.140138	0.087006
614.348946	0.086621
614.557736	0.086918
614.766507	0.087086
614.975261	0.087320
615.183996	0.087217
615.392713	0.087352
615.601412	0.087510
615.810092	0.087219
616.018754	0.087405
616.227399	0.087436
616.436024	0.087453
616.644632	0.087545
616.853222	0.087579
617.061793	0.087437
617.270346	0.087479
617.478880	0.087271
617.687397	0.087417
617.895895	0.086955
618.104375	0.086854
618.312837	0.086826
618.521281	0.086484
618.729706	0.086128
618.938113	0.086400
619.146502	0.086331
619.354873	0.086408
619.563226	0.086244
619.771560	0.086287
619.979876	0.086182
620.188174	0.086103
620.396453	0.085986
620.604715	0.085995
620.812958	0.085869
621.021183	0.085807
621.229390	0.085767
621.437578	0.085882
621.645748	0.085777
621.853900	0.086123
622.062034	0.086082
622.270150	0.086316
622.478247	0.086692
622.686326	0.086716
622.894387	0.086853
623.102430	0.086882
623.310454	0.086760
623.518461	0.086819
623.726449	0.086550
623.934418	0.086502
624.142370	0.086633
624.350303	0.086413
624.558218	0.086694
624.766115	0.086540
624.973994	0.086276
625.181855	0.086136
625.389697	0.085875
625.597521	0.086140
625.805327	0.085861
626.013114	0.085854
626.220883	0.085777
626.428634	0.085626
626.636367	0.085624
626.844082	0.085901
627.051778	0.086168
627.259457	0.086494
627.467117	0.086362
627.674758	0.086604
627.882382	0.086517
628.089987	0.086457
628.297574	0.086402
628.505143	0.086448
628.712694	0.086260
628.920226	0.086340
629.127740	0.086532
629.335236	0.086383
629.542714	0.086328
629.750174	0.086315
629.957615	0.086336
630.165038	0.086227
630.372443	0.086050
630.579829	0.086171
630.787198	0.086150
630.994548	0.085921
631.201880	0.085832
631.409194	0.085912
631.616489	0.085755
631.823766	0.085785
632.031025	0.085803
632.238266	0.086074
632.445489	0.085799
632.652693	0.085720
632.859879	0.085913
633.067047	0.086007
633.274197	0.086127
633.481329	0.086268
633.688442	0.086301
633.895537	0.086423
634.102614	0.086404
634.309672	0.086592
634.516713	0.086656
634.723735	0.086602
634.930739	0.086604
635.137724	0.086409
635.344692	0.086482
635.551641	0.086537
635.758572	0.086491
635.965485	0.086358
636.172379	0.086534
636.379256	0.086494
636.586114	0.086491
636.792954	0.086400
636.999775	0.086521
637.206579	0.086502
637.413364	0.086531
637.620131	0.086657
637.826880	0.086685
638.033610	0.086497
638.240323	0.086574
638.447017	0.086500
638.653692	0.086695
638.860350	0.086561
639.066990	0.086472
639.273611	0.086414
639.480214	0.086328
639.686798	0.086336
639.893365	0.086399
640.099913	0.086226
640.306443	0.086233
640.512955	0.086407
640.719449	0.086491
640.925924	0.086670
641.132381	0.086810
641.338820	0.086992
641.545241	0.087125
641.751644	0.087283
641.958028	0.087203
642.164394	0.087309
642.370742	0.087097
642.577071	0.087086
642.783383	0.086951
642.989676	0.086889
643.195951	0.086814
643.402207	0.087092
643.608446	0.087018
643.814666	0.087259
644.020868	0.087042
644.227052	0.087000
644.433218	0.087043
644.639365	0.087296
644.845494	0.087360
645.051605	0.087128
645.257698	0.086770
645.463772	0.086599
645.669828	0.086502
645.875866	0.086639
646.081886	0.086755
646.287888	0.086731
646.493871	0.086571
646.699836	0.086477
646.905783	0.086487
647.111712	0.086606
647.317622	0.086690
647.523514	0.086554
647.729388	0.086556
647.935244	0.086310
648.141082	0.086157
648.346901	0.086007
648.552702	0.086102
648.758485	0.086200
648.964250	0.086035
649.169996	0.086392
649.375724	0.086452
649.581434	0.086359
649.787126	0.086710
649.992800	0.086647
650.198455	0.086634
650.404092	0.086373
650.609711	0.086422
650.815311	0.086554
651.020894	0.086213
651.226458	0.086353
651.432004	0.086346
651.637532	0.086384
651.843041	0.086709
652.048532	0.086723
652.254006	0.087103
652.459460	0.087211
652.664897	0.087234
652.870315	0.087493
653.075716	0.087623
653.281097	0.087845
653.486461	0.087757
653.691807	0.087646
653.897134	0.088011
654.102443	0.087954
654.307734	0.087776
654.513006	0.087775
654.718261	0.087700
654.923497	0.087672
655.128715	0.087578
655.333915	0.087441
655.539096	0.087572
655.744259	0.087259
655.949404	0.087131
656.154531	0.087335
656.359640	0.087363
656.564730	0.087078
656.769802	0.086802
656.974856	0.086834
657.179892	0.086963
657.384909	0.087129
657.589908	0.087439
657.794889	0.087438
657.999852	0.087331
658.204797	0.087260
658.409723	0.087482
658.614631	0.087694
658.819521	0.087735
659.024393	0.087780
659.229246	0.087577
659.434081	0.087514
659.638898	0.087682
659.843697	0.087690
660.048478	0.088009
660.253240	0.088053
660.457984	0.088054
660.662710	0.088207
660.867417	0.088253
661.072107	0.088254
661.276778	0.088187
661.481431	0.088182
661.686066	0.088221
661.890682	0.087955
662.095281	0.088051
662.299861	0.087993
662.504422	0.087739
662.708966	0.087679
662.913491	0.087750
663.117999	0.087752
663.322488	0.087747
663.526958	0.087740
663.731411	0.087958
663.935845	0.087890
664.140261	0.088043
664.344659	0.088246
664.549038	0.088364
664.753400	0.088457
664.957743	0.088406
665.162068	0.088308
665.366375	0.088380
665.570663	0.088380
665.774933	0.088556
665.979185	0.088645
666.183419	0.088503
666.387635	0.088452
666.591832	0.088358
666.796011	0.088452
667.000172	0.088494
667.204315	0.088464
667.408439	0.088298
667.612545	0.088308
667.816634	0.088372
668.020703	0.088445
668.224755	0.088459
668.428788	0.088416
668.632803	0.088376
668.836800	0.088368
669.040779	0.088522
669.244739	0.088418
669.448681	0.088378
669.652605	0.088146
669.856511	0.087934
670.060399	0.087616
670.264268	0.087327
670.468119	0.087260
670.671952	0.087200
670.875767	0.086887
671.079563	0.086826
671.283341	0.086653
671.487101	0.086665
671.690843	0.086784
671.894567	0.087043
672.098272	0.087334
672.301959	0.087395
672.505628	0.087395
672.709278	0.087559
672.912911	0.087531
673.116525	0.087431
673.320121	0.087430
673.523699	0.087395
673.727258	0.087517
673.930799	0.087567
674.134322	0.087456
674.337827	0.087697
674.541314	0.087689
674.744782	0.087831
674.948232	0.088085
675.151664	0.088184
675.355078	0.088263
675.558474	0.088155
675.761851	0.088125
675.965210	0.088358
676.168551	0.088237
676.371873	0.088291
676.575178	0.088361
676.778464	0.088197
676.981732	0.088003
677.184981	0.088052
677.388213	0.088010
677.591426	0.087983
677.794621	0.088069
677.997798	0.088055
678.200956	0.088153
678.404097	0.088185
678.607219	0.088221
678.810323	0.088573
679.013408	0.088821
679.216476	0.089046
679.419525	0.089180
679.622556	0.089049
679.825569	0.089007
680.028563	0.088875
680.231540	0.088804
680.434498	0.088807
680.637438	0.088555
680.840359	0.088340
681.043263	0.088122
681.246148	0.088025
681.449015	0.088076
681.651864	0.088209
681.854694	0.088175
682.057506	0.088286
682.260301	0.088319
682.463076	0.088430
682.665834	0.088345
682.868573	0.088516
683.071295	0.088674
683.273998	0.088498
683.476682	0.088424
683.679349	0.088478
683.881997	0.088300
684.084627	0.088381
684.287239	0.088400
684.489833	0.088551
684.692408	0.088409
684.894965	0.088251
685.097504	0.088311
685.300025	0.088211
685.502527	0.088129
685.705012	0.088208
685.907478	0.088152
686.109925	0.088090
686.312355	0.087871
686.514766	0.087951
686.717159	0.088081
686.919534	0.088113
687.121891	0.088122
687.324230	0.088097
687.526550	0.088007
687.728852	0.087874
687.931136	0.087852
688.133401	0.087788
688.335649	0.087707
688.537878	0.087522
688.740089	0.087342
688.942281	0.087451
689.144456	0.087529
689.346612	0.087540
689.548750	0.087611
689.750870	0.087624
689.952971	0.087867
690.155055	0.087860
690.357120	0.087941
690.559167	0.088010
690.761195	0.088018
690.963206	0.088037
691.165198	0.088200
691.367172	0.088236
691.569128	0.088239
691.771065	0.088403
691.972984	0.088611
692.174885	0.088786
692.376768	0.088905
692.578633	0.088812
692.780479	0.088849
692.982308	0.088983
693.184118	0.089176
693.385909	0.089137
