sample name	sample
index	1147
start time	 04-22-2021  03:21:59 PM


Wavelength (nm)	Absorbance
494.344910	-1.114573
494.563924	-1.114573
494.782919	-1.114573
495.001897	NaN
495.220856	-0.466017
495.439797	-0.489366
495.658719	-0.520714
495.877624	-0.405863
496.096510	-0.498146
496.315378	-0.474361
496.534227	-0.339609
496.753059	-0.305348
496.971872	-0.221533
497.190667	0.120646
497.409444	0.129487
497.628203	0.130710
497.846943	0.127717
498.065665	0.125636
498.284369	0.125395
498.503055	0.125094
498.721723	0.124774
498.940372	0.123959
499.159003	0.122512
499.377616	0.121046
499.596210	0.120452
499.814787	0.120722
500.033345	0.120448
500.251885	0.120410
500.470406	0.120237
500.688910	0.121142
500.907395	0.121050
501.125862	0.120754
501.344311	0.120939
501.562742	0.120338
501.781154	0.121886
501.999548	0.122702
502.217924	0.122539
502.436282	0.123257
502.654621	0.123096
502.872942	0.123688
503.091245	0.123776
503.309530	0.123378
503.527797	0.123765
503.746045	0.121641
503.964275	0.122667
504.182487	0.122920
504.400681	0.122257
504.618856	0.122519
504.837013	0.120994
505.055152	0.121731
505.273273	0.121581
505.491376	0.120427
505.709460	0.120060
505.927526	0.119752
506.145574	0.119934
506.363604	0.120706
506.581615	0.120814
506.799608	0.121838
507.017583	0.121103
507.235540	0.122647
507.453478	0.123777
507.671399	0.124920
507.889301	0.124928
508.107185	0.124499
508.325050	0.124596
508.542898	0.123686
508.760727	0.122570
508.978538	0.122870
509.196330	0.123399
509.414105	0.123642
509.631861	0.122805
509.849599	0.122877
510.067319	0.123536
510.285021	0.123650
510.502704	0.124648
510.720369	0.125849
510.938016	0.126404
511.155645	0.125971
511.373255	0.126124
511.590848	0.126922
511.808422	0.127118
512.025977	0.126939
512.243515	0.126425
512.461034	0.126318
512.678536	0.126086
512.896018	0.125563
513.113483	0.125583
513.330930	0.125072
513.548358	0.124703
513.765768	0.125177
513.983160	0.126202
514.200533	0.126183
514.417889	0.125808
514.635226	0.126202
514.852545	0.127072
515.069845	0.127245
515.287128	0.128402
515.504392	0.129273
515.721638	0.129160
515.938866	0.128030
516.156075	0.127979
516.373267	0.128248
516.590440	0.127659
516.807594	0.126845
517.024731	0.126562
517.241850	0.125401
517.458950	0.124833
517.676032	0.123746
517.893095	0.123707
518.110141	0.124601
518.327168	0.125555
518.544177	0.126100
518.761168	0.127185
518.978141	0.127285
519.195095	0.126893
519.412031	0.127011
519.628949	0.127863
519.845849	0.127623
520.062731	0.126463
520.279594	0.126212
520.496439	0.126743
520.713266	0.125660
520.930074	0.125307
521.146865	0.126285
521.363637	0.126192
521.580391	0.126311
521.797127	0.127234
522.013844	0.128028
522.230543	0.127944
522.447224	0.128295
522.663887	0.129092
522.880532	0.130074
523.097158	0.130258
523.313766	0.129874
523.530356	0.130152
523.746928	0.130423
523.963481	0.130977
524.180017	0.130500
524.396534	0.129327
524.613032	0.129531
524.829513	0.128657
525.045975	0.128132
525.262420	0.129445
525.478845	0.129128
525.695253	0.129464
525.911643	0.128396
526.128014	0.128870
526.344367	0.129538
526.560702	0.129429
526.777018	0.129711
526.993316	0.130233
527.209597	0.129867
527.425858	0.129966
527.642102	0.129706
527.858328	0.130474
528.074535	0.130668
528.290724	0.130904
528.506894	0.131414
528.723047	0.131660
528.939181	0.132182
529.155297	0.132497
529.371395	0.133406
529.587475	0.132948
529.803536	0.133180
530.019579	0.133769
530.235604	0.134051
530.451611	0.134303
530.667600	0.134451
530.883570	0.133893
531.099522	0.134148
531.315456	0.133713
531.531372	0.134008
531.747269	0.134122
531.963148	0.133342
532.179009	0.133621
532.394852	0.133096
532.610676	0.133522
532.826482	0.133794
533.042271	0.133837
533.258040	0.133106
533.473792	0.133556
533.689525	0.133356
533.905240	0.134267
534.120937	0.134029
534.336616	0.134189
534.552277	0.133854
534.767919	0.134246
534.983543	0.133882
535.199149	0.134009
535.414736	0.133862
535.630306	0.133986
535.845857	0.133473
536.061390	0.133718
536.276904	0.133673
536.492401	0.133828
536.707879	0.133169
536.923339	0.133643
537.138781	0.134125
537.354204	0.134285
537.569610	0.134549
537.784997	0.135024
538.000366	0.134813
538.215716	0.135024
538.431049	0.135638
538.646363	0.136247
538.861659	0.136247
539.076937	0.136894
539.292196	0.136963
539.507438	0.137112
539.722661	0.137043
539.937866	0.137301
540.153052	0.137369
540.368221	0.137003
540.583371	0.137091
540.798503	0.137021
541.013617	0.137478
541.228712	0.137885
541.443789	0.137798
541.658848	0.138254
541.873889	0.138448
542.088912	0.138722
542.303916	0.139256
542.518902	0.139786
542.733870	0.139751
542.948820	0.139257
543.163752	0.139521
543.378665	0.139661
543.593560	0.139640
543.808437	0.139549
544.023295	0.139759
544.238136	0.139918
544.452958	0.139425
544.667762	0.139830
544.882548	0.139819
545.097315	0.139264
545.312064	0.139179
545.526795	0.138874
545.741508	0.139377
545.956203	0.139895
546.170879	0.139883
546.385537	0.140040
546.600177	0.139887
546.814799	0.140161
547.029402	0.140503
547.243988	0.140925
547.458555	0.141530
547.673103	0.141364
547.887634	0.140339
548.102146	0.140189
548.316640	0.140309
548.531116	0.140825
548.745574	0.140845
548.960013	0.140813
549.174435	0.141160
549.388838	0.140870
549.603222	0.141208
549.817589	0.142070
550.031937	0.142690
550.246267	0.142994
550.460579	0.143289
550.674873	0.142956
550.889148	0.143132
551.103405	0.143002
551.317644	0.143003
551.531865	0.143058
551.746068	0.143036
551.960252	0.142690
552.174418	0.142664
552.388566	0.142320
552.602696	0.142998
552.816807	0.142859
553.030900	0.142843
553.244975	0.143076
553.459032	0.143044
553.673070	0.143307
553.887091	0.143364
554.101093	0.143551
554.315077	0.143999
554.529042	0.143752
554.742990	0.144149
554.956919	0.144175
555.170830	0.144512
555.384722	0.144339
555.598597	0.144232
555.812453	0.144397
556.026291	0.144276
556.240111	0.143549
556.453913	0.143722
556.667696	0.143909
556.881461	0.144207
557.095208	0.143833
557.308937	0.143942
557.522647	0.143836
557.736339	0.144037
557.950013	0.144482
558.163669	0.145171
558.377307	0.145040
558.590926	0.145261
558.804527	0.145315
559.018110	0.145850
559.231675	0.145755
559.445221	0.146081
559.658749	0.145650
559.872259	0.145422
560.085751	0.145589
560.299225	0.146161
560.512680	0.146262
560.726117	0.146275
560.939536	0.146087
561.152937	0.146488
561.366319	0.146330
561.579683	0.146829
561.793029	0.147136
562.006357	0.146911
562.219667	0.146490
562.432958	0.146506
562.646231	0.146676
562.859486	0.146748
563.072723	0.146857
563.285941	0.147229
563.499141	0.147251
563.712323	0.147125
563.925487	0.147256
564.138632	0.147304
564.351760	0.147003
564.564869	0.146923
564.777960	0.147045
564.991032	0.146902
565.204087	0.146461
565.417123	0.146008
565.630141	0.145993
565.843140	0.146099
566.056122	0.146372
566.269085	0.146484
566.482030	0.146445
566.694957	0.146594
566.907866	0.147004
567.120756	0.147788
567.333628	0.148325
567.546482	0.148686
567.759318	0.148631
567.972135	0.149012
568.184935	0.149200
568.397716	0.149564
568.610478	0.149509
568.823223	0.149566
569.035949	0.149183
569.248657	0.149232
569.461347	0.149090
569.674019	0.149056
569.886672	0.148733
570.099308	0.148566
570.311925	0.148502
570.524523	0.148514
570.737104	0.148449
570.949666	0.148721
571.162210	0.148655
571.374736	0.148461
571.587244	0.148888
571.799733	0.149234
572.012205	0.149668
572.224658	0.150047
572.437092	0.150275
572.649509	0.150379
572.861907	0.150372
573.074287	0.150257
573.286649	0.150710
573.498993	0.150508
573.711318	0.150719
573.923625	0.150844
574.135914	0.150518
574.348185	0.150319
574.560438	0.150455
574.772672	0.150568
574.984888	0.151270
575.197086	0.151334
575.409266	0.151363
575.621427	0.151193
575.833570	0.151124
576.045695	0.151028
576.257802	0.151247
576.469890	0.151464
576.681961	0.151457
576.894013	0.151420
577.106046	0.151348
577.318062	0.151407
577.530059	0.151585
577.742039	0.151543
577.954000	0.151873
578.165942	0.152159
578.377867	0.152248
578.589773	0.152126
578.801661	0.151796
579.013531	0.151853
579.225382	0.152126
579.437216	0.151921
579.649031	0.151752
579.860828	0.151865
580.072606	0.151833
580.284367	0.151542
580.496109	0.151640
580.707833	0.151832
580.919539	0.151393
581.131227	0.151455
581.342896	0.152097
581.554547	0.152514
581.766180	0.152388
581.977795	0.152028
582.189391	0.152466
582.400969	0.152243
582.612529	0.152012
582.824071	0.152762
583.035595	0.152853
583.247100	0.152483
583.458587	0.152885
583.670056	0.153095
583.881506	0.153661
584.092939	0.153785
584.304353	0.154016
584.515749	0.154690
584.727127	0.154675
584.938486	0.154786
585.149828	0.154671
585.361151	0.154656
585.572456	0.154745
585.783742	0.154390
585.995011	0.154144
586.206261	0.154456
586.417493	0.154109
586.628706	0.154034
586.839902	0.153835
587.051079	0.153869
587.262238	0.153890
587.473379	0.153939
587.684502	0.154118
587.895606	0.154139
588.106692	0.154401
588.317760	0.154585
588.528810	0.154725
588.739841	0.155062
588.950855	0.155324
589.161850	0.155369
589.372827	0.155446
589.583785	0.155827
589.794726	0.155869
590.005648	0.155847
590.216552	0.156286
590.427437	0.156344
590.638305	0.156478
590.849154	0.156331
591.059985	0.155919
591.270798	0.156154
591.481592	0.156017
591.692369	0.156289
591.903127	0.156449
592.113867	0.156272
592.324588	0.156388
592.535292	0.156532
592.745977	0.156729
592.956644	0.157401
593.167293	0.157000
593.377923	0.157146
593.588536	0.157240
593.799130	0.157102
594.009706	0.157121
594.220263	0.157490
594.430803	0.157442
594.641324	0.157486
594.851827	0.157206
595.062312	0.157562
595.272778	0.157733
595.483227	0.157479
595.693657	0.157961
595.904069	0.158020
596.114462	0.157569
596.324838	0.157254
596.535195	0.157621
596.745534	0.157768
596.955855	0.157657
597.166157	0.157946
597.376441	0.157959
597.586707	0.157330
597.796955	0.157344
598.007185	0.157290
598.217396	0.157345
598.427589	0.157251
598.637764	0.156807
598.847921	0.157355
599.058060	0.156969
599.268180	0.157216
599.478282	0.157820
599.688366	0.157913
599.898431	0.158428
600.108479	0.159063
600.318508	0.158989
600.528519	0.159394
600.738511	0.159310
600.948486	0.159207
601.158442	0.159413
601.368380	0.159103
601.578300	0.159135
601.788202	0.159136
601.998085	0.158717
602.207950	0.158989
602.417797	0.159261
602.627626	0.159163
602.837436	0.159477
603.047228	0.159171
603.257002	0.159237
603.466758	0.159199
603.676496	0.158918
603.886215	0.159084
604.095916	0.158936
604.305599	0.159142
604.515264	0.159173
604.724910	0.159356
604.934538	0.159436
605.144148	0.159520
605.353740	0.159526
605.563314	0.160142
605.772869	0.160228
605.982406	0.160567
606.191925	0.160122
606.401425	0.160003
606.610908	0.159644
606.820372	0.159929
607.029818	0.159642
607.239246	0.159813
607.448655	0.159348
607.658047	0.159183
607.867420	0.158972
608.076775	0.159158
608.286111	0.159131
608.495430	0.159374
608.704730	0.159210
608.914012	0.159568
609.123275	0.159350
609.332521	0.159476
609.541748	0.159772
609.750957	0.159678
609.960148	0.159972
610.169321	0.160361
610.378475	0.160570
610.587611	0.160839
610.796729	0.161014
611.005829	0.161379
611.214910	0.161574
611.423974	0.161698
611.633019	0.162044
611.842045	0.161952
612.051054	0.162064
612.260044	0.162022
612.469017	0.162000
612.677970	0.162119
612.886906	0.162072
613.095824	0.162051
613.304723	0.162175
613.513604	0.161913
613.722467	0.161921
613.931311	0.161806
614.140138	0.161831
614.348946	0.162098
614.557736	0.162134
614.766507	0.162459
614.975261	0.162758
615.183996	0.162572
615.392713	0.162695
615.601412	0.162698
615.810092	0.162896
616.018754	0.163051
616.227399	0.162847
616.436024	0.162680
616.644632	0.162420
616.853222	0.162178
617.061793	0.162182
617.270346	0.162193
617.478880	0.162287
617.687397	0.162095
617.895895	0.162020
618.104375	0.161984
618.312837	0.161935
618.521281	0.162110
618.729706	0.162214
618.938113	0.162252
619.146502	0.162580
619.354873	0.162737
619.563226	0.162718
619.771560	0.162714
619.979876	0.163017
620.188174	0.163329
620.396453	0.163456
620.604715	0.163226
620.812958	0.163532
621.021183	0.163385
621.229390	0.163175
621.437578	0.163255
621.645748	0.163756
621.853900	0.163606
622.062034	0.163331
622.270150	0.163068
622.478247	0.163306
622.686326	0.163123
622.894387	0.163605
623.102430	0.163845
623.310454	0.163916
623.518461	0.163837
623.726449	0.163896
623.934418	0.164408
624.142370	0.164556
624.350303	0.164676
624.558218	0.164761
624.766115	0.164385
624.973994	0.164460
625.181855	0.164596
625.389697	0.164447
625.597521	0.164324
625.805327	0.164250
626.013114	0.164514
626.220883	0.164568
626.428634	0.164620
626.636367	0.164740
626.844082	0.164668
627.051778	0.164830
627.259457	0.164771
627.467117	0.164938
627.674758	0.164971
627.882382	0.165043
628.089987	0.165066
628.297574	0.165115
628.505143	0.165151
628.712694	0.164929
628.920226	0.164892
629.127740	0.165003
629.335236	0.165218
629.542714	0.165071
629.750174	0.164888
629.957615	0.165013
630.165038	0.165025
630.372443	0.165005
630.579829	0.165655
630.787198	0.165742
630.994548	0.165649
631.201880	0.165451
631.409194	0.165564
631.616489	0.165534
631.823766	0.165503
632.031025	0.165605
632.238266	0.165479
632.445489	0.165559
632.652693	0.165607
632.859879	0.166060
633.067047	0.165946
633.274197	0.166105
633.481329	0.166547
633.688442	0.166529
633.895537	0.166630
634.102614	0.166755
634.309672	0.166427
634.516713	0.166424
634.723735	0.166200
634.930739	0.166757
635.137724	0.166598
635.344692	0.166607
635.551641	0.166763
635.758572	0.166910
635.965485	0.167346
636.172379	0.167727
636.379256	0.168052
636.586114	0.168397
636.792954	0.168386
636.999775	0.168790
637.206579	0.168608
637.413364	0.168707
637.620131	0.168704
637.826880	0.168655
638.033610	0.168629
638.240323	0.168429
638.447017	0.168253
638.653692	0.168107
638.860350	0.168109
639.066990	0.168421
639.273611	0.168489
639.480214	0.168471
639.686798	0.168539
639.893365	0.168498
640.099913	0.168704
640.306443	0.169080
640.512955	0.169622
640.719449	0.169564
640.925924	0.169402
641.132381	0.169691
641.338820	0.170015
641.545241	0.170163
641.751644	0.170151
641.958028	0.170352
642.164394	0.170157
642.370742	0.169982
642.577071	0.170116
642.783383	0.170497
642.989676	0.170503
643.195951	0.170385
643.402207	0.170333
643.608446	0.170536
643.814666	0.170416
644.020868	0.170292
644.227052	0.170146
644.433218	0.170096
644.639365	0.169940
644.845494	0.169838
645.051605	0.169925
645.257698	0.170271
645.463772	0.170238
645.669828	0.170232
645.875866	0.170348
646.081886	0.170292
646.287888	0.170473
646.493871	0.170698
646.699836	0.171028
646.905783	0.171214
647.111712	0.171005
647.317622	0.171123
647.523514	0.171490
647.729388	0.171707
647.935244	0.172074
648.141082	0.172119
648.346901	0.172235
648.552702	0.172202
648.758485	0.172151
648.964250	0.172282
649.169996	0.172656
649.375724	0.172533
649.581434	0.172672
649.787126	0.172566
649.992800	0.172751
650.198455	0.172880
650.404092	0.172884
650.609711	0.173054
650.815311	0.173116
651.020894	0.173069
651.226458	0.173314
651.432004	0.173373
651.637532	0.173711
651.843041	0.173933
652.048532	0.173885
652.254006	0.174182
652.459460	0.174085
652.664897	0.174352
652.870315	0.174499
653.075716	0.174529
653.281097	0.174711
653.486461	0.174803
653.691807	0.174679
653.897134	0.174774
654.102443	0.174706
654.307734	0.174933
654.513006	0.174860
654.718261	0.174860
654.923497	0.174806
655.128715	0.174891
655.333915	0.174910
655.539096	0.175104
655.744259	0.175187
655.949404	0.175294
656.154531	0.175342
656.359640	0.175298
656.564730	0.175535
656.769802	0.175611
656.974856	0.175669
657.179892	0.175764
657.384909	0.176044
657.589908	0.176188
657.794889	0.176272
657.999852	0.176222
658.204797	0.176581
658.409723	0.176550
658.614631	0.176753
658.819521	0.177052
659.024393	0.177175
659.229246	0.177153
659.434081	0.177075
659.638898	0.177040
659.843697	0.177367
660.048478	0.177383
660.253240	0.177566
660.457984	0.177737
660.662710	0.177559
660.867417	0.177578
661.072107	0.177617
661.276778	0.177583
661.481431	0.177899
661.686066	0.177933
661.890682	0.178109
662.095281	0.177928
662.299861	0.177877
662.504422	0.177989
662.708966	0.178147
662.913491	0.178071
663.117999	0.178361
663.322488	0.178300
663.526958	0.178329
663.731411	0.178197
663.935845	0.178301
664.140261	0.178509
664.344659	0.178591
664.549038	0.178708
664.753400	0.178932
664.957743	0.179083
665.162068	0.179349
665.366375	0.179311
665.570663	0.179741
665.774933	0.179977
665.979185	0.179991
666.183419	0.180166
666.387635	0.180230
666.591832	0.180308
666.796011	0.180506
667.000172	0.180311
667.204315	0.180643
667.408439	0.180515
667.612545	0.180601
667.816634	0.180791
668.020703	0.180905
668.224755	0.181401
668.428788	0.181783
668.632803	0.182018
668.836800	0.182676
669.040779	0.183109
669.244739	0.183471
669.448681	0.183663
669.652605	0.184135
669.856511	0.184393
670.060399	0.184338
670.264268	0.184458
670.468119	0.184533
670.671952	0.184506
670.875767	0.184424
671.079563	0.184414
671.283341	0.184573
671.487101	0.184361
671.690843	0.184400
671.894567	0.184326
672.098272	0.184300
672.301959	0.184296
672.505628	0.184227
672.709278	0.184398
672.912911	0.184607
673.116525	0.184691
673.320121	0.184784
673.523699	0.184922
673.727258	0.185195
673.930799	0.185244
674.134322	0.185341
674.337827	0.185306
674.541314	0.185346
674.744782	0.185220
674.948232	0.185240
675.151664	0.185212
675.355078	0.185194
675.558474	0.185231
675.761851	0.185325
675.965210	0.185449
676.168551	0.185597
676.371873	0.185789
676.575178	0.185861
676.778464	0.186046
676.981732	0.186155
677.184981	0.186194
677.388213	0.186131
677.591426	0.186118
677.794621	0.185990
677.997798	0.186262
678.200956	0.186233
678.404097	0.186180
678.607219	0.186160
678.810323	0.186253
679.013408	0.186536
679.216476	0.186913
679.419525	0.186770
679.622556	0.187340
679.825569	0.187402
680.028563	0.187480
680.231540	0.187614
680.434498	0.187825
680.637438	0.188109
680.840359	0.188100
681.043263	0.188114
681.246148	0.188740
681.449015	0.188523
681.651864	0.188481
681.854694	0.188686
682.057506	0.189048
682.260301	0.189212
682.463076	0.189268
682.665834	0.189339
682.868573	0.189294
683.071295	0.189312
683.273998	0.189527
683.476682	0.189792
683.679349	0.189860
683.881997	0.189866
684.084627	0.189890
684.287239	0.189715
684.489833	0.189901
684.692408	0.189895
684.894965	0.189798
685.097504	0.189703
685.300025	0.189548
685.502527	0.189445
685.705012	0.189359
685.907478	0.189465
686.109925	0.189661
686.312355	0.189731
686.514766	0.189852
686.717159	0.190187
686.919534	0.190394
687.121891	0.190676
687.324230	0.190762
687.526550	0.190950
687.728852	0.190700
687.931136	0.190619
688.133401	0.190726
688.335649	0.190842
688.537878	0.190680
688.740089	0.190745
688.942281	0.190777
689.144456	0.190961
689.346612	0.190973
689.548750	0.191119
689.750870	0.191411
689.952971	0.191399
690.155055	0.191549
690.357120	0.191609
690.559167	0.191469
690.761195	0.191541
690.963206	0.191461
691.165198	0.191507
691.367172	0.191553
691.569128	0.191371
691.771065	0.191263
691.972984	0.191231
692.174885	0.191311
692.376768	0.191436
692.578633	0.191334
692.780479	0.191346
692.982308	0.191372
693.184118	0.191491
693.385909	0.191681
