sample name	sample
index	10
start time	 02-11-2021  11:30:12 AM
880	0.185525
Peak Time (s)	82.537
Peak Height 	0.1855
calc peak height	80,83
Baseline Time (s)	9.038
Baseline Value 	-0.005296
subtract baseline	10,4
Abs	0.135083
Peak Time (s)	80.035
Peak Height 	0.1351
calc peak height	80,83
Baseline Time (s)	9.536
Baseline Value 	0.003878
subtract baseline	10,3
PK_550	0.067403
Peak Time (s)	80.035
Peak Height 	0.0674
calc peak height	80,83
Baseline Time (s)	10.036
Baseline Value 	0.001314
subtract baseline	10,2
PK_880	0.126180
Peak Time (s)	80.035
Peak Height 	0.1262
calc peak height	80,83
Baseline Time (s)	9.536
Baseline Value 	8.378E-4
subtract baseline	10,1


Time (s)	A880-A510	A880-A775	A880-A975	A880	I510	I775	I975	I880	
0.035500	0.000739	-0.001253	-0.007659	0.000239	4370.412667	18339.505505	3171.672230	9925.238364
0.536500	-0.001494	-0.001140	-0.001060	0.004331	4347.883648	18198.327721	3174.054237	9858.374661
1.043500	-0.002043	-0.001479	-0.010406	0.005257	4342.680790	18153.750942	3164.378670	9843.343672
1.537000	0.000352	-0.000552	-0.010082	0.001421	4364.792950	18322.371306	3168.270686	9905.864602
2.037000	0.001424	-0.000390	0.008081	-0.000325	4374.897225	18390.427832	3187.416185	9934.495044
2.537000	-0.002445	-0.002338	-0.005892	-0.000554	4361.856408	18329.093266	3174.105104	9938.257648
3.034500	-0.002295	-0.001717	0.007462	0.004583	4344.166551	18169.088277	3182.012128	9854.277560
3.538000	0.004732	-0.000426	-0.005904	0.002596	4376.290988	18285.069671	3171.101903	9886.645127
4.035500	-0.003180	-0.001237	-0.010237	0.002109	4349.781031	18273.569302	3167.477957	9894.596941
4.538500	0.002696	-0.001186	-0.006062	0.001947	4371.304440	18281.144191	3171.567278	9897.256067
5.035500	0.001117	-0.000408	0.002296	0.002285	4364.439234	18296.772520	3179.235754	9891.727880
5.536500	0.002941	-0.001382	-0.003178	-0.002120	4386.857875	18419.159648	3178.204632	9964.053291
6.036500	-0.001744	-0.000803	-0.003602	-0.001762	4368.686138	18427.109742	3177.453389	9958.159414
6.536500	0.000742	-0.001685	-0.007570	0.000197	4370.575567	18325.628227	3171.796806	9925.930456
7.037500	-0.003024	-0.001744	0.003998	0.000851	4354.796631	18300.260796	3182.273743	9915.202562
7.564500	-0.001208	-0.000500	-0.003639	-0.001323	4369.029477	18422.226522	3176.995985	9950.913051
8.037500	-0.001708	-0.000360	-0.005924	-0.001406	4367.538330	18430.205711	3174.887384	9952.286862
8.535000	0.000202	0.000438	-0.005197	-0.000762	4372.077880	18435.734511	3174.967101	9941.684523
9.038000	0.003923	0.000744	-0.003509	0.000000	4382.738544	18419.383881	3175.852990	9929.157356
9.535500	0.000000	-0.000989	0.000000	-0.003938	4382.792943	18498.577528	3183.042648	9994.120953
10.036000	-0.000955	0.000000	0.001189	-0.000377	4366.547888	18406.233756	3180.739016	9935.344311
10.536000	-0.000088	-0.000851	0.010871	0.000797	4365.448353	18333.917086	3189.060995	9916.074901
11.037000	0.001131	0.000414	0.002754	0.000702	4370.158115	18382.459354	3181.210087	9917.637920
11.536500	-0.002689	-0.001033	-0.006951	0.000002	4359.005737	18355.791407	3172.568345	9929.117410
12.037000	0.002151	0.001364	0.004933	0.001949	4369.341788	18371.844580	3182.115136	9897.215969
12.537500	-0.001148	0.000974	-0.003693	0.000846	4361.486981	18397.306275	3174.867622	9915.269070
13.035000	-0.002606	-0.001402	-0.004738	-0.000335	4360.501677	18354.646257	3174.997827	9934.664547
13.535500	0.001539	-0.000217	0.001565	0.000430	4372.599436	18369.638290	3180.322098	9922.101886
14.035000	-0.000782	-0.001372	0.004525	-0.000276	4366.803923	18353.614121	3183.883610	9933.686357
14.535000	-0.001142	0.000365	-0.008370	0.000736	4361.901814	18379.490021	3170.528117	9917.072254
15.036000	0.002357	-0.000729	-0.016269	-0.000346	4378.334670	18379.087735	3164.137195	9934.841151
15.536500	-0.001061	-0.001457	-0.010313	-0.000343	4366.048270	18352.968944	3169.713079	9934.792843
16.036000	0.000153	-0.001091	-0.008326	-0.001410	4374.229964	18404.177375	3172.603426	9952.346573
16.536500	-0.006439	-0.003699	0.003684	-0.000730	4348.295467	18286.957520	3183.506817	9941.156068
17.037000	-0.000292	-0.000053	-0.003380	0.001165	4363.409562	18349.270700	3174.862217	9910.054805
17.535000	-0.000577	-0.000697	-0.008445	-0.000147	4367.076707	18373.112320	3171.293269	9931.566784
18.035500	0.000053	0.001181	-0.001368	0.000743	4366.147630	18408.414777	3177.192600	9916.960775
18.538500	-0.001074	-0.001797	0.004778	-0.001120	4368.784856	18368.576857	3184.956802	9947.580477
19.035500	-0.000600	-0.000068	0.002721	0.000186	4365.804983	18383.664544	3181.679145	9926.101287
19.536000	0.001268	0.000546	0.000237	0.000242	4372.299823	18403.646420	3179.220502	9925.188789
20.036500	0.000274	-0.000874	-0.009917	-0.004293	4385.069338	18515.505109	3173.832524	10000.016036
20.536500	-0.005605	-0.001667	-0.015270	0.003021	4338.014260	18226.023318	3161.939410	9879.709226
21.064000	-0.000262	0.000823	-0.015155	-0.002246	4375.743938	18502.893428	3166.951130	9966.143444
21.537000	0.002308	0.000187	-0.005988	-0.002927	4387.490402	18504.521851	3176.281544	9977.385267
22.037500	0.000104	-0.000021	-0.012187	-0.002356	4377.456682	18476.494557	3169.844489	9967.953456
22.535000	0.001008	0.000696	-0.002843	-0.001440	4377.414833	18469.331420	3177.873301	9952.843294
23.122500	-0.000857	-0.000064	0.003944	-0.000495	4367.321378	18408.157860	3183.530331	9937.285652
23.535500	-0.001234	-0.001484	-0.001005	-0.000066	4364.439976	18342.134076	3178.320635	9930.245764
24.036000	-0.004255	-0.001310	-0.004928	-0.000351	4354.692725	18358.498092	3174.831112	9934.926158
24.555000	-0.001934	-0.001092	0.005670	0.001890	4354.975540	18286.484336	3182.888774	9898.185772
25.036500	0.002455	-0.001046	-0.004599	-0.000191	4378.130514	18362.218767	3174.992422	9932.293955
25.537000	-0.000522	-0.000460	-0.011692	-0.002946	4377.329900	18481.897379	3170.869294	9977.703069
26.037000	-0.000801	0.000930	0.001600	-0.001918	4372.625128	18494.912884	3182.634079	9960.722100
26.537000	0.000998	-0.000422	-0.000466	0.000778	4369.407649	18349.904744	3178.026573	9916.393726
27.034500	0.001509	-0.000930	-0.005903	-0.000339	4375.254992	18371.644811	3173.890069	9934.730726
27.535000	-0.001552	-0.001132	-0.000910	-0.000605	4365.228287	18373.922330	3178.931621	9939.103454
28.037500	0.003330	-0.001100	-0.001381	-0.000026	4380.692095	18354.410507	3177.919813	9929.584230
28.535500	0.002133	-0.000869	-0.002900	-0.000117	4376.704043	18365.923914	3176.548943	9931.085796
29.036000	0.001794	-0.000874	0.004021	-0.000071	4375.314430	18364.059502	3183.192391	9930.316664
29.536500	-0.000570	0.000182	-0.004434	0.000234	4365.741444	18390.907022	3174.745009	9925.318949
30.036500	0.000444	-0.000048	0.003781	0.000104	4369.839578	18387.350832	3182.789003	9927.456057
30.536500	0.000512	-0.000989	0.000018	0.000274	4369.471090	18347.666245	3178.978201	9924.657385
31.037000	0.002970	0.000095	0.000553	0.000704	4376.760566	18370.981983	3179.079625	9917.604291
31.537500	-0.002528	-0.000485	0.006771	-0.000374	4360.920414	18388.797082	3186.178153	9935.305596
32.035000	0.002143	-0.000672	-0.007110	-0.000426	4377.854024	18383.968044	3172.824245	9936.162202
32.535500	-0.001148	-0.000653	-0.003054	-0.000227	4365.324189	18377.528160	3176.506339	9932.888706
33.035500	0.002121	-0.000414	0.007683	-0.000060	4376.455568	18380.117656	3186.765091	9930.144573
33.536000	0.001655	0.000732	-0.002309	0.000834	4371.562402	18389.100033	3176.203187	9915.470131
34.036000	-0.000573	-0.000620	-0.002747	-0.000916	4369.848225	18403.350062	3177.462254	9944.218819
34.536500	0.002746	-0.000524	-0.002173	0.000580	4376.399538	18353.318916	3176.576967	9919.633228
35.036500	0.003194	-0.000039	-0.002309	0.000284	4379.083554	18381.229334	3176.730686	9924.498408
35.537000	-0.000981	-0.001269	0.016656	-0.000727	4367.707357	18373.398058	3196.340664	9941.104903
36.036500	-0.001622	0.000005	-0.006133	0.000254	4361.914117	18383.890077	3173.107342	9924.995220
36.537000	0.001235	-0.000635	-0.003923	-0.000496	4374.836403	18387.816949	3175.931502	9937.313629
37.035000	0.003758	0.002322	0.010849	-0.002185	4390.060629	18554.770455	3191.994617	9965.128464
37.539500	0.001139	-0.000415	0.001173	-0.002755	4382.636071	18476.680136	3183.033559	9974.550498
38.054500	-0.000695	0.000052	-0.000360	-0.002121	4373.738350	18470.676247	3180.928418	9964.082139
38.535500	-0.000467	0.000919	-0.004290	0.002951	4356.418365	18320.235915	3172.295076	9880.849883
39.036500	0.000430	0.000270	-0.012966	-0.001583	4375.848733	18459.147350	3168.382180	9955.195448
39.536500	0.000992	-0.000622	0.003577	-0.003417	4384.497633	18493.014158	3186.028944	9985.494041
40.037000	0.002938	0.000987	0.002622	-0.001266	4383.758186	18473.563090	3182.994415	9949.987530
40.537500	0.001242	0.001040	0.002591	0.001959	4366.051580	18359.926654	3179.835843	9897.054830
41.037500	0.002257	0.000749	0.009331	0.002049	4369.362688	18346.348187	3186.311439	9895.582111
41.535000	0.000139	-0.000404	-0.008231	-0.000836	4372.117110	18408.234582	3172.149706	9942.906277
42.067000	0.000411	-0.000261	0.008821	-0.002186	4377.952397	18461.763818	3189.983774	9965.149399
42.535500	-0.001412	0.000071	0.006896	0.003560	4350.902751	18268.475436	3182.456312	9870.921503
43.036000	0.003245	-0.000825	0.001110	-0.001518	4385.779931	18417.582073	3181.769827	9954.138507
43.536000	0.004669	0.000920	-0.000457	-0.003594	4398.510661	18555.006736	3182.263673	9988.423654
44.036500	0.002338	-0.000721	0.001792	-0.012232	4421.712227	18809.896653	3192.979761	10132.900759
44.536500	0.001977	-0.004503	0.001719	0.007105	4350.350513	17983.157255	3174.059195	9813.416787
45.036500	-0.024103	-0.023863	0.049376	0.176693	3792.510018	12648.854034	3072.728119	7545.053217
45.537000	-0.013322	-0.025839	0.069835	0.228803	3703.539823	11502.905238	3050.754914	7008.151371
46.035000	0.006806	-0.012573	0.017377	-0.026815	4493.880288	18910.501307	3224.118834	10383.429883
46.535000	0.014905	0.001657	0.002082	-0.134734	5008.788395	24122.826203	3334.426374	12523.604889
47.035000	0.012346	0.004162	0.008823	-0.100461	4830.196456	22623.200812	3299.147045	11785.495646
47.535000	0.021751	0.013180	0.009351	-0.083641	4796.038219	22271.396502	3279.301308	11444.022374
48.036000	0.025327	0.017731	0.023609	-0.054330	4681.907561	21195.790173	3261.612386	10879.649607
48.536500	0.039271	0.021496	0.033057	-0.026026	4621.105075	20188.618978	3240.305096	10369.666313
49.036500	0.045227	0.026791	0.051356	-0.021158	4625.641908	20205.664718	3255.387130	10285.246115
49.537000	0.050464	0.029317	0.051155	-0.005824	4583.968250	19701.613014	3237.983045	10025.444364
50.034000	0.056830	0.035143	0.060513	0.013804	4530.691610	19174.919753	3226.816162	9706.018055
50.537000	0.069108	0.038790	0.076241	0.027048	4526.872781	18818.374552	3229.492990	9498.489548
51.038000	0.069869	0.044376	0.081787	0.060745	4401.656497	17818.299295	3200.031331	8998.145052
51.537500	0.084771	0.048701	0.079899	0.086995	4360.670407	17082.018639	3172.432803	8634.412023
52.036000	0.074762	0.045631	0.088065	0.092392	4306.707533	16807.442729	3175.070108	8562.310654
52.536000	0.077370	0.049021	0.076439	0.101962	4282.947157	16610.444201	3155.303553	8436.650696
53.041500	0.081551	0.049745	0.081664	0.104947	4286.999885	16539.053887	3157.347155	8398.017934
53.564000	0.087714	0.049376	0.091761	0.103546	4312.908442	16571.563141	3168.004561	8416.113088
54.039500	0.089508	0.054834	0.103612	0.108905	4300.640620	16574.696904	3174.147553	8347.198459
54.540000	0.088707	0.052983	0.095330	0.112362	4286.124022	16408.161467	3163.106968	8303.200307
55.037000	0.088298	0.051481	0.090886	0.107681	4300.690226	16507.648821	3163.326581	8362.872484
55.535000	0.095400	0.054371	0.092035	0.109750	4318.040696	16533.477773	3162.473828	8336.418797
56.035500	0.098184	0.057696	0.099878	0.112264	4318.974466	16559.038601	3167.440913	8304.441674
56.535500	0.096128	0.057428	0.100557	0.115896	4299.369983	16436.573195	3164.679945	8258.564144
57.035500	0.095166	0.059005	0.107638	0.115660	4296.887109	16493.367719	3171.554953	8261.537765
57.536000	0.102427	0.059866	0.101424	0.117281	4316.291834	16469.538294	3164.198269	8241.181001
58.036500	0.099282	0.058549	0.111871	0.117492	4304.717559	16421.751634	3173.835381	8238.534027
58.536000	0.090096	0.058192	0.110298	0.123510	4253.375457	16224.159108	3166.667051	8163.641294
59.037000	0.097673	0.059205	0.101532	0.120412	4289.236606	16351.257152	3161.395300	8202.071162
59.536500	0.095875	0.060420	0.103648	0.121445	4279.637137	16356.891421	3162.397193	8189.219754
60.034500	0.096853	0.060132	0.111451	0.122951	4277.855814	16301.262628	3168.271960	8170.551418
60.534000	0.095017	0.058788	0.109397	0.128416	4253.425063	16092.197472	3161.267126	8103.355654
61.038000	0.099772	0.061116	0.116316	0.128193	4270.037816	16170.127152	3167.918613	8106.077050
61.535500	0.103390	0.060998	0.115017	0.131148	4272.264062	16076.290364	3163.942662	8070.072855
62.035000	0.105115	0.064932	0.110068	0.136366	4260.568784	16037.308375	3154.598580	8007.092712
62.536000	0.098423	0.061577	0.122269	0.141326	4222.232865	15787.470045	3161.231356	7947.925985
63.036000	0.104435	0.061982	0.108357	0.137607	4254.179530	15910.777724	3151.926418	7992.227620
63.536500	0.105861	0.065809	0.114077	0.142525	4242.633368	15878.031877	3152.650550	7933.722030
64.036500	0.107009	0.064169	0.106415	0.142048	4247.994383	15843.239007	3146.210259	7939.366843
64.540000	0.105932	0.062510	0.114281	0.143757	4238.812909	15742.940526	3151.722814	7919.167758
65.037000	0.105541	0.063867	0.109954	0.145561	4231.625560	15729.727321	3146.233997	7897.941694
65.535000	0.107506	0.063858	0.115244	0.147553	4231.534007	15670.553837	3149.176863	7874.593384
66.035000	0.110347	0.064733	0.122272	0.149984	4232.876632	15624.736417	3153.316895	7846.247115
66.535500	0.111441	0.065427	0.121006	0.157434	4212.238573	15427.755138	3145.504615	7760.367885
67.036000	0.108728	0.064632	0.114839	0.152181	4220.448282	15557.392947	3144.694001	7820.768372
67.536000	0.110798	0.064440	0.118739	0.152980	4224.577889	15528.461232	3147.450390	7811.535513
68.036500	0.109389	0.064439	0.128775	0.154859	4213.926860	15473.771960	3154.794077	7789.885523
68.536500	0.104381	0.064348	0.119737	0.160739	4179.223203	15301.547066	3141.466385	7722.727695
69.036500	0.116086	0.064790	0.116004	0.156526	4230.250128	15435.592548	3141.887882	7770.749733
69.537000	0.112213	0.063861	0.115522	0.156563	4217.544053	15407.678285	3141.432198	7770.333597
70.034500	0.109683	0.063602	0.107365	0.156753	4208.770742	15394.703045	3134.172962	7768.153382
70.538000	0.110061	0.064463	0.114802	0.163653	4187.958370	15221.631996	3134.636305	7689.793950
71.035500	0.117837	0.064041	0.132033	0.159274	4226.997718	15334.761190	3153.743194	7739.374013
71.535500	0.112475	0.066461	0.123358	0.161804	4201.526969	15331.617356	3143.717430	7710.670173
72.036000	0.115103	0.066081	0.119875	0.162221	4208.618811	15308.750651	3140.288533	7705.954134
72.536000	0.112605	0.065838	0.117451	0.169409	4177.821485	15097.577791	3131.965709	7625.361573
73.036000	0.119454	0.066033	0.128840	0.162754	4220.945232	15292.101026	3147.741906	7699.934129
73.536500	0.118324	0.066364	0.123662	0.164152	4212.771048	15261.591756	3141.915906	7684.171309
74.037000	0.117876	0.065332	0.125161	0.164707	4209.537709	15216.352771	3142.747021	7677.923443
74.534500	0.118856	0.065898	0.132711	0.168320	4201.096374	15130.012411	3146.231294	7637.490026
75.037500	0.119392	0.065527	0.124147	0.165622	4211.475262	15195.920123	3141.051499	7667.656801
75.535000	0.120658	0.067432	0.136863	0.167475	4209.584746	15197.373258	3150.700178	7646.916239
76.035500	0.119958	0.066882	0.128617	0.168059	4205.458103	15165.206249	3142.838374	7640.395121
76.535500	0.117066	0.066991	0.139776	0.172719	4181.446682	15036.983855	3148.609084	7588.704812
77.038500	0.117343	0.064336	0.136987	0.167109	4200.126585	15120.066453	3151.140834	7651.001279
77.536000	0.121394	0.067943	0.137959	0.170856	4201.102797	15116.152399	3148.650706	7609.306820
78.036500	0.121763	0.065291	0.134318	0.169312	4207.228556	15084.890266	3146.778175	7626.438250
78.536500	0.117616	0.066339	0.132307	0.175774	4173.571617	14933.470642	3139.307451	7555.107426
79.037500	0.123317	0.067624	0.129616	0.173207	4199.734381	15041.022971	3139.199642	7583.320258
79.535000	0.124473	0.068220	0.139834	0.174576	4199.053928	15019.392768	3147.003504	7568.259337
80.034500	0.126180	0.067403	0.135083	0.174183	4205.771896	15007.499214	3143.139512	7572.572178
80.535500	0.121932	0.066739	0.128210	0.181539	4169.037750	14785.275895	3130.793727	7492.358635
81.038500	0.123911	0.066653	0.134247	0.176232	4191.986889	14929.463826	3140.603941	7550.090128
81.535500	0.121719	0.067128	0.134529	0.176811	4183.215357	14926.591668	3140.343755	7543.760983
82.036000	0.123149	0.066780	0.125230	0.177505	4185.538987	14897.703643	3131.694713	7536.183734
82.536500	0.120531	0.066716	0.118830	0.185525	4152.313977	14675.751524	3119.559453	7449.463990
83.036500	0.125419	0.067931	0.134811	0.179851	4185.300887	14864.636755	3137.936736	7510.650214
83.536500	0.124661	0.066706	0.135014	0.180136	4182.005838	14822.950573	3137.865282	7507.553383
84.037500	0.124011	0.065904	0.130241	0.179870	4180.798394	14808.231058	3133.965898	7510.446327
84.567500	0.123639	0.066810	0.132329	0.187588	4155.542078	14622.299449	3129.150501	7427.409656
85.035000	0.126524	0.068903	0.145588	0.184163	4175.198984	14772.650700	3143.603302	7464.070724
85.535000	0.123408	0.067185	0.124873	0.183096	4168.783000	14754.820787	3126.640251	7475.554935
86.035500	0.123452	0.066926	0.130339	0.183504	4167.646803	14736.576082	3130.934071	7471.162350
86.538000	0.121334	0.066637	0.125180	0.190024	4140.957098	14551.850213	3121.094491	7401.503709
87.036500	0.124222	0.067404	0.142577	0.185184	4164.812586	14703.761368	3140.060055	7453.117284
