sample name	sample
index	879
start time	 04-08-2021  02:02:27 PM
880	0.536113
Peak Time (s)	122.037
Peak Height 	0.5361
calc peak height	120,123
Baseline Time (s)	9.036
Baseline Value 	-0.003263
subtract baseline	10,4
Abs	0.394729
Peak Time (s)	122.037
Peak Height 	0.3947
calc peak height	120,123
Baseline Time (s)	9.536
Baseline Value 	0.00121
subtract baseline	10,3
PK_550	0.197946
Peak Time (s)	121.537
Peak Height 	0.1979
calc peak height	120,123
Baseline Time (s)	8.536
Baseline Value 	3.6928E-4
subtract baseline	10,2
PK_880	0.358916
Peak Time (s)	121.537
Peak Height 	0.3589
calc peak height	120,123
Baseline Time (s)	11.537
Baseline Value 	0.001032
subtract baseline	10,1


Time (s)	A880-A510	A880-A775	A880-A975	A880	I510	I775	I975	I880	
0.041000	-0.004014	-0.000671	-0.006434	0.007969	6788.539287	41924.546607	3896.976515	22491.542642
0.539000	-0.003198	-0.000607	-0.003025	0.003881	6834.989606	42301.145956	3918.350457	22678.865511
1.036500	-0.002105	-0.000237	-0.003783	0.004214	6842.233231	42304.489156	3915.217878	22663.526916
1.536500	-0.002760	-0.000346	-0.001356	0.000869	6867.988819	42600.572148	3931.883785	22818.019431
2.037000	-0.003137	-0.001530	0.000146	0.001752	6855.900103	42411.246618	3933.683588	22777.114076
2.534500	-0.000621	-0.000159	-0.001634	0.001232	6885.072434	42584.465673	3930.024784	22801.209561
3.038000	0.000773	0.000010	-0.001086	-0.000961	6919.795903	42801.900768	3938.002574	22903.044216
3.535500	-0.000856	0.000460	-0.004518	0.000776	6887.200802	42683.197235	3922.993200	22822.313949
4.039500	0.000605	0.000165	-0.002224	0.000683	6902.222701	42664.680068	3929.905321	22826.656478
4.535500	-0.000693	-0.000134	0.002192	0.000929	6887.297593	42614.576522	3942.061926	22815.227854
5.036500	-0.001622	-0.000348	0.001112	0.000300	6884.400726	42652.661799	3940.740562	22844.397972
5.535500	0.000891	0.000109	-0.000202	0.000479	6906.962849	42678.271956	3936.379264	22836.088831
6.036500	0.000614	0.000302	0.002964	0.001004	6899.204239	42647.724819	3944.107403	22811.775018
6.537000	-0.000786	-0.000062	0.000307	0.000440	6891.117855	42666.057214	3937.978768	22837.905732
7.036500	-0.000265	-0.000400	0.000016	0.000056	6899.866955	42670.308440	3938.249764	22855.728200
7.537500	0.000342	0.000406	-0.000395	0.000498	6901.463787	42703.823757	3935.762736	22835.227955
8.035000	0.000252	0.000502	-0.003725	0.000335	6902.162570	42727.654042	3926.561167	22842.774730
8.535500	0.000840	0.000000	0.000475	0.000129	6909.854627	42700.422548	3939.380210	22852.341154
9.035500	0.001083	0.000239	-0.000698	0.000000	6913.469448	42734.332606	3936.330205	22858.342539
9.536000	-0.001242	-0.000706	0.000000	-0.000796	6898.654274	42720.540582	3940.694740	22895.330582
10.036500	0.000401	-0.000419	-0.000260	-0.000208	6908.873424	42692.868606	3938.215509	22867.995504
10.536500	-0.000407	0.000157	-0.000432	0.000226	6896.849087	42706.023968	3936.446519	22847.856673
11.036500	-0.000486	-0.000119	0.000535	-0.000278	6900.954781	42726.975394	3940.745675	22871.262410
11.537000	0.000000	0.000889	0.002531	0.000105	6901.951745	42784.503224	3945.474814	22853.447580
12.034500	-0.001290	-0.000515	0.000688	-0.000787	6898.103123	42737.327776	3942.684840	22894.919020
12.537000	-0.000362	-0.000091	0.001385	-0.000379	6903.140314	42738.841629	3943.533014	22875.962777
13.035000	0.000673	-0.000524	-0.000290	-0.002527	6934.070302	42897.241394	3944.921167	22976.087084
13.538500	-0.000453	-0.000204	0.000002	0.000117	6897.458293	42682.733389	3938.033387	22852.907722
14.036000	-0.000873	-0.000722	-0.002280	-0.000143	6895.902767	42659.013535	3932.139616	22864.967290
14.539000	-0.002485	-0.000580	-0.005027	0.001793	6861.766171	42494.408116	3918.599368	22775.247692
15.036000	-0.000082	-0.000142	0.001112	0.000219	6900.055053	42679.058766	3940.980384	22848.169273
15.564500	0.000151	0.000196	0.001088	0.000080	6903.655200	42722.942266	3941.315330	22854.610378
16.037000	0.002654	0.000738	0.001246	0.000828	6920.690295	42704.068552	3939.591784	22819.926960
16.538000	0.001190	0.000479	-0.001793	0.000602	6908.662005	42700.933929	3931.389268	22830.381420
17.037500	-0.001044	0.000237	-0.001248	0.000093	6891.980822	42725.645288	3934.457227	22854.043896
17.534500	-0.001395	-0.001081	0.001186	0.001997	6870.261361	42429.891265	3936.000975	22765.793411
18.035500	0.000242	-0.000634	-0.001357	-0.000226	6907.499869	42674.706519	3935.065802	22868.825401
18.535500	-0.001175	-0.000459	-0.000048	0.000140	6890.262792	42657.195687	3937.820986	22851.853789
19.038500	0.000729	-0.000648	0.000561	0.000649	6903.745271	42593.024816	3938.110247	22828.208819
19.536000	-0.001413	0.000002	-0.002642	0.000844	6881.172526	42634.841755	3928.221676	22819.157438
20.036000	-0.000076	0.000469	0.003067	0.001528	6887.467904	42614.902982	3942.870577	22787.474265
20.537000	-0.002943	-0.000572	-0.000896	0.000819	6866.701383	42584.442418	3933.366528	22820.328508
21.037000	0.000298	-0.000061	-0.002116	0.001007	6896.112258	42614.046940	3929.275107	22811.605156
21.537500	0.001564	-0.000295	0.001665	0.001456	6904.018154	42551.324517	3938.979301	22790.804913
22.034500	-0.001622	-0.000129	-0.001909	0.001010	6877.564721	42607.555640	3929.867898	22811.466061
22.538000	-0.001893	-0.000163	0.003820	0.000823	6876.757831	42621.553805	3947.153724	22820.133436
23.035500	-0.000851	-0.000531	0.000199	0.000634	6888.623864	42605.159065	3937.099110	22828.916529
23.541000	-0.001004	-0.000008	0.001014	0.001169	6881.993843	42604.094738	3937.915576	22804.129939
24.035500	0.000291	0.001072	-0.001087	0.002021	6886.255470	42624.995517	3929.318830	22764.661750
24.536000	-0.000141	0.000652	0.000915	0.001984	6882.448400	42589.837788	3935.248682	22766.382089
25.036500	-0.000464	0.000247	0.001638	0.001585	6883.179794	42589.354880	3938.523549	22784.866846
25.536500	-0.000554	0.000544	0.000183	0.001570	6882.451217	42617.889070	3934.322064	22785.533611
26.037000	-0.000724	-0.000229	0.003465	0.001603	6880.502547	42544.023372	3943.820330	22784.035298
26.537500	-0.001653	-0.001282	-0.000119	0.000456	6882.601073	42552.615859	3936.689422	22837.160337
27.035000	-0.000716	-0.000064	0.000771	0.001006	6886.333733	42613.914645	3937.680040	22811.654610
27.535000	-0.001387	-0.000598	-0.000446	0.000884	6881.044558	42576.155298	3934.490811	22817.337321
28.035500	0.000555	-0.000089	-0.001775	-0.002436	6932.022766	42929.027358	3940.300509	22971.793344
28.535500	-0.000929	0.000965	-0.000954	0.000411	6890.019060	42763.395388	3934.386082	22839.259181
29.036000	0.002991	-0.000101	-0.000884	0.000299	6929.114486	42675.505267	3934.915612	22844.444867
29.539500	-0.003067	0.000442	0.004182	0.005128	6824.374842	42283.107557	3935.606676	22621.534031
30.036500	-0.000533	-0.000195	0.000896	0.000072	6897.120191	42687.781772	3940.777985	22855.004702
30.537000	0.002388	0.000750	0.002671	0.000355	6922.695636	42748.651667	3945.152727	22841.844428
31.037000	0.000294	0.000665	0.001018	0.000458	6901.385870	42731.383507	3940.003968	22837.078332
31.559000	-0.003594	0.000191	-0.003584	0.005823	6812.785645	42197.055224	3911.180027	22589.670403
32.035000	-0.003079	-0.000192	0.000688	0.002629	6848.066936	42453.429313	3932.711372	22736.594239
32.543000	-0.000306	0.000008	-0.002469	0.000458	6895.573854	42670.856955	3929.844315	22837.057336
33.065500	0.001524	0.000091	0.001546	0.000045	6917.311153	42716.470558	3942.758705	22856.230757
33.540000	-0.002538	0.000193	-0.002805	0.003762	6842.418562	42385.054346	3919.327184	22684.370387
34.035500	-0.000042	0.000400	0.002158	0.000293	6899.727969	42722.169573	3943.827611	22844.716736
34.536000	0.002435	-0.000673	0.002324	-0.000075	6927.341216	42657.306998	3945.396457	22861.812941
35.036500	0.000824	0.000727	0.002610	-0.001286	6923.444470	42898.093975	3949.801478	22918.158861
35.537000	-0.000871	0.000303	-0.003511	0.003841	6857.603509	42387.925058	3917.070940	22680.733217
36.037000	-0.001140	-0.000489	-0.000423	0.001604	6876.490729	42520.059235	3932.461100	22783.985814
36.535000	0.000500	-0.000081	0.000906	0.002258	6885.983032	42497.525199	3934.423798	22753.731260
37.035000	-0.001158	0.000677	0.001394	0.002134	6871.224430	42578.332896	3936.208797	22759.458461
37.538000	-0.000604	0.000752	0.001093	0.003847	6860.096363	42428.313837	3930.347250	22680.415957
38.036000	-0.000508	0.000478	0.004925	0.002283	6876.038592	42546.513624	3946.111568	22752.584767
38.541500	-0.000709	-0.000330	-0.001073	0.001825	6878.516772	42514.379464	3929.931692	22773.762310
39.036500	-0.001255	-0.000760	0.001520	0.001318	6878.128274	42521.401554	3938.956613	22797.201560
39.536500	-0.000090	-0.000752	0.002076	0.001379	6888.772188	42516.597802	3940.404567	22794.379333
40.037000	-0.002452	-0.000076	-0.002384	0.001748	6862.503542	42544.736225	3926.353500	22777.301450
40.537500	-0.001080	0.000601	-0.001960	0.002012	6873.138267	42582.582511	3926.816017	22765.084379
41.037500	0.000687	0.000323	0.000143	0.001677	6893.400920	42587.860747	3933.893958	22780.606376
41.535000	-0.001727	-0.000193	-0.002496	0.002010	6866.952675	42510.033003	3925.272648	22765.199439
42.038000	0.000505	0.000887	0.004071	0.002752	6881.277717	42540.995847	3942.229381	22730.933394
42.535500	-0.002219	0.000022	0.001031	0.001839	6863.866277	42545.347783	3936.009461	22773.116662
43.035500	-0.000747	-0.000237	0.000339	0.001456	6881.696305	42556.697950	3935.107804	22790.809634
43.536000	-0.000325	0.000134	-0.000073	0.001790	6882.545636	42560.155098	3932.938490	22775.370664
44.036500	-0.000339	-0.000826	-0.004083	0.001543	6884.788928	42494.757777	3922.036527	22786.802718
44.537000	-0.002942	0.000073	-0.000086	0.001459	6860.574241	42584.839961	3933.861200	22790.671927
45.037000	-0.001368	-0.000218	-0.000257	0.001318	6877.051762	42571.147657	3933.775096	22797.223969
45.537500	-0.002998	-0.000386	-0.002710	0.005380	6822.629439	42184.874924	3914.950635	22609.958856
46.037500	-0.000032	0.000383	0.000835	0.001558	6887.609262	42604.283357	3936.257856	22786.124214
46.547000	-0.001357	-0.000561	-0.002414	0.002404	6866.723765	42440.280030	3924.369923	22746.998855
47.035500	0.000219	0.000678	0.002625	0.000908	6896.301394	42691.129147	3943.393118	22816.204333
47.535500	0.001147	-0.000299	-0.000761	0.000302	6911.160146	42657.064089	3935.267238	22844.331073
48.036000	0.002372	0.000063	0.001407	0.001131	6915.000171	42614.040696	3939.173077	22805.856204
48.536000	-0.001190	0.000510	0.002696	0.004117	6851.896289	42381.502093	3934.222809	22667.986911
49.036500	0.000684	-0.000306	0.001047	0.001725	6892.906342	42525.791741	3936.390092	22778.390516
49.537000	-0.000746	0.000428	-0.003241	0.003872	6858.500717	42396.434909	3917.756530	22679.277615
50.037000	0.000420	0.000904	-0.003479	0.001788	6889.749883	42631.062303	3923.074415	22775.472696
50.537500	-0.003492	-0.000289	-0.002729	0.002410	6846.219949	42464.596410	3923.442342	22746.725092
51.035000	-0.000488	0.000684	0.000129	0.001179	6886.864231	42666.742912	3935.304643	22803.641100
51.538000	-0.001810	-0.000079	-0.004525	0.004726	6840.162127	42272.226253	3911.626087	22639.986121
52.036000	-0.000344	-0.000043	-0.000200	-0.000798	6907.369974	42781.879597	3940.115306	22895.442993
52.541500	-0.002165	0.000278	-0.000231	0.005627	6828.201675	42222.745179	3921.368238	22598.636387
53.035500	-0.029186	-0.010868	0.020717	0.101190	5812.574777	33617.399642	3723.753697	18665.399765
53.542000	-0.037888	-0.014518	0.020743	0.091903	5816.772766	34021.012369	3746.603548	19010.799643
54.037000	-0.042363	-0.017769	-0.003468	-0.054985	7026.962243	46290.337767	4098.171107	25581.159992
54.537000	-0.007315	-0.015145	-0.012803	-0.139426	8397.868027	55961.958529	4367.890823	30495.177920
55.037000	-0.019666	-0.010347	-0.004077	-0.076328	7488.939916	49273.851144	4168.034568	26734.496988
55.537500	-0.022543	-0.011771	-0.008104	-0.072377	7414.209336	48701.199544	4140.754375	26516.680003
56.038000	-0.004929	-0.005782	-0.009546	-0.091969	7836.038541	51490.979846	4203.545525	27616.431633
56.535500	0.014450	0.001017	0.001656	-0.069779	7802.889175	49792.865803	4165.221976	26374.571113
57.036000	0.014465	0.001417	0.001204	-0.033764	7396.814893	46086.675598	4044.755007	24489.271617
57.538500	0.011487	-0.000505	-0.000326	-0.021389	7233.617689	44682.395026	4001.422440	23876.749386
58.036500	0.011469	0.001048	0.005973	-0.009142	7107.330525	43661.799505	3983.307977	23287.509804
58.536500	0.014680	0.001626	0.012998	-0.004282	7090.628146	43260.132141	3989.872981	23058.246451
59.036500	0.016814	0.000736	0.014473	0.002142	7047.440712	42582.972547	3974.909207	22759.068467
59.537500	0.020457	0.002943	0.021007	0.017319	6933.459811	41410.197599	3949.188771	22069.691617
60.037500	0.023636	0.004790	0.025895	0.029747	6844.216832	40478.953080	3927.164406	21522.816329
60.537500	0.029024	0.006941	0.031890	0.040546	6792.886984	39734.567056	3913.327617	21060.184483
61.035500	0.033200	0.007540	0.034972	0.049093	6751.878759	39063.253932	3897.774357	20702.075454
61.535000	0.036194	0.010461	0.041250	0.055781	6717.558710	38749.452575	3896.618211	20426.771800
62.035500	0.041584	0.013528	0.052373	0.077123	6572.598314	37264.872611	3868.078572	19575.973490
62.535500	0.051578	0.017310	0.065208	0.092126	6528.180461	36383.818723	3862.112142	19002.443364
63.036500	0.056599	0.021131	0.071162	0.106222	6448.975550	35596.651794	3839.960431	18481.295463
63.536500	0.069491	0.026372	0.078864	0.115838	6477.379136	35267.192317	3834.814374	18135.397962
64.037000	0.081572	0.032207	0.086146	0.130024	6459.102455	34647.351042	3816.437401	17638.870128
64.537500	0.090278	0.037284	0.107892	0.141519	6435.020430	34178.956472	3843.830051	17248.241712
65.037500	0.101097	0.043357	0.113438	0.157326	6392.357318	33481.765929	3816.409446	16727.731699
65.538000	0.111716	0.051313	0.126400	0.172065	6357.476483	33004.991752	3811.727111	16259.130385
66.035000	0.122938	0.057084	0.141983	0.189441	6305.998756	32206.516991	3807.020729	15726.772457
66.535500	0.134156	0.065428	0.151390	0.205690	6264.443332	31674.688829	3789.240230	15247.828309
67.036000	0.146055	0.072686	0.161372	0.233916	6132.867142	30310.016599	3743.176596	14457.296207
67.535500	0.151027	0.074439	0.174861	0.230221	6202.093967	30658.252066	3786.509989	14557.879689
68.036500	0.158631	0.081208	0.174549	0.224418	6311.945952	31478.795241	3800.722744	14717.582765
68.536000	0.168727	0.087011	0.185530	0.227965	6366.850699	31628.584317	3820.253005	14619.709879
69.037000	0.177216	0.092426	0.195515	0.241503	6324.446537	31092.927338	3810.878042	14253.424873
69.537000	0.182046	0.096246	0.204346	0.257769	6230.215924	30291.439097	3791.504874	13828.164807
70.038000	0.195799	0.103326	0.216967	0.265500	6279.529758	30250.102832	3804.209342	13631.553402
70.547000	0.201449	0.106884	0.219962	0.281936	6191.679307	29445.775978	3769.628600	13225.002288
71.035500	0.206876	0.110316	0.223015	0.291938	6155.070362	29044.555103	3752.166435	12985.047404
71.559000	0.211700	0.112419	0.226228	0.298688	6139.772616	28764.364608	3743.385399	12826.190226
72.035500	0.214204	0.114666	0.236599	0.300212	6147.548320	28807.738192	3765.485194	12790.664132
72.536500	0.216775	0.116478	0.240055	0.305780	6123.831967	28583.151843	3760.168583	12661.939620
73.037000	0.220091	0.117842	0.241441	0.310173	6115.344583	28403.360885	3752.641501	12561.515803
73.536500	0.223515	0.120832	0.245784	0.319540	6068.907852	28029.039714	3740.186392	12350.788373
74.034500	0.226917	0.122680	0.245045	0.320699	6086.361091	28069.187177	3735.517209	12325.024646
74.537000	0.231129	0.124320	0.247552	0.324375	6090.537736	27950.624362	3732.650221	12243.763304
75.035000	0.235619	0.127614	0.255617	0.328336	6094.674656	27911.904711	3742.745116	12156.976060
75.535000	0.236278	0.127513	0.257647	0.332620	6066.446520	27658.886127	3737.191540	12064.014255
76.035500	0.239012	0.128901	0.259250	0.334521	6072.912209	27629.415988	3736.458096	12023.046096
76.535000	0.242414	0.130726	0.261741	0.335424	6092.383685	27682.335423	3740.365140	12003.648214
77.036000	0.243853	0.132113	0.267185	0.336836	6092.599353	27680.895270	3750.354394	11973.401389
77.536500	0.246616	0.132931	0.266475	0.340882	6082.590435	27496.120438	3738.583669	11887.277663
78.037000	0.250254	0.136073	0.272050	0.344189	6085.167383	27486.701132	3744.180296	11817.462932
78.536500	0.253177	0.137490	0.275696	0.345496	6097.789711	27492.933482	3749.983230	11790.014902
79.040000	0.256115	0.139224	0.272520	0.347395	6105.933656	27483.567882	3737.431363	11750.300109
79.537500	0.256225	0.139910	0.275231	0.351968	6071.093336	27262.865448	3732.860590	11655.327567
80.035000	0.256226	0.142139	0.280402	0.355432	6044.304765	27193.215509	3737.048718	11584.074533
80.535000	0.264821	0.143037	0.283995	0.356904	6099.644207	27160.904449	3742.276660	11553.971433
81.035500	0.263997	0.145279	0.288243	0.360521	6065.033340	27083.593506	3743.835057	11480.394488
81.535500	0.264236	0.144252	0.282107	0.364387	6037.032187	26810.708788	3719.377303	11402.460694
82.036500	0.272770	0.147095	0.291963	0.367545	6078.618194	26793.221724	3735.693770	11339.292460
82.536500	0.273266	0.148340	0.293268	0.370011	6063.319558	26725.619907	3732.847301	11290.292529
83.036500	0.273644	0.147757	0.296143	0.372355	6048.119937	26564.365105	3734.147767	11243.970528
83.540000	0.278576	0.150270	0.296617	0.376323	6055.560109	26484.596942	3725.615108	11166.119427
84.037500	0.277960	0.151409	0.299759	0.379589	6025.688203	26368.521395	3725.314435	11102.580599
84.534500	0.279419	0.152985	0.299481	0.383107	6009.949438	26263.017500	3716.127068	11034.666844
85.035000	0.283407	0.152416	0.303560	0.385620	6021.220494	26096.597493	3719.908640	10986.509924
85.535500	0.284518	0.154833	0.304597	0.388857	6004.995894	26052.486849	3714.601652	10924.863739
86.036000	0.284640	0.155674	0.304138	0.392144	5980.985659	25921.417823	3705.625033	10862.726005
86.535500	0.289201	0.156288	0.311710	0.394915	5994.539880	25806.508574	3717.144212	10810.720299
87.036500	0.289609	0.157672	0.312751	0.398783	5968.384478	25674.869830	3710.347045	10738.671630
87.536500	0.290825	0.158238	0.314304	0.401148	5959.748573	25579.938648	3708.402612	10694.933073
88.037500	0.292561	0.159139	0.307283	0.404121	5950.467492	25471.160786	3684.768761	10640.287282
88.536500	0.294319	0.159631	0.315184	0.406424	5946.389763	25376.451383	3697.937621	10598.206771
89.037500	0.295749	0.160324	0.319013	0.409422	5934.686630	25256.550919	3699.908339	10543.770732
89.538000	0.299444	0.162891	0.321123	0.415359	5918.020022	25082.339883	3690.868546	10437.065689
90.035000	0.297512	0.163136	0.321299	0.418285	5882.205565	24944.750040	3684.421421	10385.012668
90.538500	0.299758	0.165217	0.325146	0.419792	5887.630020	24974.153913	3689.904971	10358.345738
91.036000	0.301208	0.164985	0.330481	0.421671	5884.478897	24866.255659	3698.057756	10325.217402
91.535500	0.302616	0.166049	0.327803	0.426549	5859.118181	24672.608552	3680.315954	10239.875381
92.036500	0.304294	0.166067	0.325391	0.427377	5865.312074	24631.665674	3672.802918	10225.483577
92.537000	0.305183	0.167021	0.336925	0.430191	5851.314561	24538.095104	3693.152951	10176.795162
93.037500	0.307775	0.168455	0.331558	0.433733	5844.416054	24432.405099	3672.366326	10115.926832
93.537500	0.308184	0.169974	0.335041	0.437090	5823.132474	24340.720145	3672.656859	10058.710681
94.034500	0.310418	0.171101	0.338544	0.442213	5802.417437	24142.708285	3668.923899	9972.237717
94.534500	0.311094	0.170506	0.340721	0.441914	5809.393564	24128.115096	3674.637958	9977.267953
95.035500	0.311306	0.169203	0.335950	0.442627	5805.807499	24028.976395	3662.026806	9965.307145
95.535500	0.312932	0.171237	0.339279	0.447484	5782.777528	23890.939387	3658.541551	9884.339990
96.036000	0.313041	0.172961	0.349655	0.451280	5756.696634	23790.163290	3673.638320	9821.682553
96.536000	0.317298	0.173229	0.344165	0.451879	5782.569716	23774.088090	3659.658553	9811.843511
97.036500	0.318148	0.175492	0.344609	0.455119	5765.639564	23726.781079	3653.302781	9758.867253
97.539000	0.316877	0.174253	0.347233	0.457773	5738.041534	23539.304927	3653.234787	9715.768661
