sample name	sample
index	354
start time	 03-01-2021  12:13:32 PM


Wavelength (nm)	Absorbance
494.344910	NaN
494.563924	NaN
494.782919	NaN
495.001897	NaN
495.220856	0.503865
495.439797	0.344032
495.658719	0.150479
495.877624	-0.024535
496.096510	-0.170700
496.315378	-0.179260
496.534227	-0.199394
496.753059	-0.199432
496.971872	-0.147658
497.190667	0.053948
497.409444	0.068896
497.628203	0.075432
497.846943	0.078215
498.065665	0.079447
498.284369	0.079283
498.503055	0.080666
498.721723	0.079725
498.940372	0.079117
499.159003	0.079195
499.377616	0.079482
499.596210	0.079196
499.814787	0.079329
500.033345	0.078881
500.251885	0.079207
500.470406	0.078622
500.688910	0.079492
500.907395	0.079521
501.125862	0.079354
501.344311	0.078380
501.562742	0.078274
501.781154	0.077340
501.999548	0.076956
502.217924	0.075898
502.436282	0.075739
502.654621	0.075511
502.872942	0.075498
503.091245	0.075577
503.309530	0.076584
503.527797	0.076444
503.746045	0.077436
503.964275	0.078965
504.182487	0.080564
504.400681	0.080112
504.618856	0.080667
504.837013	0.081802
505.055152	0.081640
505.273273	0.081498
505.491376	0.081666
505.709460	0.082364
505.927526	0.081884
506.145574	0.080772
506.363604	0.082406
506.581615	0.081126
506.799608	0.080018
507.017583	0.079687
507.235540	0.079751
507.453478	0.079542
507.671399	0.078642
507.889301	0.079293
508.107185	0.080266
508.325050	0.079928
508.542898	0.080401
508.760727	0.081321
508.978538	0.082912
509.196330	0.082408
509.414105	0.082821
509.631861	0.083564
509.849599	0.082881
510.067319	0.082833
510.285021	0.082729
510.502704	0.083745
510.720369	0.083385
510.938016	0.082833
511.155645	0.083631
511.373255	0.084230
511.590848	0.084400
511.808422	0.085575
512.025977	0.085371
512.243515	0.085050
512.461034	0.084726
512.678536	0.085735
512.896018	0.085415
513.113483	0.085858
513.330930	0.085526
513.548358	0.085162
513.765768	0.084109
513.983160	0.084638
514.200533	0.085005
514.417889	0.085183
514.635226	0.084542
514.852545	0.084746
515.069845	0.084226
515.287128	0.083640
515.504392	0.083848
515.721638	0.084324
515.938866	0.084020
516.156075	0.084439
516.373267	0.085118
516.590440	0.085459
516.807594	0.085468
517.024731	0.085773
517.241850	0.085838
517.458950	0.085673
517.676032	0.085829
517.893095	0.086053
518.110141	0.086432
518.327168	0.086525
518.544177	0.087196
518.761168	0.087659
518.978141	0.087850
519.195095	0.088550
519.412031	0.089534
519.628949	0.090138
519.845849	0.090465
520.062731	0.090270
520.279594	0.090450
520.496439	0.090164
520.713266	0.090944
520.930074	0.091125
521.146865	0.091535
521.363637	0.090772
521.580391	0.090786
521.797127	0.091423
522.013844	0.091497
522.230543	0.091345
522.447224	0.091403
522.663887	0.091123
522.880532	0.091200
523.097158	0.091312
523.313766	0.091958
523.530356	0.092288
523.746928	0.091889
523.963481	0.092213
524.180017	0.092360
524.396534	0.092614
524.613032	0.092742
524.829513	0.092930
525.045975	0.093025
525.262420	0.092756
525.478845	0.092619
525.695253	0.092571
525.911643	0.092583
526.128014	0.092803
526.344367	0.092994
526.560702	0.093461
526.777018	0.093934
526.993316	0.094204
527.209597	0.094753
527.425858	0.095036
527.642102	0.095548
527.858328	0.095403
528.074535	0.095424
528.290724	0.095384
528.506894	0.095373
528.723047	0.095515
528.939181	0.095929
529.155297	0.096654
529.371395	0.096728
529.587475	0.097261
529.803536	0.097751
530.019579	0.098199
530.235604	0.098843
530.451611	0.099164
530.667600	0.100027
530.883570	0.100257
531.099522	0.100069
531.315456	0.100452
531.531372	0.100501
531.747269	0.101210
531.963148	0.101541
532.179009	0.101485
532.394852	0.101258
532.610676	0.100302
532.826482	0.100270
533.042271	0.100455
533.258040	0.100944
533.473792	0.100911
533.689525	0.100646
533.905240	0.100820
534.120937	0.101288
534.336616	0.102312
534.552277	0.103629
534.767919	0.104150
534.983543	0.104479
535.199149	0.104316
535.414736	0.104871
535.630306	0.105091
535.845857	0.105346
536.061390	0.105732
536.276904	0.105389
536.492401	0.105386
536.707879	0.105476
536.923339	0.105418
537.138781	0.105855
537.354204	0.105936
537.569610	0.106109
537.784997	0.106108
538.000366	0.105875
538.215716	0.106429
538.431049	0.106146
538.646363	0.106538
538.861659	0.107009
539.076937	0.107170
539.292196	0.107357
539.507438	0.107605
539.722661	0.107719
539.937866	0.107493
540.153052	0.107188
540.368221	0.107751
540.583371	0.107549
540.798503	0.107725
541.013617	0.108055
541.228712	0.108525
541.443789	0.109146
541.658848	0.109444
541.873889	0.110016
542.088912	0.110625
542.303916	0.110534
542.518902	0.111341
542.733870	0.111485
542.948820	0.111712
543.163752	0.111920
543.378665	0.111812
543.593560	0.112424
543.808437	0.112981
544.023295	0.113457
544.238136	0.113852
544.452958	0.113255
544.667762	0.113391
544.882548	0.113584
545.097315	0.113350
545.312064	0.113774
545.526795	0.113882
545.741508	0.114071
545.956203	0.113796
546.170879	0.113721
546.385537	0.114412
546.600177	0.114623
546.814799	0.114509
547.029402	0.114563
547.243988	0.114508
547.458555	0.114378
547.673103	0.114260
547.887634	0.114857
548.102146	0.115056
548.316640	0.115137
548.531116	0.115070
548.745574	0.115324
548.960013	0.115565
549.174435	0.115664
549.388838	0.115964
549.603222	0.116152
549.817589	0.115693
550.031937	0.115852
550.246267	0.115775
550.460579	0.115925
550.674873	0.116292
550.889148	0.116260
551.103405	0.116453
551.317644	0.116539
551.531865	0.116636
551.746068	0.117049
551.960252	0.117133
552.174418	0.117637
552.388566	0.118063
552.602696	0.117832
552.816807	0.118878
553.030900	0.118588
553.244975	0.118554
553.459032	0.119065
553.673070	0.118850
553.887091	0.118838
554.101093	0.118951
554.315077	0.119201
554.529042	0.119906
554.742990	0.119550
554.956919	0.120083
555.170830	0.120386
555.384722	0.120370
555.598597	0.120888
555.812453	0.121299
556.026291	0.121266
556.240111	0.120772
556.453913	0.120462
556.667696	0.120551
556.881461	0.120859
557.095208	0.120824
557.308937	0.120797
557.522647	0.120995
557.736339	0.120943
557.950013	0.120900
558.163669	0.121198
558.377307	0.121317
558.590926	0.121240
558.804527	0.120979
559.018110	0.121313
559.231675	0.121388
559.445221	0.121556
559.658749	0.122028
559.872259	0.122079
560.085751	0.122172
560.299225	0.122736
560.512680	0.122849
560.726117	0.122898
560.939536	0.122683
561.152937	0.122769
561.366319	0.122525
561.579683	0.122637
561.793029	0.122893
562.006357	0.123088
562.219667	0.122862
562.432958	0.123353
562.646231	0.123506
562.859486	0.123969
563.072723	0.123911
563.285941	0.124094
563.499141	0.124226
563.712323	0.124399
563.925487	0.124736
564.138632	0.125002
564.351760	0.125537
564.564869	0.125949
564.777960	0.125891
564.991032	0.126459
565.204087	0.126289
565.417123	0.126339
565.630141	0.126147
565.843140	0.126156
566.056122	0.126184
566.269085	0.125505
566.482030	0.125309
566.694957	0.125405
566.907866	0.125252
567.120756	0.125756
567.333628	0.125665
567.546482	0.126352
567.759318	0.126290
567.972135	0.126130
568.184935	0.126617
568.397716	0.126747
568.610478	0.126691
568.823223	0.126876
569.035949	0.126932
569.248657	0.126906
569.461347	0.126874
569.674019	0.127316
569.886672	0.127297
570.099308	0.127264
570.311925	0.127627
570.524523	0.127823
570.737104	0.127504
570.949666	0.127640
571.162210	0.128107
571.374736	0.127823
571.587244	0.127595
571.799733	0.128001
572.012205	0.128135
572.224658	0.128027
572.437092	0.128331
572.649509	0.128522
572.861907	0.128494
573.074287	0.128543
573.286649	0.128614
573.498993	0.128738
573.711318	0.128826
573.923625	0.128610
574.135914	0.129106
574.348185	0.129176
574.560438	0.129547
574.772672	0.129455
574.984888	0.129200
575.197086	0.129773
575.409266	0.129784
575.621427	0.129742
575.833570	0.130057
576.045695	0.130077
576.257802	0.130124
576.469890	0.130259
576.681961	0.130617
576.894013	0.130741
577.106046	0.130610
577.318062	0.130952
577.530059	0.131243
577.742039	0.131297
577.954000	0.130867
578.165942	0.131001
578.377867	0.131037
578.589773	0.131435
578.801661	0.131656
579.013531	0.131585
579.225382	0.131869
579.437216	0.131717
579.649031	0.132034
579.860828	0.132590
580.072606	0.132634
580.284367	0.132780
580.496109	0.132760
580.707833	0.133004
580.919539	0.133144
581.131227	0.133279
581.342896	0.133510
581.554547	0.133344
581.766180	0.133354
581.977795	0.133632
582.189391	0.133420
582.400969	0.133296
582.612529	0.133058
582.824071	0.133232
583.035595	0.133119
583.247100	0.133358
583.458587	0.134049
583.670056	0.134295
583.881506	0.134160
584.092939	0.134618
584.304353	0.134705
584.515749	0.135249
584.727127	0.135356
584.938486	0.135465
585.149828	0.135540
585.361151	0.134911
585.572456	0.134831
585.783742	0.134949
585.995011	0.134610
586.206261	0.135079
586.417493	0.135025
586.628706	0.135091
586.839902	0.134989
587.051079	0.134983
587.262238	0.135133
587.473379	0.134852
587.684502	0.135029
587.895606	0.135265
588.106692	0.135304
588.317760	0.135352
588.528810	0.135365
588.739841	0.135384
588.950855	0.135903
589.161850	0.136470
589.372827	0.136906
589.583785	0.136891
589.794726	0.137338
590.005648	0.137040
590.216552	0.137097
590.427437	0.137147
590.638305	0.137384
590.849154	0.136762
591.059985	0.136820
591.270798	0.136737
591.481592	0.136986
591.692369	0.137048
591.903127	0.137217
592.113867	0.137173
592.324588	0.137526
592.535292	0.137792
592.745977	0.138144
592.956644	0.137976
593.167293	0.138536
593.377923	0.138795
593.588536	0.138917
593.799130	0.139101
594.009706	0.139327
594.220263	0.139500
594.430803	0.139975
594.641324	0.140098
594.851827	0.140154
595.062312	0.140094
595.272778	0.139909
595.483227	0.140084
595.693657	0.140335
595.904069	0.140577
596.114462	0.140512
596.324838	0.140149
596.535195	0.140426
596.745534	0.140273
596.955855	0.140225
597.166157	0.140591
597.376441	0.140500
597.586707	0.140443
597.796955	0.140670
598.007185	0.141137
598.217396	0.141374
598.427589	0.141340
598.637764	0.141743
598.847921	0.141694
599.058060	0.141704
599.268180	0.141958
599.478282	0.142013
599.688366	0.142021
599.898431	0.141809
600.108479	0.141651
600.318508	0.141848
600.528519	0.141903
600.738511	0.142264
600.948486	0.142247
601.158442	0.142370
601.368380	0.142712
601.578300	0.142781
601.788202	0.143013
601.998085	0.143462
602.207950	0.143258
602.417797	0.143621
602.627626	0.143647
602.837436	0.143881
603.047228	0.144031
603.257002	0.144152
603.466758	0.144085
603.676496	0.144034
603.886215	0.144091
604.095916	0.144278
604.305599	0.144067
604.515264	0.144195
604.724910	0.143985
604.934538	0.144161
605.144148	0.144007
605.353740	0.144217
605.563314	0.144472
605.772869	0.144499
605.982406	0.144660
606.191925	0.144886
606.401425	0.144910
606.610908	0.145093
606.820372	0.144927
607.029818	0.145286
607.239246	0.145269
607.448655	0.145286
607.658047	0.145077
607.867420	0.144791
608.076775	0.144865
608.286111	0.145081
608.495430	0.145240
608.704730	0.145354
608.914012	0.145289
609.123275	0.145164
609.332521	0.144957
609.541748	0.145307
609.750957	0.145787
609.960148	0.145797
610.169321	0.145912
610.378475	0.146106
610.587611	0.146090
610.796729	0.146136
611.005829	0.146666
611.214910	0.147034
611.423974	0.147184
611.633019	0.147108
611.842045	0.146923
612.051054	0.147020
612.260044	0.146926
612.469017	0.146990
612.677970	0.147081
612.886906	0.146910
613.095824	0.146848
613.304723	0.146800
613.513604	0.146768
613.722467	0.147255
613.931311	0.147042
614.140138	0.147130
614.348946	0.147029
614.557736	0.146954
614.766507	0.146866
614.975261	0.146930
615.183996	0.147262
615.392713	0.147540
615.601412	0.147465
615.810092	0.147557
616.018754	0.147569
616.227399	0.147624
616.436024	0.147625
616.644632	0.147999
616.853222	0.148116
617.061793	0.147822
617.270346	0.147957
617.478880	0.147836
617.687397	0.148101
617.895895	0.148206
618.104375	0.148395
618.312837	0.148450
618.521281	0.148630
618.729706	0.148736
618.938113	0.148858
619.146502	0.148619
619.354873	0.148954
619.563226	0.148862
619.771560	0.148966
619.979876	0.149357
620.188174	0.149544
620.396453	0.149498
620.604715	0.149398
620.812958	0.149328
621.021183	0.149517
621.229390	0.149554
621.437578	0.149675
621.645748	0.149698
621.853900	0.149504
622.062034	0.149432
622.270150	0.149337
622.478247	0.149516
622.686326	0.149835
622.894387	0.149977
623.102430	0.150027
623.310454	0.150040
623.518461	0.150079
623.726449	0.150183
623.934418	0.150445
624.142370	0.150582
624.350303	0.150776
624.558218	0.150831
624.766115	0.150890
624.973994	0.151096
625.181855	0.151214
625.389697	0.151597
625.597521	0.151980
625.805327	0.152224
626.013114	0.152354
626.220883	0.152567
626.428634	0.152730
626.636367	0.152960
626.844082	0.152785
627.051778	0.153039
627.259457	0.152925
627.467117	0.152981
627.674758	0.152838
627.882382	0.152918
628.089987	0.153007
628.297574	0.153030
628.505143	0.153034
628.712694	0.153068
628.920226	0.152928
629.127740	0.153182
629.335236	0.152945
629.542714	0.153001
629.750174	0.153096
629.957615	0.153040
630.165038	0.153029
630.372443	0.153214
630.579829	0.153394
630.787198	0.153642
630.994548	0.153730
631.201880	0.154111
631.409194	0.154497
631.616489	0.154563
631.823766	0.154513
632.031025	0.154471
632.238266	0.154499
632.445489	0.154710
632.652693	0.154742
632.859879	0.154827
633.067047	0.154739
633.274197	0.154530
633.481329	0.154549
633.688442	0.154859
633.895537	0.154990
634.102614	0.155124
634.309672	0.155292
634.516713	0.155295
634.723735	0.155378
634.930739	0.155629
635.137724	0.155934
635.344692	0.156182
635.551641	0.156213
635.758572	0.156414
635.965485	0.156435
636.172379	0.156459
636.379256	0.156568
636.586114	0.156460
636.792954	0.156372
636.999775	0.156218
637.206579	0.156423
637.413364	0.156502
637.620131	0.156580
637.826880	0.156804
638.033610	0.157032
638.240323	0.157230
638.447017	0.157572
638.653692	0.157905
638.860350	0.158218
639.066990	0.158059
639.273611	0.158263
639.480214	0.158524
639.686798	0.158660
639.893365	0.158829
640.099913	0.159131
640.306443	0.159255
640.512955	0.159197
640.719449	0.159489
640.925924	0.159820
641.132381	0.159775
641.338820	0.159902
641.545241	0.159882
641.751644	0.159809
641.958028	0.159522
642.164394	0.159582
642.370742	0.159611
642.577071	0.159630
642.783383	0.159598
642.989676	0.159795
643.195951	0.159875
643.402207	0.159898
643.608446	0.160072
643.814666	0.160639
644.020868	0.160560
644.227052	0.160595
644.433218	0.160736
644.639365	0.161080
644.845494	0.161168
645.051605	0.161257
645.257698	0.161486
645.463772	0.161588
645.669828	0.161704
645.875866	0.162081
646.081886	0.162302
646.287888	0.162397
646.493871	0.162496
646.699836	0.162598
646.905783	0.162583
647.111712	0.162797
647.317622	0.163077
647.523514	0.162932
647.729388	0.162773
647.935244	0.162908
648.141082	0.163017
648.346901	0.163054
648.552702	0.163268
648.758485	0.163375
648.964250	0.163294
649.169996	0.163316
649.375724	0.163455
649.581434	0.163580
649.787126	0.163889
649.992800	0.163876
650.198455	0.163956
650.404092	0.163866
650.609711	0.164062
650.815311	0.164277
651.020894	0.164169
651.226458	0.164217
651.432004	0.164495
651.637532	0.164408
651.843041	0.164564
652.048532	0.164613
652.254006	0.164879
652.459460	0.165093
652.664897	0.165077
652.870315	0.165312
653.075716	0.165474
653.281097	0.165615
653.486461	0.166033
653.691807	0.166134
653.897134	0.166684
654.102443	0.166725
654.307734	0.166984
654.513006	0.167296
654.718261	0.167527
654.923497	0.167711
655.128715	0.167866
655.333915	0.167716
655.539096	0.167870
655.744259	0.167814
655.949404	0.168128
656.154531	0.167943
656.359640	0.168099
656.564730	0.168240
656.769802	0.168521
656.974856	0.168534
657.179892	0.168955
657.384909	0.169179
657.589908	0.168916
657.794889	0.169020
657.999852	0.169261
658.204797	0.169496
658.409723	0.169856
658.614631	0.170120
658.819521	0.170449
659.024393	0.170249
659.229246	0.170334
659.434081	0.170655
659.638898	0.170645
659.843697	0.170766
660.048478	0.170831
660.253240	0.170496
660.457984	0.170368
660.662710	0.170466
660.867417	0.170883
661.072107	0.171174
661.276778	0.171392
661.481431	0.171572
661.686066	0.171837
661.890682	0.172123
662.095281	0.172480
662.299861	0.172684
662.504422	0.172788
662.708966	0.172801
662.913491	0.173046
663.117999	0.173142
663.322488	0.173408
663.526958	0.173495
663.731411	0.173404
663.935845	0.173549
664.140261	0.173884
664.344659	0.174140
664.549038	0.174166
664.753400	0.174113
664.957743	0.174329
665.162068	0.174453
665.366375	0.174559
665.570663	0.174829
665.774933	0.174829
665.979185	0.174894
666.183419	0.175039
666.387635	0.175503
666.591832	0.175684
666.796011	0.175915
667.000172	0.176015
667.204315	0.176182
667.408439	0.176088
667.612545	0.176267
667.816634	0.176368
668.020703	0.176188
668.224755	0.176170
668.428788	0.176253
668.632803	0.176381
668.836800	0.176408
669.040779	0.176563
669.244739	0.176792
669.448681	0.176932
669.652605	0.177018
669.856511	0.177218
670.060399	0.177119
670.264268	0.177232
670.468119	0.177216
670.671952	0.177524
670.875767	0.177598
671.079563	0.177817
671.283341	0.177934
671.487101	0.178066
671.690843	0.178264
671.894567	0.178303
672.098272	0.178222
672.301959	0.178357
672.505628	0.178453
672.709278	0.178651
672.912911	0.178759
673.116525	0.178890
673.320121	0.178883
673.523699	0.179075
673.727258	0.179420
673.930799	0.179664
674.134322	0.179854
674.337827	0.179847
674.541314	0.179923
674.744782	0.180230
674.948232	0.180243
675.151664	0.180508
675.355078	0.180471
675.558474	0.180619
675.761851	0.180877
675.965210	0.181087
676.168551	0.181164
676.371873	0.181160
676.575178	0.181162
676.778464	0.181558
676.981732	0.181406
677.184981	0.181813
677.388213	0.181815
677.591426	0.181710
677.794621	0.181676
677.997798	0.181805
678.200956	0.182029
678.404097	0.182170
678.607219	0.182167
678.810323	0.182503
679.013408	0.182177
679.216476	0.182556
679.419525	0.182920
679.622556	0.183080
679.825569	0.183495
680.028563	0.183749
680.231540	0.183740
680.434498	0.183816
680.637438	0.183845
680.840359	0.184101
681.043263	0.184106
681.246148	0.184136
681.449015	0.184163
681.651864	0.184177
681.854694	0.184199
682.057506	0.184525
682.260301	0.184846
682.463076	0.185100
682.665834	0.185332
682.868573	0.185433
683.071295	0.185419
683.273998	0.185563
683.476682	0.185689
683.679349	0.185724
683.881997	0.185755
684.084627	0.185863
684.287239	0.185921
684.489833	0.185987
684.692408	0.186035
684.894965	0.186191
685.097504	0.186244
685.300025	0.186400
685.502527	0.186419
685.705012	0.186233
685.907478	0.186065
686.109925	0.186103
686.312355	0.186102
686.514766	0.186255
686.717159	0.186396
686.919534	0.186587
687.121891	0.186595
687.324230	0.187032
687.526550	0.187246
687.728852	0.187305
687.931136	0.187537
688.133401	0.187831
688.335649	0.187986
688.537878	0.188175
688.740089	0.188358
688.942281	0.188349
689.144456	0.188344
689.346612	0.188598
689.548750	0.188894
689.750870	0.188937
689.952971	0.188829
690.155055	0.188772
690.357120	0.188823
690.559167	0.188868
690.761195	0.189028
690.963206	0.189002
691.165198	0.188977
691.367172	0.189304
691.569128	0.189302
691.771065	0.189706
691.972984	0.189606
692.174885	0.189821
692.376768	0.189874
692.578633	0.190042
692.780479	0.190119
692.982308	0.190181
693.184118	0.189973
693.385909	0.189910
693.587683	0.189722
