sample name	sample
index	1240
start time	 04-29-2021  11:37:01 AM


Wavelength (nm)	Absorbance
494.344910	-0.108252
494.563924	-0.108252
494.782919	-0.108252
495.001897	-0.187811
495.220856	-0.041422
495.439797	-0.018043
495.658719	-0.003900
495.877624	-0.006893
496.096510	0.030525
496.315378	0.010231
496.534227	-0.025837
496.753059	-0.071912
496.971872	-0.093448
497.190667	0.022570
497.409444	0.046857
497.628203	0.051438
497.846943	0.056054
498.065665	0.057577
498.284369	0.060513
498.503055	0.058817
498.721723	0.060875
498.940372	0.061770
499.159003	0.060761
499.377616	0.060257
499.596210	0.060778
499.814787	0.060797
500.033345	0.060205
500.251885	0.059869
500.470406	0.062437
500.688910	0.063917
500.907395	0.065036
501.125862	0.064994
501.344311	0.064604
501.562742	0.065113
501.781154	0.065079
501.999548	0.065750
502.217924	0.065164
502.436282	0.065636
502.654621	0.064826
502.872942	0.063668
503.091245	0.064616
503.309530	0.065291
503.527797	0.064367
503.746045	0.064184
503.964275	0.064273
504.182487	0.064631
504.400681	0.063841
504.618856	0.063083
504.837013	0.062660
505.055152	0.062326
505.273273	0.061971
505.491376	0.062099
505.709460	0.062840
505.927526	0.061988
506.145574	0.062279
506.363604	0.062731
506.581615	0.062417
506.799608	0.062217
507.017583	0.062234
507.235540	0.062469
507.453478	0.062341
507.671399	0.060929
507.889301	0.061527
508.107185	0.061130
508.325050	0.060763
508.542898	0.060674
508.760727	0.061266
508.978538	0.061311
509.196330	0.061297
509.414105	0.061520
509.631861	0.063105
509.849599	0.062939
510.067319	0.063489
510.285021	0.063595
510.502704	0.064145
510.720369	0.064671
510.938016	0.065331
511.155645	0.066035
511.373255	0.066541
511.590848	0.066048
511.808422	0.066491
512.025977	0.065953
512.243515	0.066337
512.461034	0.066916
512.678536	0.067437
512.896018	0.066542
513.113483	0.065487
513.330930	0.065202
513.548358	0.065449
513.765768	0.064451
513.983160	0.065204
514.200533	0.065188
514.417889	0.065171
514.635226	0.064658
514.852545	0.065027
515.069845	0.065542
515.287128	0.065858
515.504392	0.065140
515.721638	0.065136
515.938866	0.065262
516.156075	0.065083
516.373267	0.064375
516.590440	0.064104
516.807594	0.063825
517.024731	0.064044
517.241850	0.063478
517.458950	0.064328
517.676032	0.065114
517.893095	0.064888
518.110141	0.064506
518.327168	0.064743
518.544177	0.065622
518.761168	0.066681
518.978141	0.066079
519.195095	0.067034
519.412031	0.066843
519.628949	0.066595
519.845849	0.066508
520.062731	0.067394
520.279594	0.067714
520.496439	0.067557
520.713266	0.067413
520.930074	0.068342
521.146865	0.068462
521.363637	0.068562
521.580391	0.069627
521.797127	0.069776
522.013844	0.069299
522.230543	0.069142
522.447224	0.068945
522.663887	0.068759
522.880532	0.068334
523.097158	0.068063
523.313766	0.068189
523.530356	0.067911
523.746928	0.068033
523.963481	0.067935
524.180017	0.068294
524.396534	0.068479
524.613032	0.068117
524.829513	0.067677
525.045975	0.067351
525.262420	0.067409
525.478845	0.067148
525.695253	0.066914
525.911643	0.066784
526.128014	0.066671
526.344367	0.066673
526.560702	0.066850
526.777018	0.067625
526.993316	0.068702
527.209597	0.068667
527.425858	0.069011
527.642102	0.069445
527.858328	0.070334
528.074535	0.070701
528.290724	0.070950
528.506894	0.071356
528.723047	0.071247
528.939181	0.070770
529.155297	0.071030
529.371395	0.071594
529.587475	0.071799
529.803536	0.071801
530.019579	0.072359
530.235604	0.072593
530.451611	0.073288
530.667600	0.073521
530.883570	0.073322
531.099522	0.073293
531.315456	0.073007
531.531372	0.073245
531.747269	0.073052
531.963148	0.072522
532.179009	0.072643
532.394852	0.072639
532.610676	0.073133
532.826482	0.073287
533.042271	0.074012
533.258040	0.074016
533.473792	0.073507
533.689525	0.073780
533.905240	0.073943
534.120937	0.074259
534.336616	0.073976
534.552277	0.073510
534.767919	0.074143
534.983543	0.074220
535.199149	0.074756
535.414736	0.075328
535.630306	0.075717
535.845857	0.075879
536.061390	0.076173
536.276904	0.076519
536.492401	0.076857
536.707879	0.076839
536.923339	0.076796
537.138781	0.076596
537.354204	0.077411
537.569610	0.076802
537.784997	0.076964
538.000366	0.076770
538.215716	0.076378
538.431049	0.076261
538.646363	0.076270
538.861659	0.076208
539.076937	0.076555
539.292196	0.076310
539.507438	0.076848
539.722661	0.076914
539.937866	0.076688
540.153052	0.077022
540.368221	0.077255
540.583371	0.077217
540.798503	0.077029
541.013617	0.077099
541.228712	0.076510
541.443789	0.076507
541.658848	0.076543
541.873889	0.076764
542.088912	0.077218
542.303916	0.077184
542.518902	0.077551
542.733870	0.077979
542.948820	0.077919
543.163752	0.077997
543.378665	0.078073
543.593560	0.078256
543.808437	0.078558
544.023295	0.077989
544.238136	0.077909
544.452958	0.078025
544.667762	0.077676
544.882548	0.077827
545.097315	0.078265
545.312064	0.077986
545.526795	0.078003
545.741508	0.077992
545.956203	0.078268
546.170879	0.078714
546.385537	0.078715
546.600177	0.078907
546.814799	0.078925
547.029402	0.078726
547.243988	0.079064
547.458555	0.079297
547.673103	0.079062
547.887634	0.079223
548.102146	0.079026
548.316640	0.078908
548.531116	0.079241
548.745574	0.079119
548.960013	0.079223
549.174435	0.079269
549.388838	0.079375
549.603222	0.079883
549.817589	0.080427
550.031937	0.080874
550.246267	0.080895
550.460579	0.080909
550.674873	0.080981
550.889148	0.080982
551.103405	0.081122
551.317644	0.081069
551.531865	0.081087
551.746068	0.080388
551.960252	0.080312
552.174418	0.080257
552.388566	0.080667
552.602696	0.080703
552.816807	0.080746
553.030900	0.080685
553.244975	0.080674
553.459032	0.080719
553.673070	0.081253
553.887091	0.081118
554.101093	0.081389
554.315077	0.080752
554.529042	0.080627
554.742990	0.080993
554.956919	0.081153
555.170830	0.080967
555.384722	0.080742
555.598597	0.080462
555.812453	0.080365
556.026291	0.080297
556.240111	0.080971
556.453913	0.080877
556.667696	0.080731
556.881461	0.080580
557.095208	0.080536
557.308937	0.080834
557.522647	0.081174
557.736339	0.081649
557.950013	0.081537
558.163669	0.080810
558.377307	0.081159
558.590926	0.081098
558.804527	0.081451
559.018110	0.081664
559.231675	0.081443
559.445221	0.081399
559.658749	0.081259
559.872259	0.081373
560.085751	0.081862
560.299225	0.081817
560.512680	0.081977
560.726117	0.081938
560.939536	0.082196
561.152937	0.082270
561.366319	0.081982
561.579683	0.082224
561.793029	0.082725
562.006357	0.082742
562.219667	0.082937
562.432958	0.082806
562.646231	0.082453
562.859486	0.082248
563.072723	0.082362
563.285941	0.082579
563.499141	0.082074
563.712323	0.082007
563.925487	0.081839
564.138632	0.081775
564.351760	0.081636
564.564869	0.081454
564.777960	0.081737
564.991032	0.081622
565.204087	0.081479
565.417123	0.081646
565.630141	0.081269
565.843140	0.081376
566.056122	0.081323
566.269085	0.081528
566.482030	0.081985
566.694957	0.081778
566.907866	0.082009
567.120756	0.082349
567.333628	0.082683
567.546482	0.082763
567.759318	0.082576
567.972135	0.082890
568.184935	0.082738
568.397716	0.082950
568.610478	0.082904
568.823223	0.082740
569.035949	0.082637
569.248657	0.082609
569.461347	0.082757
569.674019	0.082900
569.886672	0.082584
570.099308	0.082941
570.311925	0.082951
570.524523	0.082881
570.737104	0.082872
570.949666	0.082771
571.162210	0.082369
571.374736	0.082137
571.587244	0.082382
571.799733	0.082644
572.012205	0.082336
572.224658	0.082540
572.437092	0.082828
572.649509	0.083070
572.861907	0.082966
573.074287	0.083296
573.286649	0.083569
573.498993	0.083370
573.711318	0.083375
573.923625	0.083700
574.135914	0.083590
574.348185	0.083361
574.560438	0.083080
574.772672	0.083087
574.984888	0.083000
575.197086	0.083108
575.409266	0.083175
575.621427	0.082805
575.833570	0.082681
576.045695	0.082618
576.257802	0.082919
576.469890	0.083029
576.681961	0.083084
576.894013	0.082828
577.106046	0.082713
577.318062	0.082645
577.530059	0.082896
577.742039	0.082991
577.954000	0.082976
578.165942	0.082893
578.377867	0.082870
578.589773	0.082830
578.801661	0.083161
579.013531	0.082914
579.225382	0.082955
579.437216	0.082882
579.649031	0.082758
579.860828	0.082443
580.072606	0.082514
580.284367	0.082895
580.496109	0.082832
580.707833	0.082939
580.919539	0.083104
581.131227	0.083276
581.342896	0.083490
581.554547	0.083623
581.766180	0.083763
581.977795	0.083595
582.189391	0.083464
582.400969	0.083812
582.612529	0.083783
582.824071	0.083991
583.035595	0.084024
583.247100	0.083892
583.458587	0.084174
583.670056	0.084306
583.881506	0.084557
584.092939	0.084585
584.304353	0.084449
584.515749	0.084549
584.727127	0.084527
584.938486	0.084538
585.149828	0.084673
585.361151	0.084625
585.572456	0.084807
585.783742	0.084708
585.995011	0.084784
586.206261	0.084978
586.417493	0.084872
586.628706	0.084779
586.839902	0.084877
587.051079	0.084936
587.262238	0.084977
587.473379	0.085048
587.684502	0.085016
587.895606	0.084593
588.106692	0.084568
588.317760	0.084721
588.528810	0.084904
588.739841	0.084721
588.950855	0.084847
589.161850	0.084611
589.372827	0.084584
589.583785	0.084481
589.794726	0.084639
590.005648	0.085023
590.216552	0.084926
590.427437	0.085095
590.638305	0.085298
590.849154	0.085172
591.059985	0.085094
591.270798	0.084872
591.481592	0.085323
591.692369	0.085743
591.903127	0.085613
592.113867	0.085584
592.324588	0.085539
592.535292	0.085564
592.745977	0.085886
592.956644	0.086057
593.167293	0.086270
593.377923	0.086370
593.588536	0.086136
593.799130	0.086254
594.009706	0.086519
594.220263	0.086461
594.430803	0.086418
594.641324	0.086262
594.851827	0.086366
595.062312	0.086453
595.272778	0.086286
595.483227	0.086302
595.693657	0.086193
595.904069	0.085976
596.114462	0.085853
596.324838	0.086073
596.535195	0.086102
596.745534	0.086413
596.955855	0.086451
597.166157	0.086633
597.376441	0.086814
597.586707	0.087099
597.796955	0.087250
598.007185	0.087590
598.217396	0.087577
598.427589	0.087652
598.637764	0.087774
598.847921	0.087977
599.058060	0.088318
599.268180	0.088486
599.478282	0.088375
599.688366	0.088829
599.898431	0.088985
600.108479	0.089238
600.318508	0.089256
600.528519	0.089118
600.738511	0.088914
600.948486	0.088657
601.158442	0.088675
601.368380	0.088708
601.578300	0.088488
601.788202	0.088520
601.998085	0.088459
602.207950	0.088493
602.417797	0.088783
602.627626	0.089211
602.837436	0.089201
603.047228	0.089346
603.257002	0.089519
603.466758	0.089706
603.676496	0.089477
603.886215	0.089689
604.095916	0.089849
604.305599	0.089652
604.515264	0.089394
604.724910	0.089295
604.934538	0.089204
605.144148	0.089336
605.353740	0.089343
605.563314	0.089303
605.772869	0.088950
605.982406	0.088624
606.191925	0.088755
606.401425	0.088858
606.610908	0.088980
606.820372	0.089121
607.029818	0.088881
607.239246	0.088960
607.448655	0.089129
607.658047	0.089357
607.867420	0.089599
608.076775	0.089239
608.286111	0.089500
608.495430	0.089617
608.704730	0.089504
608.914012	0.089674
609.123275	0.089678
609.332521	0.089903
609.541748	0.090017
609.750957	0.090186
609.960148	0.090518
610.169321	0.090625
610.378475	0.090887
610.587611	0.090938
610.796729	0.090971
611.005829	0.090954
611.214910	0.090930
611.423974	0.090971
611.633019	0.090953
611.842045	0.091048
612.051054	0.091006
612.260044	0.091165
612.469017	0.091431
612.677970	0.091604
612.886906	0.091698
613.095824	0.091829
613.304723	0.091798
613.513604	0.091860
613.722467	0.091844
613.931311	0.091664
614.140138	0.091297
614.348946	0.091373
614.557736	0.091341
614.766507	0.091466
614.975261	0.091445
615.183996	0.091532
615.392713	0.091750
615.601412	0.091966
615.810092	0.092069
616.018754	0.092248
616.227399	0.092069
616.436024	0.092080
616.644632	0.091960
616.853222	0.092000
617.061793	0.092217
617.270346	0.092327
617.478880	0.092402
617.687397	0.092392
617.895895	0.092684
618.104375	0.092740
618.312837	0.092666
618.521281	0.092792
618.729706	0.092569
618.938113	0.092285
619.146502	0.092070
619.354873	0.091859
619.563226	0.091909
619.771560	0.091653
619.979876	0.092075
620.188174	0.092192
620.396453	0.092274
620.604715	0.092645
620.812958	0.092724
621.021183	0.092771
621.229390	0.092937
621.437578	0.093073
621.645748	0.093272
621.853900	0.093042
622.062034	0.092982
622.270150	0.092939
622.478247	0.093152
622.686326	0.093256
622.894387	0.093384
623.102430	0.093459
623.310454	0.093590
623.518461	0.093671
623.726449	0.093585
623.934418	0.093678
624.142370	0.093754
624.350303	0.093391
624.558218	0.093459
624.766115	0.093454
624.973994	0.093318
625.181855	0.093090
625.389697	0.092901
625.597521	0.093137
625.805327	0.093202
626.013114	0.093303
626.220883	0.093498
626.428634	0.093535
626.636367	0.093712
626.844082	0.093997
627.051778	0.094176
627.259457	0.094324
627.467117	0.094447
627.674758	0.094686
627.882382	0.094713
628.089987	0.094899
628.297574	0.095213
628.505143	0.095092
628.712694	0.094994
628.920226	0.095283
629.127740	0.095434
629.335236	0.095384
629.542714	0.095430
629.750174	0.095638
629.957615	0.095666
630.165038	0.095363
630.372443	0.095334
630.579829	0.095448
630.787198	0.095363
630.994548	0.095099
631.201880	0.095000
631.409194	0.094824
631.616489	0.094781
631.823766	0.094758
632.031025	0.094883
632.238266	0.095031
632.445489	0.095197
632.652693	0.095285
632.859879	0.095577
633.067047	0.095698
633.274197	0.095960
633.481329	0.095826
633.688442	0.095737
633.895537	0.095541
634.102614	0.095489
634.309672	0.095178
634.516713	0.095039
634.723735	0.094794
634.930739	0.094843
635.137724	0.094532
635.344692	0.094527
635.551641	0.094548
635.758572	0.094513
635.965485	0.094604
636.172379	0.094910
636.379256	0.094936
636.586114	0.095114
636.792954	0.095009
636.999775	0.095219
637.206579	0.095528
637.413364	0.095717
637.620131	0.095978
637.826880	0.096172
638.033610	0.096278
638.240323	0.096276
638.447017	0.096353
638.653692	0.096421
638.860350	0.096388
639.066990	0.096214
639.273611	0.096176
639.480214	0.096199
639.686798	0.096211
639.893365	0.096165
640.099913	0.096253
640.306443	0.096424
640.512955	0.096824
640.719449	0.096942
640.925924	0.097161
641.132381	0.097430
641.338820	0.097665
641.545241	0.097776
641.751644	0.097986
641.958028	0.098197
642.164394	0.098555
642.370742	0.098321
642.577071	0.098444
642.783383	0.098502
642.989676	0.098560
643.195951	0.098798
643.402207	0.098788
643.608446	0.098873
643.814666	0.098762
644.020868	0.098498
644.227052	0.098685
644.433218	0.098647
644.639365	0.098745
644.845494	0.098659
645.051605	0.098569
645.257698	0.098476
645.463772	0.098258
645.669828	0.098458
645.875866	0.098219
646.081886	0.098127
646.287888	0.098457
646.493871	0.098387
646.699836	0.098423
646.905783	0.098364
647.111712	0.098453
647.317622	0.098507
647.523514	0.098509
647.729388	0.098727
647.935244	0.098665
648.141082	0.098510
648.346901	0.098504
648.552702	0.098347
648.758485	0.098281
648.964250	0.098435
649.169996	0.098406
649.375724	0.098528
649.581434	0.098529
649.787126	0.098742
649.992800	0.098601
650.198455	0.098451
650.404092	0.098453
650.609711	0.098506
650.815311	0.098316
651.020894	0.098287
651.226458	0.098265
651.432004	0.098268
651.637532	0.098175
651.843041	0.098324
652.048532	0.098677
652.254006	0.098864
652.459460	0.098925
652.664897	0.098968
652.870315	0.099171
653.075716	0.099221
653.281097	0.099167
653.486461	0.099197
653.691807	0.099209
653.897134	0.098971
654.102443	0.099175
654.307734	0.099126
654.513006	0.099266
654.718261	0.099455
654.923497	0.099338
655.128715	0.099686
655.333915	0.099817
655.539096	0.100135
655.744259	0.100605
655.949404	0.100650
656.154531	0.100963
656.359640	0.101311
656.564730	0.101451
656.769802	0.101538
656.974856	0.101683
657.179892	0.101811
657.384909	0.101751
657.589908	0.101686
657.794889	0.101661
657.999852	0.101683
658.204797	0.101549
658.409723	0.101481
658.614631	0.101814
658.819521	0.101795
659.024393	0.101683
659.229246	0.101733
659.434081	0.101674
659.638898	0.101902
659.843697	0.101911
660.048478	0.102040
660.253240	0.102115
660.457984	0.102001
660.662710	0.101971
660.867417	0.102135
661.072107	0.101882
661.276778	0.102177
661.481431	0.101963
661.686066	0.101998
661.890682	0.102005
662.095281	0.102044
662.299861	0.101965
662.504422	0.101807
662.708966	0.101816
662.913491	0.102084
663.117999	0.101731
663.322488	0.101862
663.526958	0.101864
663.731411	0.101826
663.935845	0.101609
664.140261	0.101605
664.344659	0.101888
664.549038	0.101911
664.753400	0.101882
664.957743	0.102283
665.162068	0.102509
665.366375	0.102770
665.570663	0.102775
665.774933	0.103038
665.979185	0.103242
666.183419	0.103333
666.387635	0.103698
666.591832	0.103874
666.796011	0.103851
667.000172	0.103995
667.204315	0.104059
667.408439	0.104339
667.612545	0.104309
667.816634	0.104507
668.020703	0.104659
668.224755	0.104634
668.428788	0.104753
668.632803	0.105005
668.836800	0.105144
669.040779	0.105297
669.244739	0.105256
669.448681	0.105513
669.652605	0.105700
669.856511	0.105579
670.060399	0.105671
670.264268	0.105952
670.468119	0.105826
670.671952	0.105785
670.875767	0.105821
671.079563	0.106084
671.283341	0.106325
671.487101	0.106484
671.690843	0.106687
671.894567	0.106720
672.098272	0.106710
672.301959	0.106785
672.505628	0.106831
672.709278	0.106869
672.912911	0.106874
673.116525	0.106961
673.320121	0.106762
673.523699	0.106721
673.727258	0.106747
673.930799	0.106565
674.134322	0.106612
674.337827	0.106559
674.541314	0.106401
674.744782	0.106150
674.948232	0.106048
675.151664	0.106149
675.355078	0.106172
675.558474	0.106107
675.761851	0.106258
675.965210	0.106299
676.168551	0.106343
676.371873	0.106452
676.575178	0.106720
676.778464	0.106636
676.981732	0.106835
677.184981	0.106908
677.388213	0.107032
677.591426	0.107027
677.794621	0.107175
677.997798	0.107342
678.200956	0.107248
678.404097	0.107164
678.607219	0.107136
678.810323	0.106887
679.013408	0.106924
679.216476	0.107213
679.419525	0.107374
679.622556	0.107433
679.825569	0.107251
680.028563	0.107586
680.231540	0.107770
680.434498	0.107762
680.637438	0.107910
680.840359	0.108051
681.043263	0.107833
681.246148	0.107823
681.449015	0.107833
681.651864	0.108099
681.854694	0.108096
682.057506	0.108154
682.260301	0.108343
682.463076	0.108390
682.665834	0.108381
682.868573	0.108491
683.071295	0.108605
683.273998	0.108594
683.476682	0.108509
683.679349	0.108556
683.881997	0.108820
684.084627	0.109139
684.287239	0.109249
684.489833	0.109464
684.692408	0.109443
684.894965	0.109471
685.097504	0.109753
685.300025	0.110042
685.502527	0.110251
685.705012	0.110178
685.907478	0.109922
686.109925	0.109961
686.312355	0.109959
686.514766	0.110305
686.717159	0.110504
686.919534	0.110349
687.121891	0.110221
687.324230	0.110157
687.526550	0.110128
687.728852	0.110347
687.931136	0.110410
688.133401	0.110382
688.335649	0.110344
688.537878	0.110254
688.740089	0.110434
688.942281	0.110468
689.144456	0.110382
689.346612	0.110468
689.548750	0.110514
689.750870	0.110824
689.952971	0.111012
690.155055	0.111123
690.357120	0.111140
690.559167	0.111187
690.761195	0.111270
690.963206	0.111260
691.165198	0.111319
691.367172	0.111189
691.569128	0.111067
691.771065	0.111099
691.972984	0.110941
692.174885	0.111091
692.376768	0.110992
692.578633	0.111117
692.780479	0.111294
692.982308	0.111254
693.184118	0.111340
693.385909	0.111174
