sample name	sample
index	1423
start time	 05-10-2021  12:13:56 PM


Wavelength (nm)	Absorbance
494.344910	0.005012
494.563924	0.005012
494.782919	0.005012
495.001897	-0.083356
495.220856	0.010235
495.439797	0.011954
495.658719	0.005337
495.877624	0.011827
496.096510	0.022836
496.315378	0.018413
496.534227	0.017707
496.753059	0.010993
496.971872	0.011285
497.190667	0.053511
497.409444	0.069329
497.628203	0.075678
497.846943	0.080138
498.065665	0.084014
498.284369	0.085537
498.503055	0.085890
498.721723	0.087570
498.940372	0.087040
499.159003	0.086656
499.377616	0.087279
499.596210	0.088019
499.814787	0.087326
500.033345	0.086270
500.251885	0.086533
500.470406	0.086782
500.688910	0.086901
500.907395	0.088032
501.125862	0.088535
501.344311	0.088806
501.562742	0.089130
501.781154	0.089797
501.999548	0.090389
502.217924	0.090523
502.436282	0.091353
502.654621	0.091821
502.872942	0.092178
503.091245	0.091777
503.309530	0.092134
503.527797	0.091346
503.746045	0.090170
503.964275	0.090749
504.182487	0.091300
504.400681	0.091877
504.618856	0.091223
504.837013	0.090506
505.055152	0.090743
505.273273	0.089640
505.491376	0.090524
505.709460	0.091741
505.927526	0.091855
506.145574	0.091823
506.363604	0.091072
506.581615	0.090806
506.799608	0.091014
507.017583	0.091005
507.235540	0.091507
507.453478	0.091938
507.671399	0.091648
507.889301	0.091116
508.107185	0.090956
508.325050	0.091269
508.542898	0.092053
508.760727	0.093186
508.978538	0.093680
509.196330	0.093827
509.414105	0.093573
509.631861	0.093001
509.849599	0.093409
510.067319	0.093050
510.285021	0.093429
510.502704	0.093627
510.720369	0.092622
510.938016	0.092122
511.155645	0.092388
511.373255	0.092476
511.590848	0.093215
511.808422	0.093144
512.025977	0.094137
512.243515	0.093260
512.461034	0.093324
512.678536	0.093286
512.896018	0.093412
513.113483	0.093319
513.330930	0.093428
513.548358	0.093585
513.765768	0.094084
513.983160	0.093093
514.200533	0.093615
514.417889	0.093070
514.635226	0.093411
514.852545	0.094273
515.069845	0.095207
515.287128	0.095492
515.504392	0.095921
515.721638	0.095640
515.938866	0.096833
516.156075	0.096857
516.373267	0.097581
516.590440	0.097905
516.807594	0.097408
517.024731	0.097326
517.241850	0.097625
517.458950	0.097167
517.676032	0.097224
517.893095	0.096953
518.110141	0.097110
518.327168	0.097218
518.544177	0.096910
518.761168	0.097164
518.978141	0.097119
519.195095	0.096849
519.412031	0.096830
519.628949	0.097320
519.845849	0.098034
520.062731	0.098501
520.279594	0.098068
520.496439	0.098258
520.713266	0.098446
520.930074	0.098968
521.146865	0.099639
521.363637	0.100801
521.580391	0.101213
521.797127	0.101132
522.013844	0.101738
522.230543	0.102091
522.447224	0.102136
522.663887	0.101985
522.880532	0.101342
523.097158	0.101128
523.313766	0.101283
523.530356	0.100928
523.746928	0.101922
523.963481	0.102227
524.180017	0.102706
524.396534	0.103174
524.613032	0.103766
524.829513	0.104562
525.045975	0.104890
525.262420	0.104272
525.478845	0.105384
525.695253	0.104494
525.911643	0.105034
526.128014	0.105236
526.344367	0.105967
526.560702	0.106152
526.777018	0.106105
526.993316	0.106594
527.209597	0.107043
527.425858	0.107135
527.642102	0.107217
527.858328	0.107354
528.074535	0.107300
528.290724	0.107521
528.506894	0.108367
528.723047	0.108277
528.939181	0.108490
529.155297	0.109243
529.371395	0.108964
529.587475	0.109722
529.803536	0.109643
530.019579	0.109914
530.235604	0.110209
530.451611	0.110061
530.667600	0.110840
530.883570	0.111097
531.099522	0.111793
531.315456	0.111719
531.531372	0.111836
531.747269	0.111650
531.963148	0.112290
532.179009	0.111873
532.394852	0.112304
532.610676	0.112786
532.826482	0.112807
533.042271	0.112416
533.258040	0.112814
533.473792	0.112824
533.689525	0.113125
533.905240	0.113033
534.120937	0.113307
534.336616	0.112969
534.552277	0.113165
534.767919	0.113816
534.983543	0.114181
535.199149	0.114571
535.414736	0.115772
535.630306	0.116314
535.845857	0.116443
536.061390	0.116637
536.276904	0.117033
536.492401	0.117241
536.707879	0.116576
536.923339	0.116283
537.138781	0.116485
537.354204	0.116731
537.569610	0.116413
537.784997	0.117132
538.000366	0.117624
538.215716	0.117987
538.431049	0.117850
538.646363	0.118349
538.861659	0.119001
539.076937	0.119157
539.292196	0.118764
539.507438	0.118827
539.722661	0.118791
539.937866	0.119175
540.153052	0.119098
540.368221	0.119215
540.583371	0.119855
540.798503	0.119732
541.013617	0.120127
541.228712	0.120148
541.443789	0.120723
541.658848	0.120844
541.873889	0.120992
542.088912	0.121354
542.303916	0.121951
542.518902	0.121995
542.733870	0.122134
542.948820	0.122154
543.163752	0.122595
543.378665	0.122933
543.593560	0.123268
543.808437	0.123605
544.023295	0.123463
544.238136	0.123374
544.452958	0.123346
544.667762	0.123641
544.882548	0.124181
545.097315	0.123770
545.312064	0.124066
545.526795	0.123965
545.741508	0.124316
545.956203	0.124900
546.170879	0.124994
546.385537	0.125166
546.600177	0.125655
546.814799	0.125585
547.029402	0.126437
547.243988	0.126304
547.458555	0.126856
547.673103	0.126891
547.887634	0.127186
548.102146	0.127306
548.316640	0.127435
548.531116	0.127728
548.745574	0.127927
548.960013	0.128097
549.174435	0.128580
549.388838	0.128685
549.603222	0.128345
549.817589	0.128595
550.031937	0.129343
550.246267	0.129624
550.460579	0.129363
550.674873	0.129463
550.889148	0.129670
551.103405	0.129575
551.317644	0.129442
551.531865	0.129799
551.746068	0.129398
551.960252	0.128975
552.174418	0.128903
552.388566	0.129249
552.602696	0.129262
552.816807	0.128795
553.030900	0.128782
553.244975	0.128769
553.459032	0.128705
553.673070	0.128877
553.887091	0.128888
554.101093	0.129363
554.315077	0.129393
554.529042	0.129370
554.742990	0.129871
554.956919	0.130172
555.170830	0.130667
555.384722	0.130689
555.598597	0.130810
555.812453	0.131189
556.026291	0.131061
556.240111	0.131107
556.453913	0.131207
556.667696	0.131397
556.881461	0.131496
557.095208	0.131268
557.308937	0.131985
557.522647	0.132146
557.736339	0.131707
557.950013	0.131794
558.163669	0.131848
558.377307	0.131982
558.590926	0.131632
558.804527	0.131486
559.018110	0.131405
559.231675	0.131059
559.445221	0.131375
559.658749	0.131929
559.872259	0.131671
560.085751	0.131621
560.299225	0.131536
560.512680	0.131806
560.726117	0.131852
560.939536	0.132283
561.152937	0.132138
561.366319	0.132508
561.579683	0.132517
561.793029	0.132705
562.006357	0.133287
562.219667	0.133974
562.432958	0.134588
562.646231	0.135172
562.859486	0.135435
563.072723	0.135750
563.285941	0.135463
563.499141	0.135636
563.712323	0.136006
563.925487	0.136066
564.138632	0.135909
564.351760	0.135852
564.564869	0.135935
564.777960	0.135600
564.991032	0.135906
565.204087	0.136236
565.417123	0.136383
565.630141	0.136633
565.843140	0.136455
566.056122	0.137032
566.269085	0.137007
566.482030	0.137022
566.694957	0.137457
566.907866	0.137480
567.120756	0.137264
567.333628	0.137380
567.546482	0.137453
567.759318	0.137661
567.972135	0.137287
568.184935	0.137434
568.397716	0.137458
568.610478	0.137741
568.823223	0.137857
569.035949	0.138131
569.248657	0.138107
569.461347	0.137975
569.674019	0.138041
569.886672	0.138289
570.099308	0.138517
570.311925	0.138784
570.524523	0.138996
570.737104	0.138994
570.949666	0.139053
571.162210	0.139470
571.374736	0.139688
571.587244	0.139877
571.799733	0.139618
572.012205	0.139323
572.224658	0.138956
572.437092	0.138431
572.649509	0.138551
572.861907	0.138755
573.074287	0.139001
573.286649	0.139427
573.498993	0.139295
573.711318	0.139984
573.923625	0.140296
574.135914	0.140811
574.348185	0.141196
574.560438	0.141272
574.772672	0.141545
574.984888	0.141662
575.197086	0.141592
575.409266	0.141637
575.621427	0.141658
575.833570	0.141832
576.045695	0.142217
576.257802	0.142817
576.469890	0.143020
576.681961	0.142918
576.894013	0.142900
577.106046	0.142982
577.318062	0.143256
577.530059	0.143399
577.742039	0.143843
577.954000	0.143693
578.165942	0.143789
578.377867	0.143921
578.589773	0.144201
578.801661	0.144079
579.013531	0.144029
579.225382	0.144279
579.437216	0.144095
579.649031	0.143841
579.860828	0.143892
580.072606	0.143738
580.284367	0.144467
580.496109	0.144482
580.707833	0.144878
580.919539	0.145423
581.131227	0.145543
581.342896	0.145957
581.554547	0.146114
581.766180	0.146365
581.977795	0.146737
582.189391	0.146191
582.400969	0.146575
582.612529	0.146476
582.824071	0.146145
583.035595	0.146293
583.247100	0.146332
583.458587	0.146552
583.670056	0.146910
583.881506	0.146990
584.092939	0.147571
584.304353	0.147757
584.515749	0.148284
584.727127	0.149260
584.938486	0.149643
585.149828	0.150452
585.361151	0.150624
585.572456	0.150631
585.783742	0.151152
585.995011	0.151423
586.206261	0.151368
586.417493	0.151606
586.628706	0.151416
586.839902	0.151743
587.051079	0.151406
587.262238	0.151676
587.473379	0.152120
587.684502	0.151557
587.895606	0.151502
588.106692	0.151941
588.317760	0.152299
588.528810	0.152530
588.739841	0.152410
588.950855	0.152362
589.161850	0.152503
589.372827	0.152281
589.583785	0.152781
589.794726	0.153423
590.005648	0.153277
590.216552	0.152833
590.427437	0.152815
590.638305	0.153367
590.849154	0.153679
591.059985	0.153600
591.270798	0.154108
591.481592	0.154297
591.692369	0.153631
591.903127	0.153956
592.113867	0.154480
592.324588	0.154325
592.535292	0.154175
592.745977	0.154319
592.956644	0.154643
593.167293	0.154479
593.377923	0.154568
593.588536	0.154859
593.799130	0.155014
594.009706	0.155127
594.220263	0.155481
594.430803	0.155731
594.641324	0.155961
594.851827	0.156220
595.062312	0.156546
595.272778	0.156542
595.483227	0.156974
595.693657	0.157113
595.904069	0.157113
596.114462	0.157140
596.324838	0.157181
596.535195	0.157371
596.745534	0.157542
596.955855	0.157283
597.166157	0.157216
597.376441	0.157310
597.586707	0.157074
597.796955	0.157143
598.007185	0.157465
598.217396	0.157427
598.427589	0.157059
598.637764	0.157219
598.847921	0.157666
599.058060	0.157947
599.268180	0.158277
599.478282	0.158784
599.688366	0.159016
599.898431	0.159331
600.108479	0.159339
600.318508	0.159614
600.528519	0.159491
600.738511	0.159516
600.948486	0.159687
601.158442	0.159714
601.368380	0.159763
601.578300	0.159977
601.788202	0.159850
601.998085	0.160554
602.207950	0.160842
602.417797	0.160698
602.627626	0.160662
602.837436	0.160849
603.047228	0.160829
603.257002	0.161126
603.466758	0.161106
603.676496	0.161017
603.886215	0.160800
604.095916	0.161010
604.305599	0.161550
604.515264	0.161714
604.724910	0.161779
604.934538	0.161812
605.144148	0.161627
605.353740	0.161769
605.563314	0.162287
605.772869	0.162539
605.982406	0.162868
606.191925	0.162940
606.401425	0.162774
606.610908	0.162851
606.820372	0.163033
607.029818	0.163114
607.239246	0.163433
607.448655	0.163223
607.658047	0.163148
607.867420	0.162971
608.076775	0.162919
608.286111	0.163432
608.495430	0.163689
608.704730	0.163892
608.914012	0.164299
609.123275	0.163892
609.332521	0.164259
609.541748	0.164316
609.750957	0.164473
609.960148	0.164769
610.169321	0.164814
610.378475	0.164947
610.587611	0.164979
610.796729	0.164931
611.005829	0.165459
611.214910	0.165854
611.423974	0.165892
611.633019	0.166055
611.842045	0.166267
612.051054	0.166719
612.260044	0.166785
612.469017	0.167137
612.677970	0.167444
612.886906	0.167470
613.095824	0.167272
613.304723	0.167368
613.513604	0.167521
613.722467	0.167604
613.931311	0.167705
614.140138	0.167574
614.348946	0.167466
614.557736	0.167567
614.766507	0.167940
614.975261	0.168042
615.183996	0.168215
615.392713	0.168209
615.601412	0.168179
615.810092	0.168064
616.018754	0.168351
616.227399	0.168644
616.436024	0.168483
616.644632	0.168549
616.853222	0.168617
617.061793	0.168970
617.270346	0.169321
617.478880	0.169730
617.687397	0.169924
617.895895	0.170308
618.104375	0.170188
618.312837	0.170518
618.521281	0.170596
618.729706	0.171182
618.938113	0.171221
619.146502	0.171257
619.354873	0.171345
619.563226	0.171598
619.771560	0.171602
619.979876	0.171768
620.188174	0.171788
620.396453	0.171640
620.604715	0.171468
620.812958	0.171645
621.021183	0.171677
621.229390	0.171591
621.437578	0.171553
621.645748	0.171597
621.853900	0.172041
622.062034	0.172201
622.270150	0.172698
622.478247	0.172667
622.686326	0.172742
622.894387	0.172699
623.102430	0.173051
623.310454	0.173107
623.518461	0.173352
623.726449	0.172971
623.934418	0.172905
624.142370	0.172791
624.350303	0.172861
624.558218	0.173005
624.766115	0.173295
624.973994	0.173391
625.181855	0.173570
625.389697	0.173456
625.597521	0.173769
625.805327	0.174248
626.013114	0.174400
626.220883	0.174492
626.428634	0.174482
626.636367	0.174494
626.844082	0.174301
627.051778	0.174395
627.259457	0.174598
627.467117	0.174746
627.674758	0.174430
627.882382	0.174529
628.089987	0.174676
628.297574	0.174917
628.505143	0.175197
628.712694	0.175164
628.920226	0.175392
629.127740	0.175548
629.335236	0.175868
629.542714	0.176055
629.750174	0.176120
629.957615	0.176179
630.165038	0.176604
630.372443	0.176768
630.579829	0.177242
630.787198	0.177258
630.994548	0.177421
631.201880	0.177451
631.409194	0.177755
631.616489	0.177676
631.823766	0.177821
632.031025	0.177494
632.238266	0.177561
632.445489	0.177601
632.652693	0.177749
632.859879	0.177732
633.067047	0.177704
633.274197	0.177768
633.481329	0.177973
633.688442	0.178514
633.895537	0.178737
634.102614	0.178754
634.309672	0.178789
634.516713	0.178999
634.723735	0.179191
634.930739	0.179137
635.137724	0.179227
635.344692	0.179348
635.551641	0.179196
635.758572	0.179387
635.965485	0.179363
636.172379	0.179554
636.379256	0.179467
636.586114	0.179795
636.792954	0.180144
636.999775	0.180248
637.206579	0.180491
637.413364	0.180676
637.620131	0.180915
637.826880	0.181314
638.033610	0.181405
638.240323	0.181970
638.447017	0.182027
638.653692	0.182279
638.860350	0.182729
639.066990	0.182923
639.273611	0.183256
639.480214	0.183510
639.686798	0.183766
639.893365	0.183907
640.099913	0.183714
640.306443	0.183803
640.512955	0.183980
640.719449	0.183953
640.925924	0.184054
641.132381	0.183939
641.338820	0.183879
641.545241	0.183865
641.751644	0.183895
641.958028	0.184054
642.164394	0.184333
642.370742	0.184535
642.577071	0.184628
642.783383	0.185121
642.989676	0.185372
643.195951	0.185348
643.402207	0.185614
643.608446	0.185998
643.814666	0.186257
644.020868	0.186290
644.227052	0.186487
644.433218	0.186473
644.639365	0.186256
644.845494	0.186439
645.051605	0.186716
645.257698	0.186863
645.463772	0.186861
645.669828	0.187043
645.875866	0.187128
646.081886	0.187186
646.287888	0.187667
646.493871	0.187874
646.699836	0.187855
646.905783	0.188228
647.111712	0.188336
647.317622	0.188510
647.523514	0.188467
647.729388	0.188677
647.935244	0.188855
648.141082	0.188874
648.346901	0.189043
648.552702	0.189204
648.758485	0.189086
648.964250	0.189248
649.169996	0.189493
649.375724	0.189621
649.581434	0.189542
649.787126	0.189464
649.992800	0.189579
650.198455	0.189905
650.404092	0.189880
650.609711	0.189742
650.815311	0.189482
651.020894	0.189599
651.226458	0.189879
651.432004	0.190037
651.637532	0.190152
651.843041	0.190272
652.048532	0.190092
652.254006	0.190463
652.459460	0.190734
652.664897	0.191107
652.870315	0.191240
653.075716	0.191309
653.281097	0.191563
653.486461	0.191619
653.691807	0.191698
653.897134	0.191794
654.102443	0.191885
654.307734	0.192184
654.513006	0.192513
654.718261	0.192712
654.923497	0.192834
655.128715	0.193069
655.333915	0.193327
655.539096	0.193603
655.744259	0.193977
655.949404	0.194219
656.154531	0.194266
656.359640	0.194032
656.564730	0.194179
656.769802	0.194401
656.974856	0.194449
657.179892	0.194475
657.384909	0.194676
657.589908	0.194662
657.794889	0.194806
657.999852	0.195073
658.204797	0.195587
658.409723	0.195719
658.614631	0.195811
658.819521	0.196293
659.024393	0.196578
659.229246	0.196549
659.434081	0.196661
659.638898	0.196820
659.843697	0.197030
660.048478	0.197102
660.253240	0.197319
660.457984	0.197507
660.662710	0.197392
660.867417	0.197493
661.072107	0.197740
661.276778	0.198216
661.481431	0.198392
661.686066	0.198509
661.890682	0.198851
662.095281	0.198803
662.299861	0.199050
662.504422	0.199263
662.708966	0.199451
662.913491	0.199534
663.117999	0.199688
663.322488	0.199729
663.526958	0.199767
663.731411	0.199793
663.935845	0.200167
664.140261	0.200230
664.344659	0.200141
664.549038	0.200188
664.753400	0.200167
664.957743	0.200399
665.162068	0.200563
665.366375	0.200840
665.570663	0.200975
665.774933	0.201048
665.979185	0.201219
666.183419	0.201335
666.387635	0.201819
666.591832	0.202166
666.796011	0.201927
667.000172	0.202023
667.204315	0.202040
667.408439	0.201916
667.612545	0.201954
667.816634	0.201992
668.020703	0.202306
668.224755	0.202358
668.428788	0.202538
668.632803	0.202877
668.836800	0.203041
669.040779	0.203487
669.244739	0.203738
669.448681	0.204130
669.652605	0.204424
669.856511	0.204837
670.060399	0.204959
670.264268	0.205290
670.468119	0.205486
670.671952	0.205939
670.875767	0.205914
671.079563	0.206141
671.283341	0.206185
671.487101	0.206534
671.690843	0.206534
671.894567	0.206676
672.098272	0.206596
672.301959	0.206660
672.505628	0.206725
672.709278	0.207163
672.912911	0.207440
673.116525	0.207709
673.320121	0.207606
673.523699	0.207862
673.727258	0.207910
673.930799	0.208111
674.134322	0.208236
674.337827	0.208250
674.541314	0.208339
674.744782	0.208420
674.948232	0.208396
675.151664	0.208572
675.355078	0.208463
675.558474	0.208953
675.761851	0.209101
675.965210	0.209418
676.168551	0.209649
676.371873	0.209580
676.575178	0.209720
676.778464	0.209944
676.981732	0.209959
677.184981	0.210304
677.388213	0.210271
677.591426	0.210501
677.794621	0.210517
677.997798	0.210715
678.200956	0.211011
678.404097	0.211032
678.607219	0.211244
678.810323	0.211813
679.013408	0.212176
679.216476	0.212552
679.419525	0.212865
679.622556	0.213147
679.825569	0.213544
680.028563	0.213602
680.231540	0.213871
680.434498	0.213967
680.637438	0.213947
680.840359	0.213869
681.043263	0.213777
681.246148	0.213664
681.449015	0.213635
681.651864	0.213417
681.854694	0.213632
682.057506	0.214037
682.260301	0.214088
682.463076	0.214129
682.665834	0.214330
682.868573	0.214604
683.071295	0.214840
683.273998	0.215387
683.476682	0.215641
683.679349	0.215841
683.881997	0.215980
684.084627	0.216288
684.287239	0.216658
684.489833	0.216729
684.692408	0.216611
684.894965	0.216915
685.097504	0.216609
685.300025	0.216814
685.502527	0.216986
685.705012	0.216992
685.907478	0.217153
686.109925	0.217250
686.312355	0.217413
686.514766	0.217832
686.717159	0.217815
686.919534	0.218183
687.121891	0.218137
687.324230	0.218169
687.526550	0.218105
687.728852	0.218039
687.931136	0.218025
688.133401	0.218120
688.335649	0.218111
688.537878	0.218150
688.740089	0.218252
688.942281	0.218455
689.144456	0.218510
689.346612	0.218681
689.548750	0.218853
689.750870	0.219086
689.952971	0.219082
690.155055	0.219397
690.357120	0.219819
690.559167	0.219840
690.761195	0.219911
690.963206	0.220031
691.165198	0.220400
691.367172	0.220512
691.569128	0.220532
691.771065	0.220810
691.972984	0.220818
692.174885	0.220941
692.376768	0.221136
692.578633	0.221132
692.780479	0.221300
692.982308	0.221125
693.184118	0.221325
693.385909	0.221373
