sample name	sample
index	458
start time	 03-11-2021  11:34:50 AM


Wavelength (nm)	Absorbance
494.344910	0.025993
494.563924	0.025993
494.782919	0.025993
495.001897	0.016381
495.220856	-0.010277
495.439797	-0.013411
495.658719	-0.038056
495.877624	-0.053003
496.096510	-0.054092
496.315378	-0.078184
496.534227	-0.054245
496.753059	-0.059039
496.971872	-0.028001
497.190667	0.113289
497.409444	0.134461
497.628203	0.143290
497.846943	0.146152
498.065665	0.145248
498.284369	0.146415
498.503055	0.146849
498.721723	0.145036
498.940372	0.144592
499.159003	0.144957
499.377616	0.145434
499.596210	0.145500
499.814787	0.145530
500.033345	0.146438
500.251885	0.146774
500.470406	0.148338
500.688910	0.150474
500.907395	0.150334
501.125862	0.150627
501.344311	0.149986
501.562742	0.149318
501.781154	0.149858
501.999548	0.149910
502.217924	0.149933
502.436282	0.149597
502.654621	0.148953
502.872942	0.149576
503.091245	0.149907
503.309530	0.150471
503.527797	0.150765
503.746045	0.150176
503.964275	0.150454
504.182487	0.151210
504.400681	0.151371
504.618856	0.151916
504.837013	0.152457
505.055152	0.152815
505.273273	0.152390
505.491376	0.152675
505.709460	0.152294
505.927526	0.152599
506.145574	0.152816
506.363604	0.152859
506.581615	0.153626
506.799608	0.154292
507.017583	0.154554
507.235540	0.155390
507.453478	0.156480
507.671399	0.157510
507.889301	0.157761
508.107185	0.157002
508.325050	0.156242
508.542898	0.156045
508.760727	0.154955
508.978538	0.154880
509.196330	0.155786
509.414105	0.155913
509.631861	0.156520
509.849599	0.156985
510.067319	0.157011
510.285021	0.157992
510.502704	0.158435
510.720369	0.159105
510.938016	0.159841
511.155645	0.159137
511.373255	0.158819
511.590848	0.158535
511.808422	0.158531
512.025977	0.159069
512.243515	0.159205
512.461034	0.159498
512.678536	0.159553
512.896018	0.159156
513.113483	0.159257
513.330930	0.159415
513.548358	0.160556
513.765768	0.160643
513.983160	0.161158
514.200533	0.160931
514.417889	0.160560
514.635226	0.160772
514.852545	0.160946
515.069845	0.161739
515.287128	0.162193
515.504392	0.161689
515.721638	0.162162
515.938866	0.162471
516.156075	0.162877
516.373267	0.163459
516.590440	0.163546
516.807594	0.164507
517.024731	0.164315
517.241850	0.163810
517.458950	0.163721
517.676032	0.164180
517.893095	0.164610
518.110141	0.164620
518.327168	0.165411
518.544177	0.165748
518.761168	0.165273
518.978141	0.165490
519.195095	0.166204
519.412031	0.166908
519.628949	0.166449
519.845849	0.166465
520.062731	0.166914
520.279594	0.166570
520.496439	0.167292
520.713266	0.167898
520.930074	0.168118
521.146865	0.168594
521.363637	0.168952
521.580391	0.169382
521.797127	0.169052
522.013844	0.169183
522.230543	0.169646
522.447224	0.169352
522.663887	0.169951
522.880532	0.170354
523.097158	0.170602
523.313766	0.170684
523.530356	0.170844
523.746928	0.171285
523.963481	0.171217
524.180017	0.171696
524.396534	0.171854
524.613032	0.171906
524.829513	0.171744
525.045975	0.171809
525.262420	0.171486
525.478845	0.171908
525.695253	0.172512
525.911643	0.172649
526.128014	0.172179
526.344367	0.172747
526.560702	0.172781
526.777018	0.173808
526.993316	0.174498
527.209597	0.175769
527.425858	0.175656
527.642102	0.176169
527.858328	0.177837
528.074535	0.178659
528.290724	0.179617
528.506894	0.180035
528.723047	0.180197
528.939181	0.180567
529.155297	0.180666
529.371395	0.181009
529.587475	0.181153
529.803536	0.180892
530.019579	0.181066
530.235604	0.180821
530.451611	0.181427
530.667600	0.181203
530.883570	0.181598
531.099522	0.182131
531.315456	0.182815
531.531372	0.183229
531.747269	0.183396
531.963148	0.183841
532.179009	0.183833
532.394852	0.184015
532.610676	0.184625
532.826482	0.183947
533.042271	0.183410
533.258040	0.184244
533.473792	0.184355
533.689525	0.184729
533.905240	0.184860
534.120937	0.185538
534.336616	0.185667
534.552277	0.185633
534.767919	0.186994
534.983543	0.188218
535.199149	0.188236
535.414736	0.188560
535.630306	0.188350
535.845857	0.189277
536.061390	0.189706
536.276904	0.189654
536.492401	0.190109
536.707879	0.189575
536.923339	0.189874
537.138781	0.189945
537.354204	0.190226
537.569610	0.190891
537.784997	0.190292
538.000366	0.190528
538.215716	0.190787
538.431049	0.191244
538.646363	0.191810
538.861659	0.191602
539.076937	0.192030
539.292196	0.191919
539.507438	0.192188
539.722661	0.193074
539.937866	0.193348
540.153052	0.193527
540.368221	0.193787
540.583371	0.194154
540.798503	0.195034
541.013617	0.195502
541.228712	0.196255
541.443789	0.196803
541.658848	0.196663
541.873889	0.196350
542.088912	0.196577
542.303916	0.196900
542.518902	0.197191
542.733870	0.197186
542.948820	0.196981
543.163752	0.197439
543.378665	0.197673
543.593560	0.198643
543.808437	0.199277
544.023295	0.200023
544.238136	0.200841
544.452958	0.200776
544.667762	0.201395
544.882548	0.201655
545.097315	0.201824
545.312064	0.202203
545.526795	0.202120
545.741508	0.202415
545.956203	0.202334
546.170879	0.201860
546.385537	0.202659
546.600177	0.202522
546.814799	0.203261
547.029402	0.203560
547.243988	0.203695
547.458555	0.204043
547.673103	0.204433
547.887634	0.204943
548.102146	0.205292
548.316640	0.204942
548.531116	0.205077
548.745574	0.205206
548.960013	0.205091
549.174435	0.204993
549.388838	0.204978
549.603222	0.205439
549.817589	0.205824
550.031937	0.205965
550.246267	0.206556
550.460579	0.206352
550.674873	0.206214
550.889148	0.206484
551.103405	0.206556
551.317644	0.206598
551.531865	0.206750
551.746068	0.206785
551.960252	0.207171
552.174418	0.207551
552.388566	0.208035
552.602696	0.208231
552.816807	0.208992
553.030900	0.209643
553.244975	0.210481
553.459032	0.210617
553.673070	0.210579
553.887091	0.210678
554.101093	0.210874
554.315077	0.211432
554.529042	0.211997
554.742990	0.211850
554.956919	0.212213
555.170830	0.211873
555.384722	0.212185
555.598597	0.212571
555.812453	0.213014
556.026291	0.213427
556.240111	0.212950
556.453913	0.213008
556.667696	0.213331
556.881461	0.213759
557.095208	0.214041
557.308937	0.214309
557.522647	0.214428
557.736339	0.214478
557.950013	0.214192
558.163669	0.214689
558.377307	0.214886
558.590926	0.214887
558.804527	0.214394
559.018110	0.214521
559.231675	0.214505
559.445221	0.214728
559.658749	0.215114
559.872259	0.215397
560.085751	0.215672
560.299225	0.215661
560.512680	0.215831
560.726117	0.216076
560.939536	0.216480
561.152937	0.217297
561.366319	0.217739
561.579683	0.218051
561.793029	0.218166
562.006357	0.218234
562.219667	0.218911
562.432958	0.219056
562.646231	0.219558
562.859486	0.219806
563.072723	0.219440
563.285941	0.219201
563.499141	0.218804
563.712323	0.218917
563.925487	0.219305
564.138632	0.218960
564.351760	0.219196
564.564869	0.219464
564.777960	0.219238
564.991032	0.219184
565.204087	0.219314
565.417123	0.219606
565.630141	0.219605
565.843140	0.219591
566.056122	0.220297
566.269085	0.220648
566.482030	0.220247
566.694957	0.220613
566.907866	0.220957
567.120756	0.221342
567.333628	0.221392
567.546482	0.222032
567.759318	0.222221
567.972135	0.221953
568.184935	0.221988
568.397716	0.222193
568.610478	0.222519
568.823223	0.222599
569.035949	0.222749
569.248657	0.223135
569.461347	0.223263
569.674019	0.223619
569.886672	0.223912
570.099308	0.224505
570.311925	0.224716
570.524523	0.224887
570.737104	0.225221
570.949666	0.225476
571.162210	0.225531
571.374736	0.225717
571.587244	0.225946
571.799733	0.225880
572.012205	0.225489
572.224658	0.226113
572.437092	0.226303
572.649509	0.226228
572.861907	0.226367
573.074287	0.226666
573.286649	0.226644
573.498993	0.226880
573.711318	0.226995
573.923625	0.227346
574.135914	0.227270
574.348185	0.227206
574.560438	0.227608
574.772672	0.227649
574.984888	0.227616
575.197086	0.227642
575.409266	0.227599
575.621427	0.227846
575.833570	0.227873
576.045695	0.227776
576.257802	0.227994
576.469890	0.227981
576.681961	0.228066
576.894013	0.228567
577.106046	0.228923
577.318062	0.228949
577.530059	0.229126
577.742039	0.229520
577.954000	0.230047
578.165942	0.230364
578.377867	0.230653
578.589773	0.231465
578.801661	0.231488
579.013531	0.231473
579.225382	0.231683
579.437216	0.232154
579.649031	0.232015
579.860828	0.232252
580.072606	0.232281
580.284367	0.232711
580.496109	0.232083
580.707833	0.232311
580.919539	0.232512
581.131227	0.232247
581.342896	0.232347
581.554547	0.232407
581.766180	0.232547
581.977795	0.232646
582.189391	0.232500
582.400969	0.232793
582.612529	0.232794
582.824071	0.233072
583.035595	0.233885
583.247100	0.234174
583.458587	0.234654
583.670056	0.234654
583.881506	0.234905
584.092939	0.234952
584.304353	0.235466
584.515749	0.235659
584.727127	0.235757
584.938486	0.236087
585.149828	0.236347
585.361151	0.236533
585.572456	0.236673
585.783742	0.237138
585.995011	0.237469
586.206261	0.237341
586.417493	0.237588
586.628706	0.237816
586.839902	0.237663
587.051079	0.237198
587.262238	0.237261
587.473379	0.237597
587.684502	0.237640
587.895606	0.237680
588.106692	0.237937
588.317760	0.238160
588.528810	0.238390
588.739841	0.238773
588.950855	0.239489
589.161850	0.239305
589.372827	0.239341
589.583785	0.239284
589.794726	0.239598
590.005648	0.239662
590.216552	0.239617
590.427437	0.239963
590.638305	0.239869
590.849154	0.239789
591.059985	0.240149
591.270798	0.240390
591.481592	0.240776
591.692369	0.241051
591.903127	0.241155
592.113867	0.241299
592.324588	0.241157
592.535292	0.241159
592.745977	0.241247
592.956644	0.241716
593.167293	0.241824
593.377923	0.241945
593.588536	0.241954
593.799130	0.242428
594.009706	0.242966
594.220263	0.243101
594.430803	0.243337
594.641324	0.243534
594.851827	0.243779
595.062312	0.244180
595.272778	0.244248
595.483227	0.244618
595.693657	0.245010
595.904069	0.245002
596.114462	0.245589
596.324838	0.245840
596.535195	0.246242
596.745534	0.246392
596.955855	0.246328
597.166157	0.246860
597.376441	0.246916
597.586707	0.247049
597.796955	0.247278
598.007185	0.247231
598.217396	0.247498
598.427589	0.247367
598.637764	0.247396
598.847921	0.247607
599.058060	0.247296
599.268180	0.247391
599.478282	0.247398
599.688366	0.247663
599.898431	0.247876
600.108479	0.248230
600.318508	0.248462
600.528519	0.248602
600.738511	0.249081
600.948486	0.249334
601.158442	0.249294
601.368380	0.249449
601.578300	0.249300
601.788202	0.249673
601.998085	0.249484
602.207950	0.249429
602.417797	0.249881
602.627626	0.249534
602.837436	0.249824
603.047228	0.249916
603.257002	0.250025
603.466758	0.250382
603.676496	0.250077
603.886215	0.250371
604.095916	0.250921
604.305599	0.250765
604.515264	0.251144
604.724910	0.251272
604.934538	0.251487
605.144148	0.251518
605.353740	0.251632
605.563314	0.251683
605.772869	0.251773
605.982406	0.252056
606.191925	0.252029
606.401425	0.251954
606.610908	0.252077
606.820372	0.252432
607.029818	0.252659
607.239246	0.252769
607.448655	0.252865
607.658047	0.253113
607.867420	0.253037
608.076775	0.253341
608.286111	0.253999
608.495430	0.254081
608.704730	0.253961
608.914012	0.253927
609.123275	0.253816
609.332521	0.253978
609.541748	0.253776
609.750957	0.253938
609.960148	0.254065
610.169321	0.254034
610.378475	0.254356
610.587611	0.254683
610.796729	0.254967
611.005829	0.255449
611.214910	0.256166
611.423974	0.256647
611.633019	0.257050
611.842045	0.257125
612.051054	0.256992
612.260044	0.257042
612.469017	0.257455
612.677970	0.257627
612.886906	0.257780
613.095824	0.257417
613.304723	0.257513
613.513604	0.257470
613.722467	0.257600
613.931311	0.257750
614.140138	0.257659
614.348946	0.257548
614.557736	0.257821
614.766507	0.257779
614.975261	0.258081
615.183996	0.258129
615.392713	0.258131
615.601412	0.258520
615.810092	0.258764
616.018754	0.259165
616.227399	0.259046
616.436024	0.259055
616.644632	0.259200
616.853222	0.259572
617.061793	0.259509
617.270346	0.259619
617.478880	0.259578
617.687397	0.259528
617.895895	0.259273
618.104375	0.259678
618.312837	0.259877
618.521281	0.260041
618.729706	0.260042
618.938113	0.260292
619.146502	0.260648
619.354873	0.260921
619.563226	0.261351
619.771560	0.261900
619.979876	0.262047
620.188174	0.262195
620.396453	0.262347
620.604715	0.262354
620.812958	0.263009
621.021183	0.262971
621.229390	0.263055
621.437578	0.263090
621.645748	0.263170
621.853900	0.263074
622.062034	0.263171
622.270150	0.263526
622.478247	0.263708
622.686326	0.263511
622.894387	0.263752
623.102430	0.263631
623.310454	0.263769
623.518461	0.263760
623.726449	0.263728
623.934418	0.263801
624.142370	0.263904
624.350303	0.263932
624.558218	0.263847
624.766115	0.263865
624.973994	0.264428
625.181855	0.264694
625.389697	0.264969
625.597521	0.265658
625.805327	0.265878
626.013114	0.265810
626.220883	0.266047
626.428634	0.266346
626.636367	0.266776
626.844082	0.266865
627.051778	0.266739
627.259457	0.266752
627.467117	0.266585
627.674758	0.267027
627.882382	0.267180
628.089987	0.267278
628.297574	0.267491
628.505143	0.267508
628.712694	0.267462
628.920226	0.267643
629.127740	0.267624
629.335236	0.268034
629.542714	0.267866
629.750174	0.268311
629.957615	0.268353
630.165038	0.268493
630.372443	0.268362
630.579829	0.268593
630.787198	0.268955
630.994548	0.269381
631.201880	0.269493
631.409194	0.269520
631.616489	0.269609
631.823766	0.270066
632.031025	0.270271
632.238266	0.270645
632.445489	0.270716
632.652693	0.270883
632.859879	0.270933
633.067047	0.270854
633.274197	0.271293
633.481329	0.271418
633.688442	0.271725
633.895537	0.271689
634.102614	0.271811
634.309672	0.271955
634.516713	0.272167
634.723735	0.272498
634.930739	0.272856
635.137724	0.272904
635.344692	0.273078
635.551641	0.272889
635.758572	0.273095
635.965485	0.273150
636.172379	0.273424
636.379256	0.273228
636.586114	0.273442
636.792954	0.273425
636.999775	0.273455
637.206579	0.273650
637.413364	0.273932
637.620131	0.274089
637.826880	0.274331
638.033610	0.274620
638.240323	0.275028
638.447017	0.275249
638.653692	0.275510
638.860350	0.275799
639.066990	0.275790
639.273611	0.275896
639.480214	0.276256
639.686798	0.276554
639.893365	0.276604
640.099913	0.276680
640.306443	0.276688
640.512955	0.276916
640.719449	0.277118
640.925924	0.277241
641.132381	0.277381
641.338820	0.277498
641.545241	0.277602
641.751644	0.277757
641.958028	0.277812
642.164394	0.278068
642.370742	0.277901
642.577071	0.277968
642.783383	0.278280
642.989676	0.278785
643.195951	0.279019
643.402207	0.279150
643.608446	0.279494
643.814666	0.279910
644.020868	0.279820
644.227052	0.280364
644.433218	0.280691
644.639365	0.280612
644.845494	0.280444
645.051605	0.280548
645.257698	0.280739
645.463772	0.280523
645.669828	0.280600
645.875866	0.280715
646.081886	0.280786
646.287888	0.280729
646.493871	0.281185
646.699836	0.281188
646.905783	0.281274
647.111712	0.281510
647.317622	0.281714
647.523514	0.281854
647.729388	0.282289
647.935244	0.282497
648.141082	0.282669
648.346901	0.282762
648.552702	0.283206
648.758485	0.283455
648.964250	0.283434
649.169996	0.283919
649.375724	0.284102
649.581434	0.284245
649.787126	0.284497
649.992800	0.284943
650.198455	0.285087
650.404092	0.285316
650.609711	0.285271
650.815311	0.285477
651.020894	0.285370
651.226458	0.285798
651.432004	0.285872
651.637532	0.286050
651.843041	0.285727
652.048532	0.285917
652.254006	0.285928
652.459460	0.286363
652.664897	0.286442
652.870315	0.286623
653.075716	0.286749
653.281097	0.287096
653.486461	0.287379
653.691807	0.287971
653.897134	0.288296
654.102443	0.288887
654.307734	0.289355
654.513006	0.289641
654.718261	0.290244
654.923497	0.290348
655.128715	0.290230
655.333915	0.290359
655.539096	0.290511
655.744259	0.290530
655.949404	0.290274
656.154531	0.290169
656.359640	0.290266
656.564730	0.290070
656.769802	0.289890
656.974856	0.290513
657.179892	0.290667
657.384909	0.290853
657.589908	0.290964
657.794889	0.291494
657.999852	0.291862
658.204797	0.292502
658.409723	0.292906
658.614631	0.293557
658.819521	0.293447
659.024393	0.293610
659.229246	0.293835
659.434081	0.294129
659.638898	0.294182
659.843697	0.294210
660.048478	0.294020
660.253240	0.294214
660.457984	0.294251
660.662710	0.294462
660.867417	0.294737
661.072107	0.295035
661.276778	0.295154
661.481431	0.295310
661.686066	0.295554
661.890682	0.295895
662.095281	0.295889
662.299861	0.295893
662.504422	0.296127
662.708966	0.296280
662.913491	0.296390
663.117999	0.296672
663.322488	0.296824
663.526958	0.296966
663.731411	0.297418
663.935845	0.297600
664.140261	0.298146
664.344659	0.298469
664.549038	0.298646
664.753400	0.298804
664.957743	0.298864
665.162068	0.299241
665.366375	0.299564
665.570663	0.299416
665.774933	0.299668
665.979185	0.299703
666.183419	0.299926
666.387635	0.300184
666.591832	0.300537
666.796011	0.300862
667.000172	0.300803
667.204315	0.300876
667.408439	0.301255
667.612545	0.301507
667.816634	0.301684
668.020703	0.301681
668.224755	0.301871
668.428788	0.302050
668.632803	0.302322
668.836800	0.302630
669.040779	0.302972
669.244739	0.302785
669.448681	0.303247
669.652605	0.303403
669.856511	0.303772
670.060399	0.304062
670.264268	0.304211
670.468119	0.304066
670.671952	0.304196
670.875767	0.304100
671.079563	0.304482
671.283341	0.304405
671.487101	0.304555
671.690843	0.304587
671.894567	0.304584
672.098272	0.304474
672.301959	0.304987
672.505628	0.305082
672.709278	0.305388
672.912911	0.305869
673.116525	0.306122
673.320121	0.306286
673.523699	0.306630
673.727258	0.306490
673.930799	0.306906
674.134322	0.307139
674.337827	0.307470
674.541314	0.307780
674.744782	0.308067
674.948232	0.308115
675.151664	0.308483
675.355078	0.308665
675.558474	0.309121
675.761851	0.309500
675.965210	0.309588
676.168551	0.309747
676.371873	0.309856
676.575178	0.309954
676.778464	0.310269
676.981732	0.310332
677.184981	0.310644
677.388213	0.311049
677.591426	0.311323
677.794621	0.311908
677.997798	0.312189
678.200956	0.312367
678.404097	0.312717
678.607219	0.312968
678.810323	0.313291
679.013408	0.313307
679.216476	0.313617
679.419525	0.313699
679.622556	0.313485
679.825569	0.313642
680.028563	0.313860
680.231540	0.313782
680.434498	0.314039
680.637438	0.314370
680.840359	0.314758
681.043263	0.314819
681.246148	0.314751
681.449015	0.314993
681.651864	0.315204
681.854694	0.315425
682.057506	0.315832
682.260301	0.316166
682.463076	0.316158
682.665834	0.316278
682.868573	0.316620
683.071295	0.317155
683.273998	0.317449
683.476682	0.317457
683.679349	0.317732
683.881997	0.317582
684.084627	0.317518
684.287239	0.317939
684.489833	0.318060
684.692408	0.318015
684.894965	0.318024
685.097504	0.318114
685.300025	0.318454
685.502527	0.318649
685.705012	0.318846
685.907478	0.318999
686.109925	0.319043
686.312355	0.319405
686.514766	0.319501
686.717159	0.319616
686.919534	0.319842
687.121891	0.320121
687.324230	0.320172
687.526550	0.320430
687.728852	0.320480
687.931136	0.320771
688.133401	0.320840
688.335649	0.320926
688.537878	0.321135
688.740089	0.321394
688.942281	0.321439
689.144456	0.321719
689.346612	0.321829
689.548750	0.322287
689.750870	0.322477
689.952971	0.322541
690.155055	0.322866
690.357120	0.323101
690.559167	0.323076
690.761195	0.323249
690.963206	0.323355
691.165198	0.323630
691.367172	0.323636
691.569128	0.323544
691.771065	0.323784
691.972984	0.323643
692.174885	0.323807
692.376768	0.324138
692.578633	0.324311
692.780479	0.324400
692.982308	0.324342
693.184118	0.324551
693.385909	0.324848
