sample name	sample
index	545
start time	 03-15-2021  11:04:46 AM


Wavelength (nm)	Absorbance
494.344910	-0.139052
494.563924	-0.139052
494.782919	-0.139052
495.001897	-0.047951
495.220856	-0.045671
495.439797	-0.054133
495.658719	-0.023851
495.877624	0.007655
496.096510	-0.000753
496.315378	-0.051886
496.534227	-0.021395
496.753059	0.016190
496.971872	0.071859
497.190667	0.047317
497.409444	0.054473
497.628203	0.051770
497.846943	0.052552
498.065665	0.052462
498.284369	0.053381
498.503055	0.052673
498.721723	0.052753
498.940372	0.051603
499.159003	0.051751
499.377616	0.052360
499.596210	0.052923
499.814787	0.051590
500.033345	0.051275
500.251885	0.050489
500.470406	0.049906
500.688910	0.049944
500.907395	0.050090
501.125862	0.050023
501.344311	0.048367
501.562742	0.047605
501.781154	0.048975
501.999548	0.050065
502.217924	0.051826
502.436282	0.052150
502.654621	0.052709
502.872942	0.053064
503.091245	0.053504
503.309530	0.053979
503.527797	0.055572
503.746045	0.055202
503.964275	0.054119
504.182487	0.052497
504.400681	0.052987
504.618856	0.052525
504.837013	0.052885
505.055152	0.052890
505.273273	0.052956
505.491376	0.052017
505.709460	0.052380
505.927526	0.052596
506.145574	0.053358
506.363604	0.053604
506.581615	0.054118
506.799608	0.053694
507.017583	0.053334
507.235540	0.053299
507.453478	0.053368
507.671399	0.052651
507.889301	0.053621
508.107185	0.053004
508.325050	0.053596
508.542898	0.053911
508.760727	0.052667
508.978538	0.052570
509.196330	0.053122
509.414105	0.052869
509.631861	0.054087
509.849599	0.053654
510.067319	0.054064
510.285021	0.053766
510.502704	0.053811
510.720369	0.054411
510.938016	0.054699
511.155645	0.055046
511.373255	0.054753
511.590848	0.053915
511.808422	0.052857
512.025977	0.052943
512.243515	0.052939
512.461034	0.052962
512.678536	0.054351
512.896018	0.054085
513.113483	0.053699
513.330930	0.054315
513.548358	0.055750
513.765768	0.056846
513.983160	0.057427
514.200533	0.057177
514.417889	0.056567
514.635226	0.056019
514.852545	0.056404
515.069845	0.056365
515.287128	0.055818
515.504392	0.055011
515.721638	0.055165
515.938866	0.054673
516.156075	0.054716
516.373267	0.055415
516.590440	0.055802
516.807594	0.055518
517.024731	0.055503
517.241850	0.056291
517.458950	0.055708
517.676032	0.055602
517.893095	0.055787
518.110141	0.056701
518.327168	0.056769
518.544177	0.056446
518.761168	0.057172
518.978141	0.057799
519.195095	0.058123
519.412031	0.058311
519.628949	0.059468
519.845849	0.059378
520.062731	0.058887
520.279594	0.058644
520.496439	0.059102
520.713266	0.059691
520.930074	0.059958
521.146865	0.059449
521.363637	0.060465
521.580391	0.060568
521.797127	0.060943
522.013844	0.061335
522.230543	0.061590
522.447224	0.061561
522.663887	0.060942
522.880532	0.060850
523.097158	0.061565
523.313766	0.060461
523.530356	0.060116
523.746928	0.060342
523.963481	0.060761
524.180017	0.060843
524.396534	0.061716
524.613032	0.062027
524.829513	0.062716
525.045975	0.063038
525.262420	0.064113
525.478845	0.064161
525.695253	0.064702
525.911643	0.064500
526.128014	0.065140
526.344367	0.064871
526.560702	0.065397
526.777018	0.065556
526.993316	0.065719
527.209597	0.065416
527.425858	0.065265
527.642102	0.064536
527.858328	0.064716
528.074535	0.064203
528.290724	0.064162
528.506894	0.063484
528.723047	0.063276
528.939181	0.062807
529.155297	0.063698
529.371395	0.063961
529.587475	0.064567
529.803536	0.064822
530.019579	0.065418
530.235604	0.065518
530.451611	0.066029
530.667600	0.066071
530.883570	0.066883
531.099522	0.066867
531.315456	0.067221
531.531372	0.067631
531.747269	0.067528
531.963148	0.067296
532.179009	0.067633
532.394852	0.067763
532.610676	0.067817
532.826482	0.067664
533.042271	0.067503
533.258040	0.067704
533.473792	0.067127
533.689525	0.066975
533.905240	0.067553
534.120937	0.067501
534.336616	0.067696
534.552277	0.068081
534.767919	0.068299
534.983543	0.068472
535.199149	0.068711
535.414736	0.069603
535.630306	0.070170
535.845857	0.070594
536.061390	0.070814
536.276904	0.071114
536.492401	0.070889
536.707879	0.071257
536.923339	0.072125
537.138781	0.072294
537.354204	0.072846
537.569610	0.073636
537.784997	0.073179
538.000366	0.073320
538.215716	0.073839
538.431049	0.073940
538.646363	0.074025
538.861659	0.073447
539.076937	0.073686
539.292196	0.073583
539.507438	0.073064
539.722661	0.073393
539.937866	0.073688
540.153052	0.073675
540.368221	0.074573
540.583371	0.074832
540.798503	0.075113
541.013617	0.074821
541.228712	0.074705
541.443789	0.075085
541.658848	0.075679
541.873889	0.076124
542.088912	0.076010
542.303916	0.075990
542.518902	0.075801
542.733870	0.076196
542.948820	0.076786
543.163752	0.077105
543.378665	0.076989
543.593560	0.076878
543.808437	0.076923
544.023295	0.076556
544.238136	0.076343
544.452958	0.076479
544.667762	0.076094
544.882548	0.075559
545.097315	0.075450
545.312064	0.075462
545.526795	0.075547
545.741508	0.076067
545.956203	0.076752
546.170879	0.076854
546.385537	0.077602
546.600177	0.078267
546.814799	0.078865
547.029402	0.078899
547.243988	0.079284
547.458555	0.079426
547.673103	0.078954
547.887634	0.078776
548.102146	0.079233
548.316640	0.078782
548.531116	0.078739
548.745574	0.078973
548.960013	0.078896
549.174435	0.078759
549.388838	0.079036
549.603222	0.079487
549.817589	0.079897
550.031937	0.079768
550.246267	0.079910
550.460579	0.080099
550.674873	0.079701
550.889148	0.080033
551.103405	0.080563
551.317644	0.079994
551.531865	0.080071
551.746068	0.080372
551.960252	0.080985
552.174418	0.081397
552.388566	0.081371
552.602696	0.082457
552.816807	0.083048
553.030900	0.082977
553.244975	0.083681
553.459032	0.083348
553.673070	0.083775
553.887091	0.083541
554.101093	0.084025
554.315077	0.084233
554.529042	0.083787
554.742990	0.083702
554.956919	0.083719
555.170830	0.083682
555.384722	0.084158
555.598597	0.083767
555.812453	0.083650
556.026291	0.083584
556.240111	0.083467
556.453913	0.083390
556.667696	0.083164
556.881461	0.083350
557.095208	0.083703
557.308937	0.083649
557.522647	0.083621
557.736339	0.084051
557.950013	0.083858
558.163669	0.084339
558.377307	0.084632
558.590926	0.084832
558.804527	0.085006
559.018110	0.085196
559.231675	0.085423
559.445221	0.085843
559.658749	0.085871
559.872259	0.085963
560.085751	0.085946
560.299225	0.086217
560.512680	0.086597
560.726117	0.086559
560.939536	0.086381
561.152937	0.086558
561.366319	0.086562
561.579683	0.086350
561.793029	0.086514
562.006357	0.086564
562.219667	0.086039
562.432958	0.085765
562.646231	0.085458
562.859486	0.085287
563.072723	0.085137
563.285941	0.085141
563.499141	0.085217
563.712323	0.085225
563.925487	0.085166
564.138632	0.085841
564.351760	0.086000
564.564869	0.086628
564.777960	0.087034
564.991032	0.087343
565.204087	0.087370
565.417123	0.087573
565.630141	0.087407
565.843140	0.087364
566.056122	0.087027
566.269085	0.087203
566.482030	0.086955
566.694957	0.086808
566.907866	0.087040
567.120756	0.086958
567.333628	0.086929
567.546482	0.087132
567.759318	0.087375
567.972135	0.087822
568.184935	0.088090
568.397716	0.088653
568.610478	0.088800
568.823223	0.088198
569.035949	0.088407
569.248657	0.088400
569.461347	0.088786
569.674019	0.088770
569.886672	0.088694
570.099308	0.088544
570.311925	0.088692
570.524523	0.088964
570.737104	0.089687
570.949666	0.089847
571.162210	0.090251
571.374736	0.089738
571.587244	0.089768
571.799733	0.089816
572.012205	0.089926
572.224658	0.089745
572.437092	0.089561
572.649509	0.089713
572.861907	0.089571
573.074287	0.089726
573.286649	0.089955
573.498993	0.090203
573.711318	0.090189
573.923625	0.090268
574.135914	0.090218
574.348185	0.090032
574.560438	0.089902
574.772672	0.090042
574.984888	0.089856
575.197086	0.089859
575.409266	0.089963
575.621427	0.089989
575.833570	0.090116
576.045695	0.089995
576.257802	0.090401
576.469890	0.090384
576.681961	0.090538
576.894013	0.090925
577.106046	0.091541
577.318062	0.091861
577.530059	0.092080
577.742039	0.092326
577.954000	0.092683
578.165942	0.092499
578.377867	0.092673
578.589773	0.093005
578.801661	0.093040
579.013531	0.092790
579.225382	0.092685
579.437216	0.092666
579.649031	0.092662
579.860828	0.092905
580.072606	0.093128
580.284367	0.093217
580.496109	0.093000
580.707833	0.092813
580.919539	0.092808
581.131227	0.092616
581.342896	0.092778
581.554547	0.092792
581.766180	0.093161
581.977795	0.093498
582.189391	0.093690
582.400969	0.093987
582.612529	0.094580
582.824071	0.094847
583.035595	0.094842
583.247100	0.094730
583.458587	0.094814
583.670056	0.094666
583.881506	0.094982
584.092939	0.094630
584.304353	0.094879
584.515749	0.094756
584.727127	0.094834
584.938486	0.095581
585.149828	0.095542
585.361151	0.095807
585.572456	0.095705
585.783742	0.095471
585.995011	0.095905
586.206261	0.095737
586.417493	0.095681
586.628706	0.095928
586.839902	0.095274
587.051079	0.095764
587.262238	0.095431
587.473379	0.095543
587.684502	0.095758
587.895606	0.095697
588.106692	0.095763
588.317760	0.095977
588.528810	0.095967
588.739841	0.096029
588.950855	0.095941
589.161850	0.095941
589.372827	0.096014
589.583785	0.095711
589.794726	0.095711
590.005648	0.095766
590.216552	0.095899
590.427437	0.095800
590.638305	0.096262
590.849154	0.096237
591.059985	0.096887
591.270798	0.096971
591.481592	0.097217
591.692369	0.097099
591.903127	0.097024
592.113867	0.096934
592.324588	0.096975
592.535292	0.097010
592.745977	0.097278
592.956644	0.097109
593.167293	0.097187
593.377923	0.097238
593.588536	0.097581
593.799130	0.097848
594.009706	0.098065
594.220263	0.098421
594.430803	0.098935
594.641324	0.099029
594.851827	0.099296
595.062312	0.099426
595.272778	0.099932
595.483227	0.099885
595.693657	0.100056
595.904069	0.099876
596.114462	0.099490
596.324838	0.099196
596.535195	0.099672
596.745534	0.099615
596.955855	0.100026
597.166157	0.099847
597.376441	0.099879
597.586707	0.099809
597.796955	0.099747
598.007185	0.100165
598.217396	0.100257
598.427589	0.100378
598.637764	0.100411
598.847921	0.100245
599.058060	0.100219
599.268180	0.100413
599.478282	0.100575
599.688366	0.101048
599.898431	0.101177
600.108479	0.101371
600.318508	0.101169
600.528519	0.101217
600.738511	0.101006
600.948486	0.100990
601.158442	0.101336
601.368380	0.101324
601.578300	0.101031
601.788202	0.101326
601.998085	0.101135
602.207950	0.100994
602.417797	0.101223
602.627626	0.101474
602.837436	0.101570
603.047228	0.101649
603.257002	0.102220
603.466758	0.102502
603.676496	0.102383
603.886215	0.102710
604.095916	0.102964
604.305599	0.103196
604.515264	0.103404
604.724910	0.103702
604.934538	0.103535
605.144148	0.102725
605.353740	0.103036
605.563314	0.103092
605.772869	0.102878
605.982406	0.102826
606.191925	0.102673
606.401425	0.102658
606.610908	0.102630
606.820372	0.102526
607.029818	0.103139
607.239246	0.102922
607.448655	0.102891
607.658047	0.103228
607.867420	0.103208
608.076775	0.103022
608.286111	0.102866
608.495430	0.103093
608.704730	0.103217
608.914012	0.103305
609.123275	0.103629
609.332521	0.103716
609.541748	0.103842
609.750957	0.104194
609.960148	0.104594
610.169321	0.104687
610.378475	0.104660
610.587611	0.105370
610.796729	0.105174
611.005829	0.105248
611.214910	0.105482
611.423974	0.105509
611.633019	0.105280
611.842045	0.105216
612.051054	0.105133
612.260044	0.104889
612.469017	0.104723
612.677970	0.104994
612.886906	0.104721
613.095824	0.104807
613.304723	0.104763
613.513604	0.105238
613.722467	0.105374
613.931311	0.105855
614.140138	0.106271
614.348946	0.106177
614.557736	0.106678
614.766507	0.107108
614.975261	0.107225
615.183996	0.107655
615.392713	0.107406
615.601412	0.107579
615.810092	0.107590
616.018754	0.107637
616.227399	0.107435
616.436024	0.107353
616.644632	0.107340
616.853222	0.107134
617.061793	0.106736
617.270346	0.106907
617.478880	0.106756
617.687397	0.106690
617.895895	0.106585
618.104375	0.107127
618.312837	0.106628
618.521281	0.106566
618.729706	0.106461
618.938113	0.106566
619.146502	0.106555
619.354873	0.106603
619.563226	0.106804
619.771560	0.107171
619.979876	0.107065
620.188174	0.107439
620.396453	0.107590
620.604715	0.107832
620.812958	0.107931
621.021183	0.107948
621.229390	0.108320
621.437578	0.108287
621.645748	0.108001
621.853900	0.108099
622.062034	0.107901
622.270150	0.107900
622.478247	0.108062
622.686326	0.108100
622.894387	0.108324
623.102430	0.108204
623.310454	0.108439
623.518461	0.108976
623.726449	0.108919
623.934418	0.109306
624.142370	0.109395
624.350303	0.109619
624.558218	0.109675
624.766115	0.109598
624.973994	0.109444
625.181855	0.109378
625.389697	0.109399
625.597521	0.109426
625.805327	0.109473
626.013114	0.109710
626.220883	0.109647
626.428634	0.109880
626.636367	0.110373
626.844082	0.110695
627.051778	0.111080
627.259457	0.111061
627.467117	0.111303
627.674758	0.111587
627.882382	0.111576
628.089987	0.111500
628.297574	0.111508
628.505143	0.111359
628.712694	0.111311
628.920226	0.111214
629.127740	0.111307
629.335236	0.111685
629.542714	0.111621
629.750174	0.111832
629.957615	0.112306
630.165038	0.112599
630.372443	0.112778
630.579829	0.113308
630.787198	0.113416
630.994548	0.113650
631.201880	0.113485
631.409194	0.113552
631.616489	0.113337
631.823766	0.113365
632.031025	0.113327
632.238266	0.113434
632.445489	0.113300
632.652693	0.113366
632.859879	0.113277
633.067047	0.113454
633.274197	0.113507
633.481329	0.113993
633.688442	0.114198
633.895537	0.114227
634.102614	0.114170
634.309672	0.114251
634.516713	0.114349
634.723735	0.114455
634.930739	0.114546
635.137724	0.114793
635.344692	0.114538
635.551641	0.114450
635.758572	0.114555
635.965485	0.114466
636.172379	0.114621
636.379256	0.114686
636.586114	0.114691
636.792954	0.114710
636.999775	0.114741
637.206579	0.114956
637.413364	0.115207
637.620131	0.115632
637.826880	0.116061
638.033610	0.115989
638.240323	0.116168
638.447017	0.116454
638.653692	0.116749
638.860350	0.117140
639.066990	0.117262
639.273611	0.117174
639.480214	0.117114
639.686798	0.117090
639.893365	0.117301
640.099913	0.117425
640.306443	0.117597
640.512955	0.117570
640.719449	0.117562
640.925924	0.117799
641.132381	0.118087
641.338820	0.118087
641.545241	0.118438
641.751644	0.118662
641.958028	0.118754
642.164394	0.118781
642.370742	0.118911
642.577071	0.118851
642.783383	0.118880
642.989676	0.118985
643.195951	0.119205
643.402207	0.119207
643.608446	0.119407
643.814666	0.119483
644.020868	0.119715
644.227052	0.119878
644.433218	0.120034
644.639365	0.120065
644.845494	0.120200
645.051605	0.120384
645.257698	0.120390
645.463772	0.120247
645.669828	0.120283
645.875866	0.120233
646.081886	0.120097
646.287888	0.120243
646.493871	0.120342
646.699836	0.120206
646.905783	0.120059
647.111712	0.120303
647.317622	0.120580
647.523514	0.120891
647.729388	0.120770
647.935244	0.121034
648.141082	0.121061
648.346901	0.121386
648.552702	0.121541
648.758485	0.122025
648.964250	0.122149
649.169996	0.122328
649.375724	0.122327
649.581434	0.122566
649.787126	0.122669
649.992800	0.122781
650.198455	0.122593
650.404092	0.122438
650.609711	0.122490
650.815311	0.122600
651.020894	0.122570
651.226458	0.122590
651.432004	0.122857
651.637532	0.122934
651.843041	0.123206
652.048532	0.123482
652.254006	0.124031
652.459460	0.124198
652.664897	0.124250
652.870315	0.124393
653.075716	0.124670
653.281097	0.124666
653.486461	0.124921
653.691807	0.124893
653.897134	0.125128
654.102443	0.125121
654.307734	0.125011
654.513006	0.125019
654.718261	0.125038
654.923497	0.125010
655.128715	0.125235
655.333915	0.125271
655.539096	0.125448
655.744259	0.125517
655.949404	0.125792
656.154531	0.126005
656.359640	0.126045
656.564730	0.126003
656.769802	0.126281
656.974856	0.126317
657.179892	0.126363
657.384909	0.126349
657.589908	0.126265
657.794889	0.126198
657.999852	0.126187
658.204797	0.126418
658.409723	0.126685
658.614631	0.126689
658.819521	0.126736
659.024393	0.126869
659.229246	0.127009
659.434081	0.127389
659.638898	0.127552
659.843697	0.127709
660.048478	0.128049
660.253240	0.128314
660.457984	0.128433
660.662710	0.128707
660.867417	0.128734
661.072107	0.128806
661.276778	0.129031
661.481431	0.129128
661.686066	0.129475
661.890682	0.129550
662.095281	0.129856
662.299861	0.129961
662.504422	0.130017
662.708966	0.130126
662.913491	0.130416
663.117999	0.130648
663.322488	0.130765
663.526958	0.130632
663.731411	0.130661
663.935845	0.130542
664.140261	0.130575
664.344659	0.130717
664.549038	0.130903
664.753400	0.130972
664.957743	0.130807
665.162068	0.130985
665.366375	0.131277
665.570663	0.131532
665.774933	0.131695
665.979185	0.131942
666.183419	0.132194
666.387635	0.132471
666.591832	0.132694
666.796011	0.132716
667.000172	0.132849
667.204315	0.132991
667.408439	0.133194
667.612545	0.133227
667.816634	0.133618
668.020703	0.133719
668.224755	0.133698
668.428788	0.133823
668.632803	0.134074
668.836800	0.134370
669.040779	0.134571
669.244739	0.134538
669.448681	0.134770
669.652605	0.134609
669.856511	0.134766
670.060399	0.135200
670.264268	0.135142
670.468119	0.135269
670.671952	0.135257
670.875767	0.134975
671.079563	0.135061
671.283341	0.135183
671.487101	0.135333
671.690843	0.135399
671.894567	0.135404
672.098272	0.135743
672.301959	0.135752
672.505628	0.135759
672.709278	0.136424
672.912911	0.136467
673.116525	0.136587
673.320121	0.136776
673.523699	0.136808
673.727258	0.136977
673.930799	0.137266
674.134322	0.137652
674.337827	0.137918
674.541314	0.137729
674.744782	0.137982
674.948232	0.138023
675.151664	0.138302
675.355078	0.138361
675.558474	0.138289
675.761851	0.138185
675.965210	0.138259
676.168551	0.138306
676.371873	0.138454
676.575178	0.138529
676.778464	0.138628
676.981732	0.138463
677.184981	0.139027
677.388213	0.139278
677.591426	0.139479
677.794621	0.139437
677.997798	0.139531
678.200956	0.139654
678.404097	0.139845
678.607219	0.140110
678.810323	0.140312
679.013408	0.139973
679.216476	0.139956
679.419525	0.139837
679.622556	0.139934
679.825569	0.140142
680.028563	0.140300
680.231540	0.140489
680.434498	0.140347
680.637438	0.140398
680.840359	0.140599
681.043263	0.140655
681.246148	0.140896
681.449015	0.141162
681.651864	0.141226
681.854694	0.141312
682.057506	0.141188
682.260301	0.141379
682.463076	0.141513
682.665834	0.141730
682.868573	0.141970
683.071295	0.141927
683.273998	0.141784
683.476682	0.141900
683.679349	0.141837
683.881997	0.141713
684.084627	0.141856
684.287239	0.141943
684.489833	0.141775
684.692408	0.141837
684.894965	0.142159
685.097504	0.142400
685.300025	0.142417
685.502527	0.142601
685.705012	0.142989
685.907478	0.143099
686.109925	0.143258
686.312355	0.143694
686.514766	0.143865
686.717159	0.143714
686.919534	0.143710
687.121891	0.144029
687.324230	0.144163
687.526550	0.144288
687.728852	0.144588
687.931136	0.144789
688.133401	0.144777
688.335649	0.144964
688.537878	0.145268
688.740089	0.145610
688.942281	0.145647
689.144456	0.145730
689.346612	0.145776
689.548750	0.145678
689.750870	0.145585
689.952971	0.145688
690.155055	0.145592
690.357120	0.145544
690.559167	0.145441
690.761195	0.145255
690.963206	0.145370
691.165198	0.145360
691.367172	0.145284
691.569128	0.145340
691.771065	0.145400
691.972984	0.145577
692.174885	0.145616
692.376768	0.145739
692.578633	0.145934
692.780479	0.145896
692.982308	0.146119
693.184118	0.146214
693.385909	0.146386
