sample name	sample
index	211
start time	 02-22-2021  09:54:42 AM


Wavelength (nm)	Absorbance
494.344910	-0.013796
494.563924	-0.013796
494.782919	-0.013796
495.001897	-0.096462
495.220856	-0.023878
495.439797	-0.027939
495.658719	-0.034860
495.877624	-0.031576
496.096510	-0.025502
496.315378	-0.016681
496.534227	-0.029559
496.753059	-0.031425
496.971872	-0.025406
497.190667	0.069168
497.409444	0.119298
497.628203	0.132807
497.846943	0.138614
498.065665	0.142199
498.284369	0.143743
498.503055	0.146158
498.721723	0.147619
498.940372	0.149665
499.159003	0.150658
499.377616	0.149312
499.596210	0.149220
499.814787	0.148503
500.033345	0.148373
500.251885	0.149490
500.470406	0.149176
500.688910	0.149151
500.907395	0.148500
501.125862	0.149257
501.344311	0.150415
501.562742	0.151458
501.781154	0.152939
501.999548	0.153876
502.217924	0.153029
502.436282	0.153366
502.654621	0.154963
502.872942	0.155045
503.091245	0.154206
503.309530	0.154453
503.527797	0.154069
503.746045	0.153873
503.964275	0.154690
504.182487	0.155585
504.400681	0.155860
504.618856	0.155873
504.837013	0.156831
505.055152	0.157872
505.273273	0.157151
505.491376	0.158027
505.709460	0.158794
505.927526	0.158369
506.145574	0.158593
506.363604	0.159642
506.581615	0.158806
506.799608	0.158681
507.017583	0.158772
507.235540	0.159567
507.453478	0.159897
507.671399	0.158837
507.889301	0.158564
508.107185	0.158384
508.325050	0.157552
508.542898	0.158290
508.760727	0.158759
508.978538	0.159394
509.196330	0.158876
509.414105	0.157873
509.631861	0.158455
509.849599	0.158979
510.067319	0.158958
510.285021	0.159915
510.502704	0.158819
510.720369	0.157906
510.938016	0.157187
511.155645	0.157284
511.373255	0.157829
511.590848	0.158059
511.808422	0.157866
512.025977	0.158470
512.243515	0.158293
512.461034	0.159455
512.678536	0.161673
512.896018	0.162616
513.113483	0.162105
513.330930	0.162591
513.548358	0.163522
513.765768	0.165062
513.983160	0.165544
514.200533	0.165079
514.417889	0.165402
514.635226	0.164061
514.852545	0.163841
515.069845	0.164954
515.287128	0.164908
515.504392	0.165063
515.721638	0.164009
515.938866	0.163330
516.156075	0.164064
516.373267	0.164238
516.590440	0.165015
516.807594	0.166270
517.024731	0.166318
517.241850	0.166613
517.458950	0.166396
517.676032	0.166586
517.893095	0.166939
518.110141	0.166755
518.327168	0.167602
518.544177	0.167809
518.761168	0.167752
518.978141	0.168688
519.195095	0.169027
519.412031	0.169260
519.628949	0.170675
519.845849	0.171614
520.062731	0.172770
520.279594	0.172685
520.496439	0.173159
520.713266	0.172756
520.930074	0.172939
521.146865	0.173587
521.363637	0.174080
521.580391	0.173664
521.797127	0.174415
522.013844	0.174397
522.230543	0.174300
522.447224	0.174715
522.663887	0.175865
522.880532	0.176244
523.097158	0.176030
523.313766	0.176189
523.530356	0.176492
523.746928	0.176739
523.963481	0.176762
524.180017	0.177405
524.396534	0.177294
524.613032	0.177005
524.829513	0.177174
525.045975	0.178055
525.262420	0.179477
525.478845	0.180038
525.695253	0.180533
525.911643	0.181201
526.128014	0.181408
526.344367	0.181818
526.560702	0.182523
526.777018	0.182635
526.993316	0.182252
527.209597	0.181155
527.425858	0.181307
527.642102	0.180295
527.858328	0.180800
528.074535	0.181347
528.290724	0.181489
528.506894	0.182109
528.723047	0.182554
528.939181	0.183605
529.155297	0.184439
529.371395	0.184802
529.587475	0.186210
529.803536	0.186839
530.019579	0.186711
530.235604	0.187859
530.451611	0.187650
530.667600	0.187298
530.883570	0.186632
531.099522	0.186887
531.315456	0.186795
531.531372	0.186626
531.747269	0.186793
531.963148	0.187121
532.179009	0.186811
532.394852	0.187611
532.610676	0.189331
532.826482	0.190341
533.042271	0.191381
533.258040	0.192607
533.473792	0.193120
533.689525	0.193076
533.905240	0.193468
534.120937	0.193999
534.336616	0.194150
534.552277	0.193908
534.767919	0.194087
534.983543	0.193528
535.199149	0.193210
535.414736	0.193803
535.630306	0.193598
535.845857	0.194524
536.061390	0.194566
536.276904	0.195236
536.492401	0.195073
536.707879	0.195055
536.923339	0.195533
537.138781	0.195802
537.354204	0.195924
537.569610	0.196746
537.784997	0.196951
538.000366	0.197227
538.215716	0.196988
538.431049	0.197928
538.646363	0.198432
538.861659	0.199202
539.076937	0.199660
539.292196	0.199838
539.507438	0.200027
539.722661	0.200183
539.937866	0.200865
540.153052	0.201130
540.368221	0.200994
540.583371	0.201476
540.798503	0.201917
541.013617	0.202070
541.228712	0.202757
541.443789	0.203363
541.658848	0.203702
541.873889	0.203870
542.088912	0.204062
542.303916	0.204416
542.518902	0.204895
542.733870	0.204974
542.948820	0.205001
543.163752	0.205335
543.378665	0.205871
543.593560	0.206313
543.808437	0.206320
544.023295	0.206876
544.238136	0.207624
544.452958	0.207845
544.667762	0.208003
544.882548	0.209077
545.097315	0.209071
545.312064	0.208893
545.526795	0.208932
545.741508	0.209381
545.956203	0.209627
546.170879	0.209605
546.385537	0.209597
546.600177	0.210015
546.814799	0.209390
547.029402	0.209798
547.243988	0.210288
547.458555	0.210899
547.673103	0.211193
547.887634	0.211807
548.102146	0.212254
548.316640	0.212614
548.531116	0.212463
548.745574	0.213369
548.960013	0.213328
549.174435	0.213544
549.388838	0.213917
549.603222	0.214666
549.817589	0.214701
550.031937	0.214869
550.246267	0.214873
550.460579	0.215091
550.674873	0.215487
550.889148	0.216114
551.103405	0.216159
551.317644	0.216453
551.531865	0.216370
551.746068	0.216538
551.960252	0.216850
552.174418	0.217291
552.388566	0.217727
552.602696	0.217371
552.816807	0.217260
553.030900	0.217682
553.244975	0.217547
553.459032	0.217572
553.673070	0.217879
553.887091	0.217726
554.101093	0.218430
554.315077	0.218430
554.529042	0.219149
554.742990	0.219333
554.956919	0.219574
555.170830	0.219990
555.384722	0.220374
555.598597	0.220828
555.812453	0.221419
556.026291	0.221174
556.240111	0.221647
556.453913	0.221779
556.667696	0.221942
556.881461	0.221988
557.095208	0.221977
557.308937	0.222195
557.522647	0.221706
557.736339	0.222024
557.950013	0.222317
558.163669	0.222754
558.377307	0.223298
558.590926	0.223822
558.804527	0.223947
559.018110	0.224136
559.231675	0.224526
559.445221	0.224835
559.658749	0.224938
559.872259	0.225230
560.085751	0.225431
560.299225	0.225223
560.512680	0.225356
560.726117	0.225606
560.939536	0.225685
561.152937	0.225648
561.366319	0.225978
561.579683	0.225863
561.793029	0.225947
562.006357	0.225671
562.219667	0.226053
562.432958	0.226083
562.646231	0.226660
562.859486	0.226719
563.072723	0.227001
563.285941	0.227662
563.499141	0.228106
563.712323	0.228510
563.925487	0.229014
564.138632	0.228697
564.351760	0.229362
564.564869	0.229468
564.777960	0.229951
564.991032	0.230151
565.204087	0.229888
565.417123	0.230361
565.630141	0.230553
565.843140	0.230731
566.056122	0.231281
566.269085	0.230944
566.482030	0.230836
566.694957	0.231363
566.907866	0.231662
567.120756	0.231732
567.333628	0.231526
567.546482	0.231700
567.759318	0.231770
567.972135	0.231846
568.184935	0.232074
568.397716	0.232543
568.610478	0.232704
568.823223	0.232560
569.035949	0.232652
569.248657	0.233168
569.461347	0.232952
569.674019	0.233245
569.886672	0.233239
570.099308	0.233582
570.311925	0.233411
570.524523	0.233281
570.737104	0.233536
570.949666	0.233974
571.162210	0.234090
571.374736	0.234456
571.587244	0.234765
571.799733	0.235111
572.012205	0.235030
572.224658	0.235639
572.437092	0.235778
572.649509	0.236203
572.861907	0.236134
573.074287	0.236270
573.286649	0.236655
573.498993	0.236742
573.711318	0.237193
573.923625	0.237785
574.135914	0.237604
574.348185	0.237502
574.560438	0.237680
574.772672	0.238286
574.984888	0.238044
575.197086	0.238229
575.409266	0.238692
575.621427	0.238851
575.833570	0.238716
576.045695	0.239124
576.257802	0.239499
576.469890	0.239314
576.681961	0.239521
576.894013	0.240151
577.106046	0.240101
577.318062	0.239957
577.530059	0.240011
577.742039	0.240437
577.954000	0.240297
578.165942	0.240863
578.377867	0.241376
578.589773	0.241081
578.801661	0.241174
579.013531	0.241530
579.225382	0.241564
579.437216	0.241744
579.649031	0.241609
579.860828	0.242112
580.072606	0.242112
580.284367	0.242203
580.496109	0.242623
580.707833	0.242680
580.919539	0.242989
581.131227	0.243275
581.342896	0.243710
581.554547	0.244078
581.766180	0.244280
581.977795	0.244616
582.189391	0.244746
582.400969	0.244773
582.612529	0.245091
582.824071	0.245063
583.035595	0.245321
583.247100	0.245342
583.458587	0.245624
583.670056	0.246093
583.881506	0.245962
584.092939	0.246806
584.304353	0.247328
584.515749	0.247504
584.727127	0.247609
584.938486	0.247855
585.149828	0.247839
585.361151	0.248120
585.572456	0.248027
585.783742	0.248308
585.995011	0.247740
586.206261	0.248081
586.417493	0.248496
586.628706	0.248761
586.839902	0.248784
587.051079	0.249274
587.262238	0.249424
587.473379	0.249950
587.684502	0.250117
587.895606	0.250395
588.106692	0.250780
588.317760	0.250794
588.528810	0.250956
588.739841	0.251087
588.950855	0.251049
589.161850	0.251282
589.372827	0.251116
589.583785	0.251304
589.794726	0.251846
590.005648	0.251603
590.216552	0.251820
590.427437	0.252235
590.638305	0.252569
590.849154	0.252969
591.059985	0.252854
591.270798	0.252932
591.481592	0.253176
591.692369	0.253010
591.903127	0.253239
592.113867	0.252974
592.324588	0.252856
592.535292	0.252892
592.745977	0.252978
592.956644	0.253435
593.167293	0.253883
593.377923	0.253736
593.588536	0.254128
593.799130	0.253834
594.009706	0.254117
594.220263	0.254512
594.430803	0.254980
594.641324	0.255333
594.851827	0.255346
595.062312	0.255334
595.272778	0.255670
595.483227	0.255569
595.693657	0.256335
595.904069	0.256362
596.114462	0.256960
596.324838	0.256844
596.535195	0.256758
596.745534	0.256857
596.955855	0.257314
597.166157	0.257750
597.376441	0.258338
597.586707	0.258363
597.796955	0.258664
598.007185	0.257999
598.217396	0.258298
598.427589	0.258715
598.637764	0.258813
598.847921	0.258713
599.058060	0.258425
599.268180	0.258599
599.478282	0.258786
599.688366	0.259173
599.898431	0.259646
600.108479	0.259654
600.318508	0.259673
600.528519	0.260020
600.738511	0.260218
600.948486	0.260762
601.158442	0.260756
601.368380	0.261186
601.578300	0.261387
601.788202	0.261717
601.998085	0.262158
602.207950	0.262282
602.417797	0.262384
602.627626	0.262459
602.837436	0.262773
603.047228	0.262736
603.257002	0.262899
603.466758	0.262789
603.676496	0.263053
603.886215	0.262929
604.095916	0.263196
604.305599	0.263530
604.515264	0.263767
604.724910	0.263795
604.934538	0.264085
605.144148	0.263780
605.353740	0.263969
605.563314	0.263860
605.772869	0.264198
605.982406	0.264316
606.191925	0.264335
606.401425	0.264581
606.610908	0.264630
606.820372	0.264900
607.029818	0.265218
607.239246	0.265547
607.448655	0.265720
607.658047	0.265549
607.867420	0.266056
608.076775	0.266209
608.286111	0.266315
608.495430	0.266232
608.704730	0.266251
608.914012	0.266626
609.123275	0.267021
609.332521	0.267102
609.541748	0.267246
609.750957	0.267385
609.960148	0.267704
610.169321	0.267418
610.378475	0.267661
610.587611	0.267726
610.796729	0.267719
611.005829	0.267425
611.214910	0.267483
611.423974	0.267769
611.633019	0.267405
611.842045	0.267243
612.051054	0.267779
612.260044	0.267779
612.469017	0.267927
612.677970	0.268171
612.886906	0.268383
613.095824	0.268708
613.304723	0.268935
613.513604	0.269064
613.722467	0.269230
613.931311	0.269272
614.140138	0.269690
614.348946	0.269844
614.557736	0.269759
614.766507	0.270416
614.975261	0.270589
615.183996	0.270568
615.392713	0.271143
615.601412	0.271397
615.810092	0.271571
616.018754	0.271643
616.227399	0.271929
616.436024	0.272444
616.644632	0.272482
616.853222	0.272671
617.061793	0.273086
617.270346	0.273000
617.478880	0.273048
617.687397	0.273202
617.895895	0.273513
618.104375	0.273425
618.312837	0.273124
618.521281	0.273119
618.729706	0.273180
618.938113	0.273245
619.146502	0.273347
619.354873	0.273644
619.563226	0.273769
619.771560	0.273974
619.979876	0.274034
620.188174	0.274147
620.396453	0.274358
620.604715	0.274526
620.812958	0.274682
621.021183	0.275027
621.229390	0.275337
621.437578	0.275303
621.645748	0.275222
621.853900	0.275355
622.062034	0.275865
622.270150	0.275922
622.478247	0.275937
622.686326	0.276069
622.894387	0.276036
623.102430	0.276075
623.310454	0.276229
623.518461	0.276457
623.726449	0.276759
623.934418	0.276939
624.142370	0.276929
624.350303	0.277343
624.558218	0.277405
624.766115	0.277554
624.973994	0.277545
625.181855	0.277836
625.389697	0.277862
625.597521	0.277951
625.805327	0.277992
626.013114	0.278213
626.220883	0.278497
626.428634	0.278543
626.636367	0.278705
626.844082	0.278934
627.051778	0.278918
627.259457	0.279237
627.467117	0.279455
627.674758	0.279559
627.882382	0.279676
628.089987	0.279693
628.297574	0.280031
628.505143	0.280030
628.712694	0.280333
628.920226	0.280620
629.127740	0.280582
629.335236	0.280693
629.542714	0.280867
629.750174	0.281062
629.957615	0.281060
630.165038	0.281234
630.372443	0.281355
630.579829	0.281407
630.787198	0.281590
630.994548	0.281814
631.201880	0.282058
631.409194	0.282162
631.616489	0.282136
631.823766	0.282181
632.031025	0.282286
632.238266	0.282662
632.445489	0.282677
632.652693	0.282722
632.859879	0.282956
633.067047	0.283297
633.274197	0.283428
633.481329	0.283829
633.688442	0.284265
633.895537	0.284368
634.102614	0.284356
634.309672	0.284707
634.516713	0.284964
634.723735	0.285148
634.930739	0.285061
635.137724	0.285147
635.344692	0.285111
635.551641	0.285134
635.758572	0.285535
635.965485	0.285708
636.172379	0.285817
636.379256	0.286073
636.586114	0.286314
636.792954	0.286482
636.999775	0.286849
637.206579	0.287048
637.413364	0.287342
637.620131	0.287485
637.826880	0.287759
638.033610	0.287749
638.240323	0.287811
638.447017	0.287823
638.653692	0.288160
638.860350	0.288110
639.066990	0.288350
639.273611	0.288384
639.480214	0.288581
639.686798	0.288757
639.893365	0.288984
640.099913	0.289276
640.306443	0.289574
640.512955	0.289553
640.719449	0.289677
640.925924	0.289818
641.132381	0.289948
641.338820	0.290224
641.545241	0.290395
641.751644	0.290760
641.958028	0.290811
642.164394	0.290846
642.370742	0.291077
642.577071	0.291398
642.783383	0.291565
642.989676	0.291806
643.195951	0.291876
643.402207	0.292001
643.608446	0.292101
643.814666	0.292469
644.020868	0.292824
644.227052	0.292980
644.433218	0.293140
644.639365	0.293228
644.845494	0.293289
645.051605	0.293567
645.257698	0.293753
645.463772	0.293983
645.669828	0.293944
645.875866	0.293912
646.081886	0.294183
646.287888	0.294154
646.493871	0.294463
646.699836	0.294716
646.905783	0.294711
647.111712	0.295106
647.317622	0.295086
647.523514	0.295341
647.729388	0.295705
647.935244	0.295882
648.141082	0.296468
648.346901	0.296615
648.552702	0.296784
648.758485	0.297245
648.964250	0.297394
649.169996	0.297767
649.375724	0.297817
649.581434	0.297837
649.787126	0.297810
649.992800	0.297824
650.198455	0.297882
650.404092	0.298260
650.609711	0.297906
650.815311	0.297812
651.020894	0.297716
651.226458	0.297905
651.432004	0.298253
651.637532	0.298467
651.843041	0.298474
652.048532	0.298569
652.254006	0.298575
652.459460	0.298796
652.664897	0.299138
652.870315	0.299587
653.075716	0.299673
653.281097	0.300028
653.486461	0.300221
653.691807	0.300548
653.897134	0.300969
654.102443	0.301245
654.307734	0.301552
654.513006	0.301615
654.718261	0.301747
654.923497	0.302168
655.128715	0.302027
655.333915	0.302249
655.539096	0.302525
655.744259	0.302605
655.949404	0.302792
656.154531	0.303081
656.359640	0.303645
656.564730	0.303777
656.769802	0.303988
656.974856	0.304163
657.179892	0.304405
657.384909	0.304399
657.589908	0.304690
657.794889	0.304507
657.999852	0.304803
658.204797	0.304877
658.409723	0.305278
658.614631	0.305245
658.819521	0.305492
659.024393	0.305858
659.229246	0.306229
659.434081	0.306470
659.638898	0.307001
659.843697	0.306991
660.048478	0.306890
660.253240	0.306762
660.457984	0.307387
660.662710	0.307407
660.867417	0.307703
661.072107	0.307834
661.276778	0.308201
661.481431	0.308513
661.686066	0.308717
661.890682	0.309009
662.095281	0.309459
662.299861	0.309627
662.504422	0.310361
662.708966	0.310284
662.913491	0.310680
663.117999	0.310592
663.322488	0.310479
663.526958	0.310884
663.731411	0.311055
663.935845	0.311410
664.140261	0.311507
664.344659	0.311310
664.549038	0.311611
664.753400	0.311648
664.957743	0.311951
665.162068	0.312321
665.366375	0.312271
665.570663	0.312503
665.774933	0.312616
665.979185	0.312741
666.183419	0.313293
666.387635	0.313645
666.591832	0.313763
666.796011	0.314262
667.000172	0.314517
667.204315	0.314752
667.408439	0.315062
667.612545	0.315006
667.816634	0.315265
668.020703	0.315092
668.224755	0.315397
668.428788	0.315618
668.632803	0.315604
668.836800	0.315831
669.040779	0.315875
669.244739	0.315817
669.448681	0.316048
669.652605	0.316323
669.856511	0.316574
670.060399	0.316344
670.264268	0.316758
670.468119	0.316885
670.671952	0.317119
670.875767	0.317440
671.079563	0.317866
671.283341	0.318036
671.487101	0.318071
671.690843	0.318362
671.894567	0.318566
672.098272	0.318909
672.301959	0.318842
672.505628	0.318940
672.709278	0.319294
672.912911	0.319420
673.116525	0.319561
673.320121	0.319660
673.523699	0.320153
673.727258	0.320594
673.930799	0.320557
674.134322	0.321151
674.337827	0.321113
674.541314	0.321418
674.744782	0.321470
674.948232	0.321781
675.151664	0.322362
675.355078	0.322170
675.558474	0.322289
675.761851	0.322644
675.965210	0.322815
676.168551	0.323221
676.371873	0.323298
676.575178	0.323757
676.778464	0.324310
676.981732	0.324329
677.184981	0.324691
677.388213	0.324785
677.591426	0.324822
677.794621	0.325199
677.997798	0.325630
678.200956	0.325915
678.404097	0.326110
678.607219	0.326021
678.810323	0.326178
679.013408	0.326352
679.216476	0.326778
679.419525	0.327050
679.622556	0.326963
679.825569	0.327128
680.028563	0.327155
680.231540	0.327346
680.434498	0.327643
680.637438	0.327741
680.840359	0.327873
681.043263	0.328050
681.246148	0.328223
681.449015	0.328432
681.651864	0.328701
681.854694	0.328936
682.057506	0.329166
682.260301	0.329280
682.463076	0.329470
682.665834	0.329742
682.868573	0.330175
683.071295	0.330307
683.273998	0.330568
683.476682	0.330510
683.679349	0.330783
683.881997	0.330902
684.084627	0.331214
684.287239	0.331660
684.489833	0.331697
684.692408	0.331817
684.894965	0.331793
685.097504	0.331977
685.300025	0.332564
685.502527	0.332675
685.705012	0.332977
685.907478	0.333102
686.109925	0.333070
686.312355	0.333353
686.514766	0.333343
686.717159	0.333971
686.919534	0.334262
687.121891	0.333981
687.324230	0.334286
687.526550	0.334471
687.728852	0.334640
687.931136	0.335078
688.133401	0.335295
688.335649	0.335502
688.537878	0.335478
688.740089	0.335841
688.942281	0.336394
689.144456	0.336513
689.346612	0.336560
689.548750	0.337015
689.750870	0.337314
689.952971	0.337448
690.155055	0.337685
690.357120	0.337810
690.559167	0.337913
690.761195	0.337889
690.963206	0.338231
691.165198	0.338443
691.367172	0.338444
691.569128	0.338537
691.771065	0.338849
691.972984	0.339037
692.174885	0.339393
692.376768	0.339417
692.578633	0.339667
692.780479	0.339829
692.982308	0.340209
693.184118	0.340203
693.385909	0.340230
