sample name	sample
index	727
start time	 03-25-2021  02:10:28 PM


Wavelength (nm)	Absorbance
494.344910	-0.681288
494.563924	-0.681288
494.782919	-0.681288
495.001897	NaN
495.220856	-0.229528
495.439797	-0.164008
495.658719	-0.114481
495.877624	-0.099266
496.096510	-0.134234
496.315378	-0.179188
496.534227	-0.166191
496.753059	-0.157586
496.971872	-0.086036
497.190667	0.082278
497.409444	0.091172
497.628203	0.093386
497.846943	0.096541
498.065665	0.097500
498.284369	0.096967
498.503055	0.097978
498.721723	0.098408
498.940372	0.098483
499.159003	0.099015
499.377616	0.099145
499.596210	0.098954
499.814787	0.098368
500.033345	0.097576
500.251885	0.098057
500.470406	0.097210
500.688910	0.097145
500.907395	0.097578
501.125862	0.096651
501.344311	0.097328
501.562742	0.097884
501.781154	0.099393
501.999548	0.100063
502.217924	0.099930
502.436282	0.100360
502.654621	0.099644
502.872942	0.099099
503.091245	0.098963
503.309530	0.097675
503.527797	0.097224
503.746045	0.096208
503.964275	0.096384
504.182487	0.097779
504.400681	0.097607
504.618856	0.097862
504.837013	0.097711
505.055152	0.098222
505.273273	0.099617
505.491376	0.099490
505.709460	0.100446
505.927526	0.100323
506.145574	0.100372
506.363604	0.100028
506.581615	0.100989
506.799608	0.101169
507.017583	0.100840
507.235540	0.099698
507.453478	0.100057
507.671399	0.098608
507.889301	0.098646
508.107185	0.098037
508.325050	0.099023
508.542898	0.098856
508.760727	0.098949
508.978538	0.098349
509.196330	0.099168
509.414105	0.099096
509.631861	0.099622
509.849599	0.099540
510.067319	0.099017
510.285021	0.098799
510.502704	0.099045
510.720369	0.099966
510.938016	0.101155
511.155645	0.101007
511.373255	0.101263
511.590848	0.101167
511.808422	0.101506
512.025977	0.101484
512.243515	0.101114
512.461034	0.100640
512.678536	0.099891
512.896018	0.100073
513.113483	0.099795
513.330930	0.099647
513.548358	0.100333
513.765768	0.099924
513.983160	0.100827
514.200533	0.101291
514.417889	0.101456
514.635226	0.101599
514.852545	0.100694
515.069845	0.100797
515.287128	0.100721
515.504392	0.100649
515.721638	0.101057
515.938866	0.100865
516.156075	0.101426
516.373267	0.101153
516.590440	0.101269
516.807594	0.102212
517.024731	0.102143
517.241850	0.102710
517.458950	0.103138
517.676032	0.102904
517.893095	0.102779
518.110141	0.101965
518.327168	0.101954
518.544177	0.102262
518.761168	0.102178
518.978141	0.102810
519.195095	0.102927
519.412031	0.101813
519.628949	0.102269
519.845849	0.102776
520.062731	0.103718
520.279594	0.104847
520.496439	0.104030
520.713266	0.103805
520.930074	0.103523
521.146865	0.103244
521.363637	0.104166
521.580391	0.104382
521.797127	0.104851
522.013844	0.104199
522.230543	0.103370
522.447224	0.104758
522.663887	0.105184
522.880532	0.104923
523.097158	0.104984
523.313766	0.104673
523.530356	0.104589
523.746928	0.103355
523.963481	0.103633
524.180017	0.104042
524.396534	0.103775
524.613032	0.103446
524.829513	0.104359
525.045975	0.104482
525.262420	0.104784
525.478845	0.104879
525.695253	0.106271
525.911643	0.106720
526.128014	0.106837
526.344367	0.106947
526.560702	0.107390
526.777018	0.107584
526.993316	0.107949
527.209597	0.107715
527.425858	0.107940
527.642102	0.107417
527.858328	0.107361
528.074535	0.106967
528.290724	0.106888
528.506894	0.107488
528.723047	0.107149
528.939181	0.107804
529.155297	0.108128
529.371395	0.107780
529.587475	0.108032
529.803536	0.107880
530.019579	0.108105
530.235604	0.107835
530.451611	0.107304
530.667600	0.107598
530.883570	0.106781
531.099522	0.107329
531.315456	0.108051
531.531372	0.108427
531.747269	0.108765
531.963148	0.109683
532.179009	0.110657
532.394852	0.110734
532.610676	0.111234
532.826482	0.111898
533.042271	0.111444
533.258040	0.111463
533.473792	0.110952
533.689525	0.111323
533.905240	0.110973
534.120937	0.110234
534.336616	0.110913
534.552277	0.110346
534.767919	0.110480
534.983543	0.110887
535.199149	0.111464
535.414736	0.111731
535.630306	0.111780
535.845857	0.112267
536.061390	0.113141
536.276904	0.112694
536.492401	0.112539
536.707879	0.112133
536.923339	0.112374
537.138781	0.111816
537.354204	0.112131
537.569610	0.112850
537.784997	0.112542
538.000366	0.112131
538.215716	0.112893
538.431049	0.113176
538.646363	0.113761
538.861659	0.113801
539.076937	0.114125
539.292196	0.114290
539.507438	0.113804
539.722661	0.113897
539.937866	0.114573
540.153052	0.114030
540.368221	0.114512
540.583371	0.114187
540.798503	0.114505
541.013617	0.114343
541.228712	0.114019
541.443789	0.113715
541.658848	0.113827
541.873889	0.113060
542.088912	0.113413
542.303916	0.113314
542.518902	0.113887
542.733870	0.113545
542.948820	0.113276
543.163752	0.113606
543.378665	0.113873
543.593560	0.113738
543.808437	0.114189
544.023295	0.114187
544.238136	0.114415
544.452958	0.114603
544.667762	0.115000
544.882548	0.115634
545.097315	0.115820
545.312064	0.115460
545.526795	0.115741
545.741508	0.116246
545.956203	0.116509
546.170879	0.116378
546.385537	0.116192
546.600177	0.116272
546.814799	0.116420
547.029402	0.116357
547.243988	0.116998
547.458555	0.117439
547.673103	0.117264
547.887634	0.117379
548.102146	0.117566
548.316640	0.117822
548.531116	0.117706
548.745574	0.117262
548.960013	0.117085
549.174435	0.117372
549.388838	0.117081
549.603222	0.117439
549.817589	0.117514
550.031937	0.117813
550.246267	0.117914
550.460579	0.118796
550.674873	0.119712
550.889148	0.120170
551.103405	0.119848
551.317644	0.120198
551.531865	0.120060
551.746068	0.119875
551.960252	0.119415
552.174418	0.119297
552.388566	0.118815
552.602696	0.118423
552.816807	0.118791
553.030900	0.119159
553.244975	0.119190
553.459032	0.119404
553.673070	0.119506
553.887091	0.119997
554.101093	0.120574
554.315077	0.120487
554.529042	0.120884
554.742990	0.120672
554.956919	0.120496
555.170830	0.120408
555.384722	0.120783
555.598597	0.121090
555.812453	0.121082
556.026291	0.120711
556.240111	0.120567
556.453913	0.120188
556.667696	0.120428
556.881461	0.120636
557.095208	0.120727
557.308937	0.120544
557.522647	0.120394
557.736339	0.120673
557.950013	0.120967
558.163669	0.121459
558.377307	0.121967
558.590926	0.121949
558.804527	0.121984
559.018110	0.122148
559.231675	0.122155
559.445221	0.122346
559.658749	0.122765
559.872259	0.122980
560.085751	0.123208
560.299225	0.123121
560.512680	0.123148
560.726117	0.123529
560.939536	0.123620
561.152937	0.123738
561.366319	0.123704
561.579683	0.123810
561.793029	0.123737
562.006357	0.123529
562.219667	0.123615
562.432958	0.123993
562.646231	0.124031
562.859486	0.124494
563.072723	0.124409
563.285941	0.124451
563.499141	0.124211
563.712323	0.124075
563.925487	0.123942
564.138632	0.124257
564.351760	0.123922
564.564869	0.123813
564.777960	0.123571
564.991032	0.123969
565.204087	0.124256
565.417123	0.124319
565.630141	0.124612
565.843140	0.124899
566.056122	0.124748
566.269085	0.124947
566.482030	0.125069
566.694957	0.125244
566.907866	0.124918
567.120756	0.125104
567.333628	0.125094
567.546482	0.125143
567.759318	0.125202
567.972135	0.125141
568.184935	0.125564
568.397716	0.125928
568.610478	0.125838
568.823223	0.125932
569.035949	0.125616
569.248657	0.125935
569.461347	0.125980
569.674019	0.126028
569.886672	0.126101
570.099308	0.125791
570.311925	0.125471
570.524523	0.125898
570.737104	0.125839
570.949666	0.126382
571.162210	0.126136
571.374736	0.126127
571.587244	0.126259
571.799733	0.126588
572.012205	0.126444
572.224658	0.126674
572.437092	0.126323
572.649509	0.126624
572.861907	0.126404
573.074287	0.126531
573.286649	0.126456
573.498993	0.126483
573.711318	0.126300
573.923625	0.126699
574.135914	0.126701
574.348185	0.127013
574.560438	0.126942
574.772672	0.126810
574.984888	0.126802
575.197086	0.126863
575.409266	0.127009
575.621427	0.127130
575.833570	0.127115
576.045695	0.126967
576.257802	0.127105
576.469890	0.127420
576.681961	0.127847
576.894013	0.127884
577.106046	0.128203
577.318062	0.128438
577.530059	0.128466
577.742039	0.128385
577.954000	0.128449
578.165942	0.128131
578.377867	0.128139
578.589773	0.127943
578.801661	0.128085
579.013531	0.128115
579.225382	0.128006
579.437216	0.128234
579.649031	0.128577
579.860828	0.128804
580.072606	0.129058
580.284367	0.129075
580.496109	0.129335
580.707833	0.129536
580.919539	0.129512
581.131227	0.129774
581.342896	0.129521
581.554547	0.129484
581.766180	0.129651
581.977795	0.129390
582.189391	0.129369
582.400969	0.129263
582.612529	0.129134
582.824071	0.129322
583.035595	0.129085
583.247100	0.129292
583.458587	0.129707
583.670056	0.129660
583.881506	0.130161
584.092939	0.130103
584.304353	0.130286
584.515749	0.130705
584.727127	0.130636
584.938486	0.130404
585.149828	0.130406
585.361151	0.130361
585.572456	0.130471
585.783742	0.130549
585.995011	0.130896
586.206261	0.131016
586.417493	0.130874
586.628706	0.130875
586.839902	0.131086
587.051079	0.131269
587.262238	0.131148
587.473379	0.131183
587.684502	0.131416
587.895606	0.131327
588.106692	0.131193
588.317760	0.131025
588.528810	0.131143
588.739841	0.131393
588.950855	0.131722
589.161850	0.131462
589.372827	0.131610
589.583785	0.131566
589.794726	0.131837
590.005648	0.132057
590.216552	0.132165
590.427437	0.132229
590.638305	0.132596
590.849154	0.132398
591.059985	0.132824
591.270798	0.132676
591.481592	0.132506
591.692369	0.132404
591.903127	0.132794
592.113867	0.132813
592.324588	0.132633
592.535292	0.132233
592.745977	0.132165
592.956644	0.132249
593.167293	0.132304
593.377923	0.132502
593.588536	0.132481
593.799130	0.132627
594.009706	0.132797
594.220263	0.133088
594.430803	0.133200
594.641324	0.133184
594.851827	0.133128
595.062312	0.133474
595.272778	0.133161
595.483227	0.133046
595.693657	0.132773
595.904069	0.133084
596.114462	0.133221
596.324838	0.133319
596.535195	0.133502
596.745534	0.133427
596.955855	0.133499
597.166157	0.133591
597.376441	0.133919
597.586707	0.133920
597.796955	0.133589
598.007185	0.133525
598.217396	0.133894
598.427589	0.134179
598.637764	0.134517
598.847921	0.134532
599.058060	0.134565
599.268180	0.134630
599.478282	0.134688
599.688366	0.134724
599.898431	0.134556
600.108479	0.134258
600.318508	0.133856
600.528519	0.133736
600.738511	0.133694
600.948486	0.133826
601.158442	0.133882
601.368380	0.134022
601.578300	0.134341
601.788202	0.134354
601.998085	0.134730
602.207950	0.135130
602.417797	0.135180
602.627626	0.135100
602.837436	0.135209
603.047228	0.135400
603.257002	0.135530
603.466758	0.135437
603.676496	0.135687
603.886215	0.135682
604.095916	0.135490
604.305599	0.135558
604.515264	0.135755
604.724910	0.135994
604.934538	0.136192
605.144148	0.136415
605.353740	0.136397
605.563314	0.136613
605.772869	0.136327
605.982406	0.136567
606.191925	0.136887
606.401425	0.136968
606.610908	0.136961
606.820372	0.136742
607.029818	0.136114
607.239246	0.136091
607.448655	0.136177
607.658047	0.136359
607.867420	0.136318
608.076775	0.135979
608.286111	0.135817
608.495430	0.135807
608.704730	0.135685
608.914012	0.136100
609.123275	0.136140
609.332521	0.136135
609.541748	0.136195
609.750957	0.136379
609.960148	0.136415
610.169321	0.136542
610.378475	0.136478
610.587611	0.136493
610.796729	0.136518
611.005829	0.136837
611.214910	0.136875
611.423974	0.136860
611.633019	0.136991
611.842045	0.137173
612.051054	0.137210
612.260044	0.137431
612.469017	0.137890
612.677970	0.137783
612.886906	0.137844
613.095824	0.137842
613.304723	0.138202
613.513604	0.138209
613.722467	0.138309
613.931311	0.138535
614.140138	0.138517
614.348946	0.138214
614.557736	0.138571
614.766507	0.138791
614.975261	0.138913
615.183996	0.138843
615.392713	0.138766
615.601412	0.138647
615.810092	0.138401
616.018754	0.138571
616.227399	0.138641
616.436024	0.138352
616.644632	0.138145
616.853222	0.138252
617.061793	0.138342
617.270346	0.138639
617.478880	0.138761
617.687397	0.139046
617.895895	0.139090
618.104375	0.139206
618.312837	0.139422
618.521281	0.139489
618.729706	0.139565
618.938113	0.139660
619.146502	0.139700
619.354873	0.139663
619.563226	0.139550
619.771560	0.139156
619.979876	0.139102
620.188174	0.139067
620.396453	0.139148
620.604715	0.138995
620.812958	0.138701
621.021183	0.138312
621.229390	0.138210
621.437578	0.138444
621.645748	0.138686
621.853900	0.138853
622.062034	0.138930
622.270150	0.139232
622.478247	0.139259
622.686326	0.139528
622.894387	0.139875
623.102430	0.140242
623.310454	0.140186
623.518461	0.140427
623.726449	0.140441
623.934418	0.140602
624.142370	0.140541
624.350303	0.140727
624.558218	0.140611
624.766115	0.140444
624.973994	0.140375
625.181855	0.140136
625.389697	0.140130
625.597521	0.140003
625.805327	0.140042
626.013114	0.139899
626.220883	0.139783
626.428634	0.139720
626.636367	0.139890
626.844082	0.140071
627.051778	0.140466
627.259457	0.140590
627.467117	0.140767
627.674758	0.140676
627.882382	0.140597
628.089987	0.140805
628.297574	0.141061
628.505143	0.141177
628.712694	0.141123
628.920226	0.141217
629.127740	0.141390
629.335236	0.141353
629.542714	0.141357
629.750174	0.141598
629.957615	0.141728
630.165038	0.141935
630.372443	0.141890
630.579829	0.141892
630.787198	0.141876
630.994548	0.141688
631.201880	0.141841
631.409194	0.142117
631.616489	0.142157
631.823766	0.142112
632.031025	0.141991
632.238266	0.142017
632.445489	0.142274
632.652693	0.142281
632.859879	0.142434
633.067047	0.142580
633.274197	0.142673
633.481329	0.142644
633.688442	0.142582
633.895537	0.142546
634.102614	0.142670
634.309672	0.142573
634.516713	0.142591
634.723735	0.142544
634.930739	0.142530
635.137724	0.142584
635.344692	0.142915
635.551641	0.143049
635.758572	0.142964
635.965485	0.142988
636.172379	0.143064
636.379256	0.143441
636.586114	0.143537
636.792954	0.143710
636.999775	0.143579
637.206579	0.143382
637.413364	0.143406
637.620131	0.143736
637.826880	0.143877
638.033610	0.143949
638.240323	0.143907
638.447017	0.144016
638.653692	0.143958
638.860350	0.144219
639.066990	0.144489
639.273611	0.144607
639.480214	0.144640
639.686798	0.144692
639.893365	0.144926
640.099913	0.144901
640.306443	0.144949
640.512955	0.144971
640.719449	0.144884
640.925924	0.144826
641.132381	0.145082
641.338820	0.145108
641.545241	0.145217
641.751644	0.145225
641.958028	0.145197
642.164394	0.145294
642.370742	0.145521
642.577071	0.145737
642.783383	0.145591
642.989676	0.145499
643.195951	0.145677
643.402207	0.145520
643.608446	0.145656
643.814666	0.145744
644.020868	0.145733
644.227052	0.145644
644.433218	0.145732
644.639365	0.145860
644.845494	0.145664
645.051605	0.145501
645.257698	0.145821
645.463772	0.145923
645.669828	0.145913
645.875866	0.145955
646.081886	0.146068
646.287888	0.145931
646.493871	0.146153
646.699836	0.146407
646.905783	0.146667
647.111712	0.146740
647.317622	0.146691
647.523514	0.146707
647.729388	0.146952
647.935244	0.147110
648.141082	0.147223
648.346901	0.147401
648.552702	0.147336
648.758485	0.147537
648.964250	0.147659
649.169996	0.147689
649.375724	0.147861
649.581434	0.147658
649.787126	0.147727
649.992800	0.147763
650.198455	0.147641
650.404092	0.147632
650.609711	0.147628
650.815311	0.147545
651.020894	0.147571
651.226458	0.147895
651.432004	0.148109
651.637532	0.148140
651.843041	0.148082
652.048532	0.148153
652.254006	0.148444
652.459460	0.148388
652.664897	0.148389
652.870315	0.148268
653.075716	0.147809
653.281097	0.147816
653.486461	0.147666
653.691807	0.147881
653.897134	0.147920
654.102443	0.147964
654.307734	0.147952
654.513006	0.148018
654.718261	0.148322
654.923497	0.148663
655.128715	0.148815
655.333915	0.149024
655.539096	0.149072
655.744259	0.149086
655.949404	0.149112
656.154531	0.149247
656.359640	0.149242
656.564730	0.149209
656.769802	0.149354
656.974856	0.149365
657.179892	0.149395
657.384909	0.149591
657.589908	0.149933
657.794889	0.150051
657.999852	0.150264
658.204797	0.150460
658.409723	0.150559
658.614631	0.150542
658.819521	0.150576
659.024393	0.150686
659.229246	0.150708
659.434081	0.150618
659.638898	0.150802
659.843697	0.150720
660.048478	0.150652
660.253240	0.150771
660.457984	0.150784
660.662710	0.150776
660.867417	0.151060
661.072107	0.150952
661.276778	0.151052
661.481431	0.151086
661.686066	0.151080
661.890682	0.151267
662.095281	0.151293
662.299861	0.151441
662.504422	0.151716
662.708966	0.151430
662.913491	0.151731
663.117999	0.151693
663.322488	0.151708
663.526958	0.151822
663.731411	0.151939
663.935845	0.152149
664.140261	0.152272
664.344659	0.152383
664.549038	0.152569
664.753400	0.152424
664.957743	0.152693
665.162068	0.152779
665.366375	0.152931
665.570663	0.153112
665.774933	0.153059
665.979185	0.153424
666.183419	0.153377
666.387635	0.153708
666.591832	0.154107
666.796011	0.154032
667.000172	0.154193
667.204315	0.154315
667.408439	0.154303
667.612545	0.154334
667.816634	0.154063
668.020703	0.154191
668.224755	0.154179
668.428788	0.154004
668.632803	0.154218
668.836800	0.154339
669.040779	0.154627
669.244739	0.154521
669.448681	0.154786
669.652605	0.155142
669.856511	0.155294
670.060399	0.155278
670.264268	0.155388
670.468119	0.155420
670.671952	0.155335
670.875767	0.155154
671.079563	0.155442
671.283341	0.155332
671.487101	0.155282
671.690843	0.155342
671.894567	0.155465
672.098272	0.155520
672.301959	0.155697
672.505628	0.155858
672.709278	0.156037
672.912911	0.155915
673.116525	0.155862
673.320121	0.155862
673.523699	0.155837
673.727258	0.156048
673.930799	0.156172
674.134322	0.156241
674.337827	0.156122
674.541314	0.156300
674.744782	0.156492
674.948232	0.156731
675.151664	0.156940
675.355078	0.157023
675.558474	0.156907
675.761851	0.156961
675.965210	0.156861
676.168551	0.157134
676.371873	0.157140
676.575178	0.157146
676.778464	0.157394
676.981732	0.157329
677.184981	0.157518
677.388213	0.157660
677.591426	0.157794
677.794621	0.157855
677.997798	0.157916
678.200956	0.157917
678.404097	0.157932
678.607219	0.158066
678.810323	0.158098
679.013408	0.158249
679.216476	0.158297
679.419525	0.158336
679.622556	0.158568
679.825569	0.158887
680.028563	0.159027
680.231540	0.159454
680.434498	0.159363
680.637438	0.159667
680.840359	0.159651
681.043263	0.159864
681.246148	0.160094
681.449015	0.160156
681.651864	0.160052
681.854694	0.160379
682.057506	0.160364
682.260301	0.160384
682.463076	0.160365
682.665834	0.160407
682.868573	0.160550
683.071295	0.160713
683.273998	0.160856
683.476682	0.161004
683.679349	0.160794
683.881997	0.160761
684.084627	0.161122
684.287239	0.161077
684.489833	0.161192
684.692408	0.161253
684.894965	0.161167
685.097504	0.161136
685.300025	0.161190
685.502527	0.161331
685.705012	0.161586
685.907478	0.161287
686.109925	0.161407
686.312355	0.161506
686.514766	0.161385
686.717159	0.161366
686.919534	0.161463
687.121891	0.161455
687.324230	0.161433
687.526550	0.161548
687.728852	0.161742
687.931136	0.161810
688.133401	0.161821
688.335649	0.161980
688.537878	0.162005
688.740089	0.161947
688.942281	0.162040
689.144456	0.162055
689.346612	0.161849
689.548750	0.161871
689.750870	0.162168
689.952971	0.162218
690.155055	0.162320
690.357120	0.162554
690.559167	0.163013
690.761195	0.162939
690.963206	0.162927
691.165198	0.163199
691.367172	0.163515
691.569128	0.163308
691.771065	0.163569
691.972984	0.163561
692.174885	0.163704
692.376768	0.163305
692.578633	0.163481
692.780479	0.163766
692.982308	0.163684
693.184118	0.163541
693.385909	0.163566
