sample name	sample
index	906
start time	 04-08-2021  04:11:14 PM


Wavelength (nm)	Absorbance
494.344910	-1.049003
494.563924	-1.049003
494.782919	-1.049003
495.001897	-0.337380
495.220856	NaN
495.439797	NaN
495.658719	-0.647930
495.877624	-0.201301
496.096510	0.437649
496.315378	NaN
496.534227	-0.081831
496.753059	1.169447
496.971872	0.678653
497.190667	0.182915
497.409444	0.182369
497.628203	0.184392
497.846943	0.182859
498.065665	0.179941
498.284369	0.180754
498.503055	0.181456
498.721723	0.181803
498.940372	0.181792
499.159003	0.182475
499.377616	0.183062
499.596210	0.182970
499.814787	0.182948
500.033345	0.184808
500.251885	0.184953
500.470406	0.184973
500.688910	0.184446
500.907395	0.184400
501.125862	0.183832
501.344311	0.183231
501.562742	0.183945
501.781154	0.184077
501.999548	0.183149
502.217924	0.181894
502.436282	0.183057
502.654621	0.183935
502.872942	0.184055
503.091245	0.183852
503.309530	0.184802
503.527797	0.184756
503.746045	0.185535
503.964275	0.186568
504.182487	0.188117
504.400681	0.187630
504.618856	0.187328
504.837013	0.188410
505.055152	0.189044
505.273273	0.188552
505.491376	0.188314
505.709460	0.187212
505.927526	0.186606
506.145574	0.186021
506.363604	0.186982
506.581615	0.186838
506.799608	0.186544
507.017583	0.187882
507.235540	0.188905
507.453478	0.188900
507.671399	0.190213
507.889301	0.189813
508.107185	0.190603
508.325050	0.189825
508.542898	0.189471
508.760727	0.189705
508.978538	0.189226
509.196330	0.188496
509.414105	0.189167
509.631861	0.187758
509.849599	0.189072
510.067319	0.188509
510.285021	0.188845
510.502704	0.190188
510.720369	0.190255
510.938016	0.190439
511.155645	0.191436
511.373255	0.191846
511.590848	0.193379
511.808422	0.193040
512.025977	0.192685
512.243515	0.193870
512.461034	0.193197
512.678536	0.193212
512.896018	0.193250
513.113483	0.192489
513.330930	0.192093
513.548358	0.191672
513.765768	0.192445
513.983160	0.193664
514.200533	0.193270
514.417889	0.193427
514.635226	0.193998
514.852545	0.193948
515.069845	0.193638
515.287128	0.194373
515.504392	0.195229
515.721638	0.194647
515.938866	0.194851
516.156075	0.194643
516.373267	0.194701
516.590440	0.194600
516.807594	0.194493
517.024731	0.195281
517.241850	0.195229
517.458950	0.195648
517.676032	0.196309
517.893095	0.196109
518.110141	0.195892
518.327168	0.197150
518.544177	0.197904
518.761168	0.198157
518.978141	0.198673
519.195095	0.198915
519.412031	0.198628
519.628949	0.199095
519.845849	0.199350
520.062731	0.200094
520.279594	0.200333
520.496439	0.200534
520.713266	0.201055
520.930074	0.200869
521.146865	0.200829
521.363637	0.200511
521.580391	0.199961
521.797127	0.200679
522.013844	0.201016
522.230543	0.200835
522.447224	0.200519
522.663887	0.201406
522.880532	0.201571
523.097158	0.201685
523.313766	0.202972
523.530356	0.203740
523.746928	0.203274
523.963481	0.204115
524.180017	0.204354
524.396534	0.205309
524.613032	0.204872
524.829513	0.206036
525.045975	0.206457
525.262420	0.206633
525.478845	0.207056
525.695253	0.208202
525.911643	0.208019
526.128014	0.208475
526.344367	0.207970
526.560702	0.208898
526.777018	0.209309
526.993316	0.209612
527.209597	0.209248
527.425858	0.210107
527.642102	0.209803
527.858328	0.210113
528.074535	0.210646
528.290724	0.211624
528.506894	0.211759
528.723047	0.211500
528.939181	0.212605
529.155297	0.213199
529.371395	0.213323
529.587475	0.213981
529.803536	0.214018
530.019579	0.213908
530.235604	0.213707
530.451611	0.213949
530.667600	0.214446
530.883570	0.214678
531.099522	0.216270
531.315456	0.216338
531.531372	0.216500
531.747269	0.217929
531.963148	0.218882
532.179009	0.219961
532.394852	0.221337
532.610676	0.221779
532.826482	0.222179
533.042271	0.221560
533.258040	0.221830
533.473792	0.222550
533.689525	0.222417
533.905240	0.222257
534.120937	0.222256
534.336616	0.222425
534.552277	0.222628
534.767919	0.222932
534.983543	0.223140
535.199149	0.223266
535.414736	0.223396
535.630306	0.223250
535.845857	0.223581
536.061390	0.224461
536.276904	0.223814
536.492401	0.224497
536.707879	0.224897
536.923339	0.225553
537.138781	0.226133
537.354204	0.226765
537.569610	0.226798
537.784997	0.227550
538.000366	0.227848
538.215716	0.228343
538.431049	0.228590
538.646363	0.228600
538.861659	0.229243
539.076937	0.230045
539.292196	0.230412
539.507438	0.231888
539.722661	0.232374
539.937866	0.232230
540.153052	0.232550
540.368221	0.232553
540.583371	0.232864
540.798503	0.233069
541.013617	0.233106
541.228712	0.233030
541.443789	0.233054
541.658848	0.232888
541.873889	0.233410
542.088912	0.233832
542.303916	0.234009
542.518902	0.234296
542.733870	0.233770
542.948820	0.234612
543.163752	0.235164
543.378665	0.235288
543.593560	0.235809
543.808437	0.235962
544.023295	0.235818
544.238136	0.236328
544.452958	0.236940
544.667762	0.237704
544.882548	0.237048
545.097315	0.237152
545.312064	0.237425
545.526795	0.238024
545.741508	0.238211
545.956203	0.239447
546.170879	0.239881
546.385537	0.239864
546.600177	0.240219
546.814799	0.240870
547.029402	0.240987
547.243988	0.241542
547.458555	0.241413
547.673103	0.241833
547.887634	0.241576
548.102146	0.241653
548.316640	0.242007
548.531116	0.242450
548.745574	0.242535
548.960013	0.243312
549.174435	0.243609
549.388838	0.244169
549.603222	0.244118
549.817589	0.244079
550.031937	0.244731
550.246267	0.244987
550.460579	0.245067
550.674873	0.245584
550.889148	0.245826
551.103405	0.246155
551.317644	0.246211
551.531865	0.246094
551.746068	0.246815
551.960252	0.246975
552.174418	0.246938
552.388566	0.247302
552.602696	0.247567
552.816807	0.247558
553.030900	0.247506
553.244975	0.248160
553.459032	0.248602
553.673070	0.248994
553.887091	0.249392
554.101093	0.249917
554.315077	0.249849
554.529042	0.250025
554.742990	0.250109
554.956919	0.250388
555.170830	0.250338
555.384722	0.250991
555.598597	0.251201
555.812453	0.251233
556.026291	0.251506
556.240111	0.251855
556.453913	0.251779
556.667696	0.252480
556.881461	0.252525
557.095208	0.252506
557.308937	0.252604
557.522647	0.252614
557.736339	0.252693
557.950013	0.252972
558.163669	0.253251
558.377307	0.253529
558.590926	0.253543
558.804527	0.253914
559.018110	0.253849
559.231675	0.254205
559.445221	0.254155
559.658749	0.254072
559.872259	0.254206
560.085751	0.254406
560.299225	0.255062
560.512680	0.255128
560.726117	0.255574
560.939536	0.256259
561.152937	0.256735
561.366319	0.257347
561.579683	0.257740
561.793029	0.258344
562.006357	0.258110
562.219667	0.257856
562.432958	0.257941
562.646231	0.257604
562.859486	0.257323
563.072723	0.256931
563.285941	0.256875
563.499141	0.257143
563.712323	0.256649
563.925487	0.257490
564.138632	0.257783
564.351760	0.258285
564.564869	0.258201
564.777960	0.258767
564.991032	0.258987
565.204087	0.259172
565.417123	0.258990
565.630141	0.259217
565.843140	0.259275
566.056122	0.259375
566.269085	0.258940
566.482030	0.259300
566.694957	0.259189
566.907866	0.259287
567.120756	0.259895
567.333628	0.260079
567.546482	0.260425
567.759318	0.260886
567.972135	0.261441
568.184935	0.261973
568.397716	0.262271
568.610478	0.262705
568.823223	0.263043
569.035949	0.262934
569.248657	0.263496
569.461347	0.264017
569.674019	0.263990
569.886672	0.263751
570.099308	0.263850
570.311925	0.264203
570.524523	0.264452
570.737104	0.264965
570.949666	0.265130
571.162210	0.265344
571.374736	0.265333
571.587244	0.265385
571.799733	0.265760
572.012205	0.265949
572.224658	0.266371
572.437092	0.266131
572.649509	0.266393
572.861907	0.266253
573.074287	0.266647
573.286649	0.266612
573.498993	0.266878
573.711318	0.267121
573.923625	0.267370
574.135914	0.267146
574.348185	0.267596
574.560438	0.267261
574.772672	0.267852
574.984888	0.267779
575.197086	0.267981
575.409266	0.267798
575.621427	0.267511
575.833570	0.268047
576.045695	0.267991
576.257802	0.268172
576.469890	0.268668
576.681961	0.268762
576.894013	0.268992
577.106046	0.268761
577.318062	0.269065
577.530059	0.269713
577.742039	0.269732
577.954000	0.270014
578.165942	0.269910
578.377867	0.269734
578.589773	0.270277
578.801661	0.270598
579.013531	0.271089
579.225382	0.271429
579.437216	0.271483
579.649031	0.271772
579.860828	0.272347
580.072606	0.272907
580.284367	0.273460
580.496109	0.273134
580.707833	0.273364
580.919539	0.273546
581.131227	0.273905
581.342896	0.273758
581.554547	0.273688
581.766180	0.273816
581.977795	0.274273
582.189391	0.274376
582.400969	0.274949
582.612529	0.274905
582.824071	0.275168
583.035595	0.274879
583.247100	0.275557
583.458587	0.275517
583.670056	0.275569
583.881506	0.275649
584.092939	0.275721
584.304353	0.275779
584.515749	0.276145
584.727127	0.276433
584.938486	0.276646
585.149828	0.276975
585.361151	0.277449
585.572456	0.277772
585.783742	0.277862
585.995011	0.277878
586.206261	0.277932
586.417493	0.277825
586.628706	0.277140
586.839902	0.277274
587.051079	0.277250
587.262238	0.277441
587.473379	0.277310
587.684502	0.277158
587.895606	0.277363
588.106692	0.277594
588.317760	0.277677
588.528810	0.278160
588.739841	0.278336
588.950855	0.278293
589.161850	0.278504
589.372827	0.278708
589.583785	0.278926
589.794726	0.278726
590.005648	0.278427
590.216552	0.278947
590.427437	0.279190
590.638305	0.279619
590.849154	0.279785
591.059985	0.279921
591.270798	0.280285
591.481592	0.280349
591.692369	0.280876
591.903127	0.281251
592.113867	0.281255
592.324588	0.281677
592.535292	0.281376
592.745977	0.281603
592.956644	0.281701
593.167293	0.281577
593.377923	0.281625
593.588536	0.281911
593.799130	0.282168
594.009706	0.282105
594.220263	0.281877
594.430803	0.282272
594.641324	0.281954
594.851827	0.281951
595.062312	0.281921
595.272778	0.282219
595.483227	0.282437
595.693657	0.282135
595.904069	0.282221
596.114462	0.282907
596.324838	0.283354
596.535195	0.283802
596.745534	0.284087
596.955855	0.284580
597.166157	0.284827
597.376441	0.284916
597.586707	0.285387
597.796955	0.286053
598.007185	0.285997
598.217396	0.285774
598.427589	0.286067
598.637764	0.285879
598.847921	0.286458
599.058060	0.286434
599.268180	0.286537
599.478282	0.286505
599.688366	0.286419
599.898431	0.286844
600.108479	0.287140
600.318508	0.287644
600.528519	0.288184
600.738511	0.287938
600.948486	0.288249
601.158442	0.288724
601.368380	0.288844
601.578300	0.288967
601.788202	0.288846
601.998085	0.289052
602.207950	0.289174
602.417797	0.289524
602.627626	0.289668
602.837436	0.290041
603.047228	0.289865
603.257002	0.290318
603.466758	0.290413
603.676496	0.290840
603.886215	0.291025
604.095916	0.291065
604.305599	0.291123
604.515264	0.291561
604.724910	0.291550
604.934538	0.291644
605.144148	0.291556
605.353740	0.291486
605.563314	0.291118
605.772869	0.291352
605.982406	0.291497
606.191925	0.291437
606.401425	0.291336
606.610908	0.291481
606.820372	0.291518
607.029818	0.291805
607.239246	0.292100
607.448655	0.292466
607.658047	0.292637
607.867420	0.292729
608.076775	0.292813
608.286111	0.293449
608.495430	0.293788
608.704730	0.293907
608.914012	0.294614
609.123275	0.294680
609.332521	0.294903
609.541748	0.294751
609.750957	0.294704
609.960148	0.294803
610.169321	0.294403
610.378475	0.294048
610.587611	0.294248
610.796729	0.293775
611.005829	0.293805
611.214910	0.293923
611.423974	0.294362
611.633019	0.294844
611.842045	0.295147
612.051054	0.295042
612.260044	0.295537
612.469017	0.295592
612.677970	0.295728
612.886906	0.296361
613.095824	0.296326
613.304723	0.296115
613.513604	0.295984
613.722467	0.296294
613.931311	0.296513
614.140138	0.296844
614.348946	0.296892
614.557736	0.297052
614.766507	0.296946
614.975261	0.297502
615.183996	0.297671
615.392713	0.297738
615.601412	0.297779
615.810092	0.297850
616.018754	0.297977
616.227399	0.298473
616.436024	0.298796
616.644632	0.298756
616.853222	0.298717
617.061793	0.298741
617.270346	0.298765
617.478880	0.299009
617.687397	0.299503
617.895895	0.299568
618.104375	0.299833
618.312837	0.299711
618.521281	0.300276
618.729706	0.300628
618.938113	0.301116
619.146502	0.301297
619.354873	0.301259
619.563226	0.301360
619.771560	0.301617
619.979876	0.301579
620.188174	0.302484
620.396453	0.302626
620.604715	0.302600
620.812958	0.302605
621.021183	0.302831
621.229390	0.303361
621.437578	0.303688
621.645748	0.303866
621.853900	0.304173
622.062034	0.304219
622.270150	0.304148
622.478247	0.304548
622.686326	0.304525
622.894387	0.304884
623.102430	0.304537
623.310454	0.304769
623.518461	0.304681
623.726449	0.304545
623.934418	0.304296
624.142370	0.304646
624.350303	0.304586
624.558218	0.305019
624.766115	0.305211
624.973994	0.305570
625.181855	0.305414
625.389697	0.305455
625.597521	0.305973
625.805327	0.306176
626.013114	0.306256
626.220883	0.306000
626.428634	0.306067
626.636367	0.306273
626.844082	0.306233
627.051778	0.306430
627.259457	0.306480
627.467117	0.306226
627.674758	0.305948
627.882382	0.305712
628.089987	0.306113
628.297574	0.306240
628.505143	0.306321
628.712694	0.306725
628.920226	0.306462
629.127740	0.306666
629.335236	0.307204
629.542714	0.307680
629.750174	0.308034
629.957615	0.308298
630.165038	0.308923
630.372443	0.309004
630.579829	0.309224
630.787198	0.309565
630.994548	0.309603
631.201880	0.309456
631.409194	0.309513
631.616489	0.309830
631.823766	0.309924
632.031025	0.309895
632.238266	0.309867
632.445489	0.309788
632.652693	0.310130
632.859879	0.310606
633.067047	0.310915
633.274197	0.311373
633.481329	0.311668
633.688442	0.311923
633.895537	0.311704
634.102614	0.311846
634.309672	0.312097
634.516713	0.312064
634.723735	0.311972
634.930739	0.311865
635.137724	0.311782
635.344692	0.312040
635.551641	0.312115
635.758572	0.312436
635.965485	0.312833
636.172379	0.312959
636.379256	0.313391
636.586114	0.313644
636.792954	0.314207
636.999775	0.314425
637.206579	0.314262
637.413364	0.314349
637.620131	0.314648
637.826880	0.315155
638.033610	0.315134
638.240323	0.315177
638.447017	0.315484
638.653692	0.315520
638.860350	0.315797
639.066990	0.315951
639.273611	0.316284
639.480214	0.316300
639.686798	0.316239
639.893365	0.316546
640.099913	0.316906
640.306443	0.317353
640.512955	0.317480
640.719449	0.317465
640.925924	0.317647
641.132381	0.317928
641.338820	0.318314
641.545241	0.318478
641.751644	0.318759
641.958028	0.318677
642.164394	0.318470
642.370742	0.318913
642.577071	0.319086
642.783383	0.319394
642.989676	0.319424
643.195951	0.319369
643.402207	0.319154
643.608446	0.319434
643.814666	0.319676
644.020868	0.319859
644.227052	0.319666
644.433218	0.319874
644.639365	0.319887
644.845494	0.320024
645.051605	0.320172
645.257698	0.320654
645.463772	0.320506
645.669828	0.320810
645.875866	0.321069
646.081886	0.321294
646.287888	0.321642
646.493871	0.321609
646.699836	0.321769
646.905783	0.322025
647.111712	0.322194
647.317622	0.322513
647.523514	0.322529
647.729388	0.322642
647.935244	0.322881
648.141082	0.323154
648.346901	0.323779
648.552702	0.324216
648.758485	0.324661
648.964250	0.324851
649.169996	0.325206
649.375724	0.325445
649.581434	0.325658
649.787126	0.325835
649.992800	0.325798
650.198455	0.326124
650.404092	0.326185
650.609711	0.326332
650.815311	0.326782
651.020894	0.326916
651.226458	0.327211
651.432004	0.327616
651.637532	0.327836
651.843041	0.328107
652.048532	0.327926
652.254006	0.328093
652.459460	0.327919
652.664897	0.327749
652.870315	0.327883
653.075716	0.328101
653.281097	0.328040
653.486461	0.328522
653.691807	0.328479
653.897134	0.328855
654.102443	0.329093
654.307734	0.329652
654.513006	0.329831
654.718261	0.330107
654.923497	0.330369
655.128715	0.330727
655.333915	0.330790
655.539096	0.331413
655.744259	0.331513
655.949404	0.331815
656.154531	0.331644
656.359640	0.332031
656.564730	0.332358
656.769802	0.332709
656.974856	0.332916
657.179892	0.333345
657.384909	0.333365
657.589908	0.333759
657.794889	0.333890
657.999852	0.334431
658.204797	0.334801
658.409723	0.334902
658.614631	0.335014
658.819521	0.335302
659.024393	0.335507
659.229246	0.335903
659.434081	0.335730
659.638898	0.336107
659.843697	0.336327
660.048478	0.336339
660.253240	0.336201
660.457984	0.336403
660.662710	0.336648
660.867417	0.336476
661.072107	0.336834
661.276778	0.337174
661.481431	0.337136
661.686066	0.337251
661.890682	0.337509
662.095281	0.338251
662.299861	0.338584
662.504422	0.338839
662.708966	0.339255
662.913491	0.339482
663.117999	0.340096
663.322488	0.340553
663.526958	0.340974
663.731411	0.341332
663.935845	0.341486
664.140261	0.341689
664.344659	0.341868
664.549038	0.342234
664.753400	0.342222
664.957743	0.342192
665.162068	0.342416
665.366375	0.342412
665.570663	0.342514
665.774933	0.342674
665.979185	0.342792
666.183419	0.342794
666.387635	0.342997
666.591832	0.343006
666.796011	0.343372
667.000172	0.343666
667.204315	0.344177
667.408439	0.344509
667.612545	0.344841
667.816634	0.345044
668.020703	0.345529
668.224755	0.345601
668.428788	0.346242
668.632803	0.346473
668.836800	0.346797
669.040779	0.347115
669.244739	0.347239
669.448681	0.347509
669.652605	0.347937
669.856511	0.348241
670.060399	0.348598
670.264268	0.348682
670.468119	0.348949
670.671952	0.349155
670.875767	0.349333
671.079563	0.349931
671.283341	0.350187
671.487101	0.350233
671.690843	0.350567
671.894567	0.350680
672.098272	0.350782
672.301959	0.350964
672.505628	0.351058
672.709278	0.350910
672.912911	0.350825
673.116525	0.350845
673.320121	0.350989
673.523699	0.350997
673.727258	0.351360
673.930799	0.351844
674.134322	0.351799
674.337827	0.351823
674.541314	0.352237
674.744782	0.352452
674.948232	0.352812
675.151664	0.353180
675.355078	0.353308
675.558474	0.353564
675.761851	0.353830
675.965210	0.354351
676.168551	0.354887
676.371873	0.355248
676.575178	0.355531
676.778464	0.355898
676.981732	0.356336
677.184981	0.356800
677.388213	0.357023
677.591426	0.357073
677.794621	0.357354
677.997798	0.357466
678.200956	0.357781
678.404097	0.358118
678.607219	0.358460
678.810323	0.358581
679.013408	0.358745
679.216476	0.358983
679.419525	0.359509
679.622556	0.359621
679.825569	0.360159
680.028563	0.360288
680.231540	0.360500
680.434498	0.360237
680.637438	0.360505
680.840359	0.360631
681.043263	0.360965
681.246148	0.361043
681.449015	0.361375
681.651864	0.361369
681.854694	0.361573
682.057506	0.361912
682.260301	0.362603
682.463076	0.362659
682.665834	0.363139
682.868573	0.363372
683.071295	0.363619
683.273998	0.363987
683.476682	0.364150
683.679349	0.364163
683.881997	0.364288
684.084627	0.364375
684.287239	0.364706
684.489833	0.364978
684.692408	0.365083
684.894965	0.365182
685.097504	0.365337
685.300025	0.365697
685.502527	0.366245
685.705012	0.366271
685.907478	0.366541
686.109925	0.366580
686.312355	0.366817
686.514766	0.367192
686.717159	0.367549
686.919534	0.367680
687.121891	0.367814
687.324230	0.367764
687.526550	0.367992
687.728852	0.368099
687.931136	0.368694
688.133401	0.368457
688.335649	0.368662
688.537878	0.368671
688.740089	0.368765
688.942281	0.369057
689.144456	0.369213
689.346612	0.369492
689.548750	0.369766
689.750870	0.369837
689.952971	0.370288
690.155055	0.370209
690.357120	0.370650
690.559167	0.370875
690.761195	0.370984
690.963206	0.371260
691.165198	0.371462
691.367172	0.371826
691.569128	0.371589
691.771065	0.371841
691.972984	0.371984
692.174885	0.371951
692.376768	0.372110
692.578633	0.372368
692.780479	0.372729
692.982308	0.372910
693.184118	0.372685
693.385909	0.373230
693.587683	0.373448
