sample name	sample
index	490
start time	 03-11-2021  02:10:36 PM


Wavelength (nm)	Absorbance
494.344910	NaN
494.563924	NaN
494.782919	NaN
495.001897	-0.349273
495.220856	0.064708
495.439797	-0.111082
495.658719	-0.182285
495.877624	-0.295420
496.096510	-0.339691
496.315378	-0.331591
496.534227	-0.169601
496.753059	-0.035057
496.971872	0.233229
497.190667	0.105434
497.409444	0.095284
497.628203	0.091468
497.846943	0.090971
498.065665	0.091309
498.284369	0.091364
498.503055	0.090709
498.721723	0.091823
498.940372	0.091751
499.159003	0.090508
499.377616	0.092173
499.596210	0.093156
499.814787	0.094386
500.033345	0.094885
500.251885	0.095883
500.470406	0.095656
500.688910	0.095311
500.907395	0.094465
501.125862	0.095962
501.344311	0.094387
501.562742	0.094799
501.781154	0.093785
501.999548	0.093199
502.217924	0.092073
502.436282	0.092183
502.654621	0.091836
502.872942	0.092228
503.091245	0.092243
503.309530	0.092964
503.527797	0.091990
503.746045	0.091988
503.964275	0.092483
504.182487	0.092207
504.400681	0.092231
504.618856	0.091620
504.837013	0.091591
505.055152	0.091769
505.273273	0.091446
505.491376	0.090220
505.709460	0.090199
505.927526	0.089521
506.145574	0.090309
506.363604	0.089761
506.581615	0.090818
506.799608	0.089962
507.017583	0.089048
507.235540	0.089105
507.453478	0.090476
507.671399	0.089924
507.889301	0.090518
508.107185	0.090229
508.325050	0.091142
508.542898	0.090553
508.760727	0.090960
508.978538	0.091368
509.196330	0.091053
509.414105	0.090675
509.631861	0.091277
509.849599	0.091606
510.067319	0.092038
510.285021	0.092018
510.502704	0.092780
510.720369	0.092476
510.938016	0.093485
511.155645	0.093193
511.373255	0.093943
511.590848	0.094381
511.808422	0.094474
512.025977	0.093548
512.243515	0.092992
512.461034	0.092383
512.678536	0.093239
512.896018	0.092341
513.113483	0.093313
513.330930	0.093012
513.548358	0.092674
513.765768	0.093016
513.983160	0.093664
514.200533	0.093768
514.417889	0.093690
514.635226	0.094618
514.852545	0.094652
515.069845	0.094892
515.287128	0.094920
515.504392	0.095548
515.721638	0.094294
515.938866	0.094483
516.156075	0.095313
516.373267	0.095722
516.590440	0.094836
516.807594	0.094865
517.024731	0.095195
517.241850	0.094986
517.458950	0.094167
517.676032	0.095649
517.893095	0.095880
518.110141	0.095297
518.327168	0.095327
518.544177	0.095529
518.761168	0.096294
518.978141	0.095640
519.195095	0.096712
519.412031	0.097573
519.628949	0.097691
519.845849	0.096877
520.062731	0.097044
520.279594	0.097087
520.496439	0.097084
520.713266	0.096329
520.930074	0.096617
521.146865	0.096250
521.363637	0.096327
521.580391	0.095305
521.797127	0.096088
522.013844	0.096275
522.230543	0.096420
522.447224	0.096375
522.663887	0.095851
522.880532	0.095741
523.097158	0.095833
523.313766	0.095835
523.530356	0.096500
523.746928	0.096471
523.963481	0.097193
524.180017	0.097412
524.396534	0.097537
524.613032	0.098827
524.829513	0.099137
525.045975	0.098618
525.262420	0.098455
525.478845	0.098557
525.695253	0.099122
525.911643	0.098831
526.128014	0.099052
526.344367	0.099947
526.560702	0.099839
526.777018	0.100003
526.993316	0.100648
527.209597	0.100814
527.425858	0.101079
527.642102	0.100447
527.858328	0.100889
528.074535	0.100699
528.290724	0.100297
528.506894	0.100566
528.723047	0.100545
528.939181	0.100813
529.155297	0.100611
529.371395	0.100643
529.587475	0.101059
529.803536	0.100658
530.019579	0.101067
530.235604	0.101173
530.451611	0.101606
530.667600	0.101649
530.883570	0.101822
531.099522	0.102359
531.315456	0.102546
531.531372	0.103417
531.747269	0.104146
531.963148	0.104332
532.179009	0.103818
532.394852	0.103585
532.610676	0.103897
532.826482	0.104163
533.042271	0.104380
533.258040	0.104279
533.473792	0.103681
533.689525	0.103694
533.905240	0.103483
534.120937	0.104566
534.336616	0.104758
534.552277	0.104505
534.767919	0.104647
534.983543	0.105205
535.199149	0.105380
535.414736	0.105911
535.630306	0.105489
535.845857	0.105551
536.061390	0.105561
536.276904	0.105556
536.492401	0.105881
536.707879	0.106164
536.923339	0.105776
537.138781	0.105864
537.354204	0.105786
537.569610	0.106232
537.784997	0.106631
538.000366	0.106749
538.215716	0.106862
538.431049	0.106826
538.646363	0.106402
538.861659	0.106697
539.076937	0.106843
539.292196	0.106974
539.507438	0.107136
539.722661	0.106966
539.937866	0.106604
540.153052	0.106564
540.368221	0.106937
540.583371	0.107234
540.798503	0.107219
541.013617	0.107562
541.228712	0.107938
541.443789	0.108295
541.658848	0.108358
541.873889	0.109305
542.088912	0.109528
542.303916	0.109436
542.518902	0.109570
542.733870	0.109680
542.948820	0.109875
543.163752	0.109684
543.378665	0.109712
543.593560	0.110227
543.808437	0.110138
544.023295	0.110064
544.238136	0.110558
544.452958	0.110637
544.667762	0.110737
544.882548	0.110826
545.097315	0.111024
545.312064	0.111236
545.526795	0.111139
545.741508	0.111130
545.956203	0.111427
546.170879	0.111945
546.385537	0.112394
546.600177	0.112627
546.814799	0.112961
547.029402	0.113307
547.243988	0.113319
547.458555	0.113319
547.673103	0.113552
547.887634	0.113797
548.102146	0.113688
548.316640	0.113704
548.531116	0.113586
548.745574	0.113865
548.960013	0.114137
549.174435	0.114061
549.388838	0.114100
549.603222	0.114105
549.817589	0.114155
550.031937	0.114034
550.246267	0.114067
550.460579	0.114470
550.674873	0.114070
550.889148	0.113995
551.103405	0.114118
551.317644	0.114237
551.531865	0.114328
551.746068	0.114799
551.960252	0.114737
552.174418	0.115210
552.388566	0.115434
552.602696	0.115392
552.816807	0.115202
553.030900	0.114917
553.244975	0.115401
553.459032	0.115403
553.673070	0.115366
553.887091	0.115858
554.101093	0.115463
554.315077	0.115425
554.529042	0.115962
554.742990	0.115826
554.956919	0.116117
555.170830	0.115784
555.384722	0.115755
555.598597	0.115625
555.812453	0.115371
556.026291	0.115422
556.240111	0.115498
556.453913	0.115342
556.667696	0.115953
556.881461	0.116215
557.095208	0.116491
557.308937	0.116558
557.522647	0.116652
557.736339	0.116704
557.950013	0.116695
558.163669	0.116568
558.377307	0.116885
558.590926	0.117047
558.804527	0.117644
559.018110	0.117774
559.231675	0.117790
559.445221	0.117869
559.658749	0.118097
559.872259	0.118510
560.085751	0.118992
560.299225	0.119098
560.512680	0.119256
560.726117	0.119075
560.939536	0.119343
561.152937	0.119687
561.366319	0.119778
561.579683	0.119944
561.793029	0.120174
562.006357	0.120197
562.219667	0.120081
562.432958	0.119602
562.646231	0.119948
562.859486	0.119824
563.072723	0.119953
563.285941	0.120373
563.499141	0.120292
563.712323	0.119962
563.925487	0.120039
564.138632	0.120115
564.351760	0.120453
564.564869	0.120231
564.777960	0.120312
564.991032	0.120284
565.204087	0.120034
565.417123	0.120162
565.630141	0.120078
565.843140	0.120108
566.056122	0.120202
566.269085	0.120236
566.482030	0.120097
566.694957	0.120277
566.907866	0.120419
567.120756	0.120737
567.333628	0.120514
567.546482	0.120891
567.759318	0.120854
567.972135	0.120849
568.184935	0.121065
568.397716	0.121338
568.610478	0.121482
568.823223	0.121580
569.035949	0.121409
569.248657	0.122152
569.461347	0.122566
569.674019	0.122881
569.886672	0.123398
570.099308	0.123151
570.311925	0.123087
570.524523	0.123327
570.737104	0.123261
570.949666	0.123283
571.162210	0.123256
571.374736	0.122910
571.587244	0.123097
571.799733	0.123021
572.012205	0.123584
572.224658	0.123761
572.437092	0.123806
572.649509	0.124054
572.861907	0.124528
573.074287	0.123980
573.286649	0.124037
573.498993	0.123727
573.711318	0.123558
573.923625	0.123464
574.135914	0.123303
574.348185	0.123136
574.560438	0.123271
574.772672	0.123299
574.984888	0.123961
575.197086	0.124220
575.409266	0.124387
575.621427	0.124705
575.833570	0.124833
576.045695	0.124850
576.257802	0.124825
576.469890	0.124983
576.681961	0.124751
576.894013	0.124445
577.106046	0.124694
577.318062	0.124604
577.530059	0.124900
577.742039	0.125103
577.954000	0.124976
578.165942	0.125243
578.377867	0.125374
578.589773	0.125571
578.801661	0.125866
579.013531	0.125599
579.225382	0.125567
579.437216	0.125093
579.649031	0.124895
579.860828	0.125542
580.072606	0.125790
580.284367	0.125513
580.496109	0.125704
580.707833	0.126031
580.919539	0.126631
581.131227	0.127129
581.342896	0.127290
581.554547	0.127733
581.766180	0.128081
581.977795	0.127713
582.189391	0.128030
582.400969	0.128073
582.612529	0.128285
582.824071	0.128120
583.035595	0.128265
583.247100	0.128577
583.458587	0.128595
583.670056	0.128303
583.881506	0.128892
584.092939	0.128829
584.304353	0.129057
584.515749	0.128949
584.727127	0.128958
584.938486	0.129170
585.149828	0.129416
585.361151	0.129174
585.572456	0.129788
585.783742	0.129858
585.995011	0.130221
586.206261	0.130378
586.417493	0.130460
586.628706	0.130739
586.839902	0.130801
587.051079	0.130749
587.262238	0.130819
587.473379	0.130456
587.684502	0.130646
587.895606	0.130383
588.106692	0.130359
588.317760	0.130322
588.528810	0.130242
588.739841	0.130230
588.950855	0.130383
589.161850	0.130590
589.372827	0.130944
589.583785	0.131084
589.794726	0.131533
590.005648	0.131556
590.216552	0.131568
590.427437	0.131793
590.638305	0.131902
590.849154	0.131805
591.059985	0.131934
591.270798	0.131551
591.481592	0.131258
591.692369	0.131271
591.903127	0.131562
592.113867	0.132061
592.324588	0.132066
592.535292	0.131940
592.745977	0.131977
592.956644	0.131814
593.167293	0.132045
593.377923	0.132411
593.588536	0.132833
593.799130	0.132855
594.009706	0.132790
594.220263	0.132705
594.430803	0.133057
594.641324	0.133602
594.851827	0.133859
595.062312	0.133989
595.272778	0.134237
595.483227	0.134150
595.693657	0.134077
595.904069	0.134232
596.114462	0.134898
596.324838	0.134733
596.535195	0.134508
596.745534	0.134715
596.955855	0.134867
597.166157	0.134966
597.376441	0.135106
597.586707	0.135427
597.796955	0.135402
598.007185	0.135365
598.217396	0.135492
598.427589	0.135516
598.637764	0.135642
598.847921	0.135667
599.058060	0.135728
599.268180	0.135840
599.478282	0.135920
599.688366	0.135979
599.898431	0.135763
600.108479	0.136191
600.318508	0.136264
600.528519	0.136427
600.738511	0.136739
600.948486	0.136654
601.158442	0.136540
601.368380	0.136532
601.578300	0.136785
601.788202	0.136776
601.998085	0.136837
602.207950	0.137070
602.417797	0.137258
602.627626	0.137450
602.837436	0.137366
603.047228	0.137536
603.257002	0.137551
603.466758	0.137473
603.676496	0.137905
603.886215	0.137825
604.095916	0.137927
604.305599	0.137813
604.515264	0.137900
604.724910	0.138288
604.934538	0.138727
605.144148	0.139098
605.353740	0.139307
605.563314	0.139558
605.772869	0.139970
605.982406	0.139990
606.191925	0.140325
606.401425	0.140545
606.610908	0.140572
606.820372	0.140035
607.029818	0.140050
607.239246	0.140283
607.448655	0.140120
607.658047	0.140045
607.867420	0.140499
608.076775	0.140562
608.286111	0.140360
608.495430	0.140173
608.704730	0.140513
608.914012	0.140527
609.123275	0.140269
609.332521	0.140333
609.541748	0.140262
609.750957	0.140037
609.960148	0.140088
610.169321	0.140125
610.378475	0.140429
610.587611	0.140406
610.796729	0.140502
611.005829	0.140730
611.214910	0.140726
611.423974	0.140667
611.633019	0.140475
611.842045	0.140590
612.051054	0.140844
612.260044	0.141284
612.469017	0.141405
612.677970	0.141355
612.886906	0.141620
613.095824	0.141617
613.304723	0.142015
613.513604	0.142289
613.722467	0.142487
613.931311	0.142155
614.140138	0.141691
614.348946	0.141397
614.557736	0.141724
614.766507	0.141447
614.975261	0.141534
615.183996	0.141423
615.392713	0.141479
615.601412	0.141279
615.810092	0.141481
616.018754	0.141688
616.227399	0.142080
616.436024	0.141923
616.644632	0.142230
616.853222	0.142654
617.061793	0.143004
617.270346	0.143327
617.478880	0.143312
617.687397	0.143734
617.895895	0.143694
618.104375	0.143654
618.312837	0.144040
618.521281	0.144187
618.729706	0.144196
618.938113	0.144288
619.146502	0.144136
619.354873	0.144535
619.563226	0.144511
619.771560	0.145015
619.979876	0.145400
620.188174	0.145562
620.396453	0.145573
620.604715	0.145494
620.812958	0.145293
621.021183	0.145509
621.229390	0.145486
621.437578	0.145407
621.645748	0.145323
621.853900	0.145314
622.062034	0.145184
622.270150	0.145068
622.478247	0.145278
622.686326	0.145373
622.894387	0.145153
623.102430	0.145261
623.310454	0.145420
623.518461	0.145461
623.726449	0.145409
623.934418	0.145402
624.142370	0.145729
624.350303	0.145730
624.558218	0.145565
624.766115	0.145748
624.973994	0.145661
625.181855	0.145720
625.389697	0.145769
625.597521	0.146029
625.805327	0.146092
626.013114	0.146086
626.220883	0.146105
626.428634	0.146169
626.636367	0.146294
626.844082	0.146690
627.051778	0.146755
627.259457	0.146890
627.467117	0.146877
627.674758	0.146983
627.882382	0.147203
628.089987	0.147530
628.297574	0.147667
628.505143	0.147835
628.712694	0.147787
628.920226	0.147930
629.127740	0.147870
629.335236	0.148034
629.542714	0.147971
629.750174	0.148250
629.957615	0.148064
630.165038	0.148470
630.372443	0.148745
630.579829	0.148800
630.787198	0.148835
630.994548	0.149093
631.201880	0.149314
631.409194	0.149675
631.616489	0.149344
631.823766	0.149473
632.031025	0.149470
632.238266	0.149385
632.445489	0.149325
632.652693	0.149418
632.859879	0.149595
633.067047	0.149517
633.274197	0.149403
633.481329	0.149420
633.688442	0.149739
633.895537	0.149694
634.102614	0.149827
634.309672	0.149934
634.516713	0.150155
634.723735	0.149876
634.930739	0.149887
635.137724	0.150236
635.344692	0.150473
635.551641	0.150296
635.758572	0.150552
635.965485	0.150765
636.172379	0.150805
636.379256	0.150800
636.586114	0.151080
636.792954	0.151114
636.999775	0.151118
637.206579	0.151371
637.413364	0.151567
637.620131	0.151769
637.826880	0.151804
638.033610	0.152039
638.240323	0.151988
638.447017	0.152245
638.653692	0.152627
638.860350	0.152504
639.066990	0.152427
639.273611	0.152421
639.480214	0.152057
639.686798	0.152192
639.893365	0.152390
640.099913	0.152694
640.306443	0.152535
640.512955	0.152176
640.719449	0.152292
640.925924	0.152184
641.132381	0.152262
641.338820	0.152643
641.545241	0.152402
641.751644	0.152234
641.958028	0.152220
642.164394	0.152235
642.370742	0.152490
642.577071	0.152485
642.783383	0.152768
642.989676	0.152949
643.195951	0.153002
643.402207	0.153160
643.608446	0.153336
643.814666	0.153468
644.020868	0.153595
644.227052	0.153513
644.433218	0.153528
644.639365	0.153526
644.845494	0.153456
645.051605	0.153449
645.257698	0.153612
645.463772	0.153648
645.669828	0.153691
645.875866	0.153986
646.081886	0.154263
646.287888	0.154561
646.493871	0.154708
646.699836	0.154778
646.905783	0.154865
647.111712	0.154887
647.317622	0.154889
647.523514	0.154967
647.729388	0.154963
647.935244	0.154907
648.141082	0.154990
648.346901	0.155031
648.552702	0.155334
648.758485	0.155466
648.964250	0.155705
649.169996	0.155935
649.375724	0.155996
649.581434	0.155938
649.787126	0.156392
649.992800	0.156441
650.198455	0.156509
650.404092	0.156423
650.609711	0.156440
650.815311	0.156154
651.020894	0.156129
651.226458	0.156217
651.432004	0.156442
651.637532	0.156396
651.843041	0.156404
652.048532	0.156342
652.254006	0.156380
652.459460	0.156361
652.664897	0.156712
652.870315	0.156691
653.075716	0.156615
653.281097	0.156509
653.486461	0.156663
653.691807	0.156738
653.897134	0.156953
654.102443	0.157172
654.307734	0.157336
654.513006	0.157415
654.718261	0.157571
654.923497	0.157881
655.128715	0.157969
655.333915	0.157930
655.539096	0.158013
655.744259	0.158167
655.949404	0.158213
656.154531	0.158569
656.359640	0.158535
656.564730	0.158790
656.769802	0.158955
656.974856	0.159218
657.179892	0.159480
657.384909	0.159540
657.589908	0.159791
657.794889	0.159925
657.999852	0.160187
658.204797	0.160294
658.409723	0.160347
658.614631	0.160360
658.819521	0.160470
659.024393	0.160311
659.229246	0.160542
659.434081	0.160392
659.638898	0.160735
659.843697	0.160486
660.048478	0.160924
660.253240	0.161024
660.457984	0.161078
660.662710	0.160989
660.867417	0.161202
661.072107	0.161223
661.276778	0.161445
661.481431	0.161481
661.686066	0.161566
661.890682	0.161442
662.095281	0.161664
662.299861	0.161640
662.504422	0.161823
662.708966	0.161847
662.913491	0.162171
663.117999	0.162221
663.322488	0.162148
663.526958	0.162431
663.731411	0.162714
663.935845	0.162816
664.140261	0.163090
664.344659	0.163173
664.549038	0.163347
664.753400	0.163203
664.957743	0.163425
665.162068	0.163593
665.366375	0.163560
665.570663	0.163460
665.774933	0.163486
665.979185	0.163464
666.183419	0.163647
666.387635	0.163715
666.591832	0.163898
666.796011	0.163851
667.000172	0.163888
667.204315	0.164153
667.408439	0.164361
667.612545	0.164323
667.816634	0.164386
668.020703	0.164483
668.224755	0.164661
668.428788	0.164744
668.632803	0.164802
668.836800	0.164938
669.040779	0.165237
669.244739	0.165266
669.448681	0.165488
669.652605	0.165737
669.856511	0.165748
670.060399	0.165691
670.264268	0.165890
670.468119	0.166091
670.671952	0.166063
670.875767	0.165782
671.079563	0.165978
671.283341	0.165897
671.487101	0.165936
671.690843	0.166093
671.894567	0.166429
672.098272	0.166546
672.301959	0.166590
672.505628	0.166739
672.709278	0.166975
672.912911	0.167083
673.116525	0.167363
673.320121	0.167498
673.523699	0.167620
673.727258	0.167664
673.930799	0.167893
674.134322	0.168250
674.337827	0.168302
674.541314	0.168430
674.744782	0.168404
674.948232	0.168651
675.151664	0.168838
675.355078	0.168916
675.558474	0.169269
675.761851	0.169194
675.965210	0.169193
676.168551	0.169542
676.371873	0.169563
676.575178	0.169710
676.778464	0.169571
676.981732	0.169418
677.184981	0.169641
677.388213	0.169552
677.591426	0.169545
677.794621	0.169629
677.997798	0.169454
678.200956	0.169635
678.404097	0.169783
678.607219	0.170018
678.810323	0.170331
679.013408	0.170375
679.216476	0.170565
679.419525	0.170857
679.622556	0.170828
679.825569	0.171311
680.028563	0.171310
680.231540	0.171437
680.434498	0.171425
680.637438	0.171366
680.840359	0.171509
681.043263	0.171612
681.246148	0.171667
681.449015	0.171840
681.651864	0.171588
681.854694	0.171604
682.057506	0.171769
682.260301	0.171737
682.463076	0.172057
682.665834	0.171963
682.868573	0.171804
683.071295	0.171832
683.273998	0.171933
683.476682	0.172279
683.679349	0.172561
683.881997	0.172518
684.084627	0.173060
684.287239	0.173227
684.489833	0.173705
684.692408	0.173895
684.894965	0.174017
685.097504	0.174205
685.300025	0.174072
685.502527	0.174053
685.705012	0.174075
685.907478	0.173954
686.109925	0.173914
686.312355	0.173934
686.514766	0.174087
686.717159	0.174489
686.919534	0.174577
687.121891	0.174710
687.324230	0.174758
687.526550	0.174967
687.728852	0.174988
687.931136	0.175037
688.133401	0.175137
688.335649	0.175226
688.537878	0.175020
688.740089	0.174988
688.942281	0.175089
689.144456	0.175514
689.346612	0.175654
689.548750	0.175871
689.750870	0.176147
689.952971	0.176048
690.155055	0.176152
690.357120	0.176262
690.559167	0.176437
690.761195	0.176495
690.963206	0.176252
691.165198	0.176393
691.367172	0.176560
691.569128	0.176573
691.771065	0.176769
691.972984	0.176583
692.174885	0.176768
692.376768	0.177010
692.578633	0.177291
692.780479	0.177733
692.982308	0.177756
693.184118	0.177813
693.385909	0.177770
