sample name	sample
index	1051
start time	 04-19-2021  02:38:06 PM


Wavelength (nm)	Absorbance
494.344910	-0.053340
494.563924	-0.053340
494.782919	-0.053340
495.001897	0.002740
495.220856	0.061588
495.439797	0.039624
495.658719	-0.004955
495.877624	0.004630
496.096510	0.002984
496.315378	0.003204
496.534227	-0.017342
496.753059	-0.058505
496.971872	-0.066262
497.190667	0.116050
497.409444	0.161254
497.628203	0.174019
497.846943	0.177980
498.065665	0.179118
498.284369	0.181869
498.503055	0.182485
498.721723	0.182707
498.940372	0.182713
499.159003	0.180762
499.377616	0.179784
499.596210	0.179777
499.814787	0.179250
500.033345	0.179465
500.251885	0.178301
500.470406	0.177676
500.688910	0.177917
500.907395	0.179126
501.125862	0.181331
501.344311	0.181027
501.562742	0.180999
501.781154	0.180315
501.999548	0.180108
502.217924	0.180846
502.436282	0.181301
502.654621	0.181308
502.872942	0.180262
503.091245	0.180194
503.309530	0.181015
503.527797	0.180012
503.746045	0.179998
503.964275	0.179882
504.182487	0.180731
504.400681	0.180276
504.618856	0.182380
504.837013	0.182719
505.055152	0.182334
505.273273	0.182831
505.491376	0.184416
505.709460	0.185693
505.927526	0.186095
506.145574	0.184833
506.363604	0.186651
506.581615	0.186296
506.799608	0.186094
507.017583	0.186396
507.235540	0.186049
507.453478	0.187290
507.671399	0.187346
507.889301	0.187756
508.107185	0.188272
508.325050	0.186871
508.542898	0.186500
508.760727	0.187624
508.978538	0.187797
509.196330	0.188549
509.414105	0.188272
509.631861	0.188268
509.849599	0.188545
510.067319	0.188327
510.285021	0.189644
510.502704	0.189516
510.720369	0.189519
510.938016	0.190408
511.155645	0.190177
511.373255	0.189562
511.590848	0.189903
511.808422	0.190427
512.025977	0.191713
512.243515	0.191507
512.461034	0.192425
512.678536	0.193292
512.896018	0.193286
513.113483	0.193630
513.330930	0.192490
513.548358	0.193849
513.765768	0.194179
513.983160	0.193383
514.200533	0.193794
514.417889	0.193603
514.635226	0.193736
514.852545	0.192966
515.069845	0.192983
515.287128	0.193958
515.504392	0.192700
515.721638	0.192472
515.938866	0.192827
516.156075	0.193501
516.373267	0.193756
516.590440	0.193814
516.807594	0.194327
517.024731	0.194448
517.241850	0.194905
517.458950	0.195673
517.676032	0.196658
517.893095	0.197186
518.110141	0.196182
518.327168	0.196402
518.544177	0.195631
518.761168	0.195927
518.978141	0.196734
519.195095	0.197557
519.412031	0.197732
519.628949	0.197407
519.845849	0.197811
520.062731	0.198787
520.279594	0.199179
520.496439	0.199742
520.713266	0.200484
520.930074	0.201112
521.146865	0.200569
521.363637	0.200219
521.580391	0.200388
521.797127	0.200929
522.013844	0.201303
522.230543	0.201651
522.447224	0.201890
522.663887	0.202622
522.880532	0.201954
523.097158	0.202575
523.313766	0.203779
523.530356	0.203862
523.746928	0.203833
523.963481	0.203809
524.180017	0.203750
524.396534	0.204986
524.613032	0.205299
524.829513	0.206266
525.045975	0.206877
525.262420	0.206881
525.478845	0.207208
525.695253	0.207159
525.911643	0.207800
526.128014	0.209048
526.344367	0.209138
526.560702	0.209941
526.777018	0.209410
526.993316	0.209708
527.209597	0.209660
527.425858	0.210327
527.642102	0.211104
527.858328	0.211775
528.074535	0.211324
528.290724	0.211126
528.506894	0.210893
528.723047	0.212145
528.939181	0.212456
529.155297	0.213174
529.371395	0.213157
529.587475	0.213630
529.803536	0.213352
530.019579	0.213714
530.235604	0.214091
530.451611	0.214466
530.667600	0.214186
530.883570	0.214969
531.099522	0.215305
531.315456	0.215784
531.531372	0.216193
531.747269	0.216072
531.963148	0.216229
532.179009	0.216867
532.394852	0.216939
532.610676	0.217593
532.826482	0.217586
533.042271	0.217807
533.258040	0.218373
533.473792	0.218581
533.689525	0.218566
533.905240	0.219045
534.120937	0.219306
534.336616	0.219768
534.552277	0.219890
534.767919	0.219916
534.983543	0.220313
535.199149	0.220723
535.414736	0.221015
535.630306	0.222095
535.845857	0.222625
536.061390	0.222920
536.276904	0.223431
536.492401	0.223456
536.707879	0.223509
536.923339	0.223781
537.138781	0.223593
537.354204	0.223683
537.569610	0.224187
537.784997	0.224114
538.000366	0.224395
538.215716	0.224452
538.431049	0.224668
538.646363	0.225440
538.861659	0.224772
539.076937	0.224992
539.292196	0.225362
539.507438	0.225286
539.722661	0.225326
539.937866	0.225199
540.153052	0.225301
540.368221	0.225787
540.583371	0.225866
540.798503	0.227287
541.013617	0.228408
541.228712	0.229112
541.443789	0.229259
541.658848	0.229550
541.873889	0.230250
542.088912	0.231082
542.303916	0.230633
542.518902	0.231209
542.733870	0.231514
542.948820	0.231489
543.163752	0.231816
543.378665	0.232289
543.593560	0.232887
543.808437	0.232837
544.023295	0.233147
544.238136	0.234142
544.452958	0.234505
544.667762	0.234471
544.882548	0.234374
545.097315	0.233807
545.312064	0.234289
545.526795	0.234572
545.741508	0.235392
545.956203	0.235143
546.170879	0.235601
546.385537	0.234920
546.600177	0.235425
546.814799	0.235961
547.029402	0.236627
547.243988	0.236547
547.458555	0.237053
547.673103	0.237047
547.887634	0.237428
548.102146	0.237718
548.316640	0.239004
548.531116	0.239403
548.745574	0.239808
548.960013	0.240262
549.174435	0.240809
549.388838	0.241092
549.603222	0.240964
549.817589	0.241270
550.031937	0.241583
550.246267	0.241886
550.460579	0.242125
550.674873	0.242650
550.889148	0.242932
551.103405	0.242807
551.317644	0.243315
551.531865	0.244096
551.746068	0.244323
551.960252	0.244588
552.174418	0.244257
552.388566	0.244559
552.602696	0.244243
552.816807	0.244446
553.030900	0.245451
553.244975	0.245346
553.459032	0.245938
553.673070	0.246061
553.887091	0.246311
554.101093	0.246899
554.315077	0.246713
554.529042	0.246672
554.742990	0.246512
554.956919	0.245812
555.170830	0.246170
555.384722	0.245809
555.598597	0.246257
555.812453	0.246339
556.026291	0.246215
556.240111	0.246555
556.453913	0.247060
556.667696	0.247322
556.881461	0.247883
557.095208	0.247922
557.308937	0.248628
557.522647	0.248492
557.736339	0.248777
557.950013	0.248892
558.163669	0.249080
558.377307	0.249368
558.590926	0.249589
558.804527	0.249991
559.018110	0.250131
559.231675	0.249805
559.445221	0.250191
559.658749	0.250335
559.872259	0.250463
560.085751	0.250755
560.299225	0.250691
560.512680	0.250664
560.726117	0.250582
560.939536	0.250727
561.152937	0.250951
561.366319	0.251228
561.579683	0.251127
561.793029	0.251891
562.006357	0.251995
562.219667	0.252436
562.432958	0.253051
562.646231	0.253304
562.859486	0.253170
563.072723	0.253465
563.285941	0.253500
563.499141	0.253740
563.712323	0.253982
563.925487	0.254108
564.138632	0.253968
564.351760	0.253476
564.564869	0.253921
564.777960	0.254532
564.991032	0.254515
565.204087	0.254453
565.417123	0.254503
565.630141	0.254016
565.843140	0.254303
566.056122	0.254453
566.269085	0.254934
566.482030	0.254580
566.694957	0.254370
566.907866	0.254423
567.120756	0.254810
567.333628	0.255021
567.546482	0.255498
567.759318	0.255488
567.972135	0.255969
568.184935	0.256067
568.397716	0.256062
568.610478	0.255881
568.823223	0.256169
569.035949	0.255851
569.248657	0.256096
569.461347	0.255879
569.674019	0.255614
569.886672	0.255356
570.099308	0.255700
570.311925	0.256158
570.524523	0.256453
570.737104	0.256495
570.949666	0.256761
571.162210	0.256697
571.374736	0.257186
571.587244	0.257895
571.799733	0.257982
572.012205	0.258211
572.224658	0.258001
572.437092	0.258685
572.649509	0.259144
572.861907	0.259210
573.074287	0.259470
573.286649	0.259484
573.498993	0.259664
573.711318	0.260199
573.923625	0.260163
574.135914	0.260832
574.348185	0.260908
574.560438	0.260672
574.772672	0.260978
574.984888	0.261415
575.197086	0.261663
575.409266	0.261407
575.621427	0.261618
575.833570	0.261921
576.045695	0.262157
576.257802	0.262570
576.469890	0.262935
576.681961	0.263242
576.894013	0.263473
577.106046	0.263824
577.318062	0.264039
577.530059	0.264149
577.742039	0.264159
577.954000	0.264034
578.165942	0.264066
578.377867	0.264367
578.589773	0.264635
578.801661	0.264723
579.013531	0.264317
579.225382	0.264547
579.437216	0.264701
579.649031	0.265007
579.860828	0.265060
580.072606	0.264891
580.284367	0.264581
580.496109	0.264862
580.707833	0.264677
580.919539	0.265315
581.131227	0.265340
581.342896	0.265571
581.554547	0.265235
581.766180	0.265708
581.977795	0.265947
582.189391	0.266244
582.400969	0.266095
582.612529	0.266568
582.824071	0.266468
583.035595	0.266875
583.247100	0.267106
583.458587	0.267456
583.670056	0.267613
583.881506	0.267718
584.092939	0.267881
584.304353	0.268080
584.515749	0.268607
584.727127	0.269120
584.938486	0.269276
585.149828	0.269167
585.361151	0.269237
585.572456	0.269565
585.783742	0.270019
585.995011	0.270289
586.206261	0.270834
586.417493	0.270813
586.628706	0.270850
586.839902	0.270902
587.051079	0.271079
587.262238	0.271597
587.473379	0.271292
587.684502	0.271297
587.895606	0.271014
588.106692	0.270567
588.317760	0.270655
588.528810	0.270793
588.739841	0.270757
588.950855	0.271282
589.161850	0.271758
589.372827	0.272147
589.583785	0.272053
589.794726	0.272651
590.005648	0.273118
590.216552	0.273035
590.427437	0.272867
590.638305	0.273546
590.849154	0.273269
591.059985	0.273359
591.270798	0.273149
591.481592	0.273372
591.692369	0.273306
591.903127	0.273396
592.113867	0.273728
592.324588	0.274121
592.535292	0.273799
592.745977	0.274263
592.956644	0.274143
593.167293	0.274720
593.377923	0.274804
593.588536	0.275261
593.799130	0.275049
594.009706	0.275164
594.220263	0.275432
594.430803	0.275569
594.641324	0.275573
594.851827	0.275677
595.062312	0.275940
595.272778	0.276138
595.483227	0.276091
595.693657	0.276635
595.904069	0.277063
596.114462	0.277534
596.324838	0.278159
596.535195	0.278386
596.745534	0.278975
596.955855	0.278888
597.166157	0.279675
597.376441	0.280204
597.586707	0.280639
597.796955	0.280384
598.007185	0.280386
598.217396	0.280299
598.427589	0.280304
598.637764	0.280544
598.847921	0.281054
599.058060	0.280742
599.268180	0.280888
599.478282	0.281049
599.688366	0.281104
599.898431	0.281183
600.108479	0.281613
600.318508	0.282109
600.528519	0.282027
600.738511	0.282502
600.948486	0.282754
601.158442	0.282883
601.368380	0.282756
601.578300	0.283209
601.788202	0.283499
601.998085	0.283818
602.207950	0.283804
602.417797	0.283870
602.627626	0.283748
602.837436	0.284004
603.047228	0.284071
603.257002	0.284152
603.466758	0.284405
603.676496	0.284410
603.886215	0.284585
604.095916	0.284623
604.305599	0.284708
604.515264	0.284420
604.724910	0.284225
604.934538	0.284723
605.144148	0.285199
605.353740	0.285298
605.563314	0.285477
605.772869	0.285061
605.982406	0.285434
606.191925	0.285733
606.401425	0.286292
606.610908	0.286947
606.820372	0.286709
607.029818	0.286765
607.239246	0.286702
607.448655	0.286673
607.658047	0.287239
607.867420	0.287222
608.076775	0.286892
608.286111	0.286888
608.495430	0.286760
608.704730	0.286981
608.914012	0.286922
609.123275	0.287146
609.332521	0.287551
609.541748	0.287507
609.750957	0.287422
609.960148	0.288001
610.169321	0.287983
610.378475	0.287864
610.587611	0.288140
610.796729	0.288342
611.005829	0.288464
611.214910	0.288432
611.423974	0.288639
611.633019	0.289396
611.842045	0.289717
612.051054	0.290148
612.260044	0.290377
612.469017	0.290418
612.677970	0.290631
612.886906	0.290712
613.095824	0.290636
613.304723	0.290833
613.513604	0.290616
613.722467	0.290432
613.931311	0.290520
614.140138	0.290906
614.348946	0.291095
614.557736	0.291325
614.766507	0.291586
614.975261	0.292271
615.183996	0.292335
615.392713	0.292550
615.601412	0.292975
615.810092	0.293112
616.018754	0.293219
616.227399	0.293296
616.436024	0.293512
616.644632	0.293676
616.853222	0.293571
617.061793	0.293701
617.270346	0.293738
617.478880	0.293962
617.687397	0.293806
617.895895	0.293944
618.104375	0.294244
618.312837	0.294231
618.521281	0.294462
618.729706	0.294405
618.938113	0.294590
619.146502	0.294535
619.354873	0.294489
619.563226	0.294904
619.771560	0.294872
619.979876	0.294738
620.188174	0.294868
620.396453	0.294929
620.604715	0.295339
620.812958	0.295731
621.021183	0.296315
621.229390	0.296553
621.437578	0.296862
621.645748	0.297083
621.853900	0.297555
622.062034	0.297637
622.270150	0.297862
622.478247	0.297849
622.686326	0.297759
622.894387	0.297729
623.102430	0.297928
623.310454	0.298040
623.518461	0.298371
623.726449	0.298356
623.934418	0.298731
624.142370	0.298508
624.350303	0.298683
624.558218	0.298884
624.766115	0.299151
624.973994	0.299068
625.181855	0.299117
625.389697	0.299376
625.597521	0.299455
625.805327	0.299456
626.013114	0.299863
626.220883	0.300133
626.428634	0.300368
626.636367	0.300328
626.844082	0.300290
627.051778	0.300290
627.259457	0.300522
627.467117	0.300443
627.674758	0.300536
627.882382	0.300775
628.089987	0.300844
628.297574	0.300823
628.505143	0.301206
628.712694	0.301740
628.920226	0.302173
629.127740	0.302037
629.335236	0.302377
629.542714	0.302679
629.750174	0.302653
629.957615	0.302968
630.165038	0.303407
630.372443	0.303486
630.579829	0.303673
630.787198	0.303710
630.994548	0.303768
631.201880	0.304099
631.409194	0.304137
631.616489	0.304399
631.823766	0.304596
632.031025	0.304459
632.238266	0.304642
632.445489	0.304792
632.652693	0.305019
632.859879	0.305283
633.067047	0.305555
633.274197	0.306025
633.481329	0.306442
633.688442	0.306640
633.895537	0.307086
634.102614	0.307280
634.309672	0.307609
634.516713	0.307794
634.723735	0.308010
634.930739	0.308021
635.137724	0.308271
635.344692	0.308366
635.551641	0.308438
635.758572	0.308464
635.965485	0.308852
636.172379	0.309039
636.379256	0.309202
636.586114	0.309593
636.792954	0.309944
636.999775	0.310166
637.206579	0.310519
637.413364	0.310647
637.620131	0.310757
637.826880	0.310733
638.033610	0.310811
638.240323	0.311293
638.447017	0.311256
638.653692	0.311662
638.860350	0.311342
639.066990	0.311198
639.273611	0.311657
639.480214	0.311915
639.686798	0.312161
639.893365	0.312038
640.099913	0.311798
640.306443	0.311795
640.512955	0.311361
640.719449	0.311967
640.925924	0.312424
641.132381	0.312395
641.338820	0.312642
641.545241	0.312752
641.751644	0.313161
641.958028	0.313384
642.164394	0.313764
642.370742	0.313966
642.577071	0.313959
642.783383	0.314005
642.989676	0.314259
643.195951	0.314457
643.402207	0.314992
643.608446	0.314839
643.814666	0.315035
644.020868	0.315313
644.227052	0.315695
644.433218	0.315850
644.639365	0.315865
644.845494	0.315872
645.051605	0.316061
645.257698	0.315638
645.463772	0.316220
645.669828	0.316610
645.875866	0.316582
646.081886	0.316500
646.287888	0.316643
646.493871	0.317076
646.699836	0.317507
646.905783	0.317480
647.111712	0.318025
647.317622	0.318281
647.523514	0.318216
647.729388	0.318353
647.935244	0.318817
648.141082	0.319223
648.346901	0.319407
648.552702	0.319482
648.758485	0.319948
648.964250	0.320118
649.169996	0.319933
649.375724	0.320265
649.581434	0.320698
649.787126	0.320917
649.992800	0.320943
650.198455	0.320830
650.404092	0.320988
650.609711	0.320993
650.815311	0.321105
651.020894	0.321322
651.226458	0.321257
651.432004	0.321119
651.637532	0.321174
651.843041	0.321215
652.048532	0.321547
652.254006	0.321667
652.459460	0.322046
652.664897	0.322433
652.870315	0.322537
653.075716	0.322889
653.281097	0.323371
653.486461	0.323769
653.691807	0.324082
653.897134	0.324396
654.102443	0.324475
654.307734	0.324776
654.513006	0.324560
654.718261	0.325252
654.923497	0.325464
655.128715	0.325550
655.333915	0.325891
655.539096	0.326239
655.744259	0.326361
655.949404	0.326937
656.154531	0.326747
656.359640	0.327161
656.564730	0.327068
656.769802	0.327260
656.974856	0.327553
657.179892	0.327696
657.384909	0.327623
657.589908	0.327866
657.794889	0.327820
657.999852	0.328068
658.204797	0.328355
658.409723	0.328697
658.614631	0.328978
658.819521	0.328997
659.024393	0.329105
659.229246	0.329547
659.434081	0.329642
659.638898	0.329741
659.843697	0.329983
660.048478	0.330452
660.253240	0.330699
660.457984	0.330942
660.662710	0.331340
660.867417	0.331397
661.072107	0.331537
661.276778	0.332042
661.481431	0.332559
661.686066	0.332830
661.890682	0.332867
662.095281	0.333087
662.299861	0.333179
662.504422	0.333266
662.708966	0.333489
662.913491	0.333813
663.117999	0.333696
663.322488	0.333811
663.526958	0.333982
663.731411	0.334113
663.935845	0.334177
664.140261	0.334325
664.344659	0.334634
664.549038	0.334973
664.753400	0.335120
664.957743	0.335579
665.162068	0.336077
665.366375	0.336368
665.570663	0.336723
665.774933	0.337136
665.979185	0.337777
666.183419	0.338021
666.387635	0.338374
666.591832	0.338640
666.796011	0.338765
667.000172	0.338751
667.204315	0.338966
667.408439	0.339065
667.612545	0.339257
667.816634	0.339205
668.020703	0.339640
668.224755	0.339953
668.428788	0.340276
668.632803	0.340517
668.836800	0.340747
669.040779	0.340957
669.244739	0.341121
669.448681	0.341438
669.652605	0.341567
669.856511	0.341730
670.060399	0.341786
670.264268	0.341806
670.468119	0.341933
670.671952	0.342056
670.875767	0.342153
671.079563	0.342231
671.283341	0.342233
671.487101	0.342532
671.690843	0.342544
671.894567	0.342850
672.098272	0.343032
672.301959	0.343343
672.505628	0.343619
672.709278	0.344078
672.912911	0.344491
673.116525	0.345071
673.320121	0.345557
673.523699	0.346123
673.727258	0.346152
673.930799	0.346753
674.134322	0.347176
674.337827	0.347364
674.541314	0.347713
674.744782	0.348084
674.948232	0.348139
675.151664	0.348376
675.355078	0.348450
675.558474	0.348997
675.761851	0.349137
675.965210	0.349540
676.168551	0.349825
676.371873	0.349931
676.575178	0.350179
676.778464	0.350309
676.981732	0.350365
677.184981	0.350302
677.388213	0.350461
677.591426	0.350610
677.794621	0.350622
677.997798	0.351006
678.200956	0.351303
678.404097	0.351381
678.607219	0.351495
678.810323	0.351759
679.013408	0.352216
679.216476	0.352405
679.419525	0.352422
679.622556	0.352481
679.825569	0.352641
680.028563	0.352872
680.231540	0.353056
680.434498	0.353442
680.637438	0.353718
680.840359	0.354078
681.043263	0.354348
681.246148	0.354891
681.449015	0.355184
681.651864	0.355309
681.854694	0.355511
682.057506	0.355667
682.260301	0.355995
682.463076	0.356218
682.665834	0.356242
682.868573	0.356332
683.071295	0.356371
683.273998	0.356269
683.476682	0.356196
683.679349	0.356289
683.881997	0.356326
684.084627	0.356254
684.287239	0.355908
684.489833	0.355885
684.692408	0.355641
684.894965	0.355883
685.097504	0.356172
685.300025	0.356747
685.502527	0.356635
685.705012	0.357072
685.907478	0.357333
686.109925	0.357670
686.312355	0.357978
686.514766	0.358382
686.717159	0.358503
686.919534	0.358619
687.121891	0.358405
687.324230	0.358891
687.526550	0.358917
687.728852	0.359189
687.931136	0.359536
688.133401	0.359941
688.335649	0.360246
688.537878	0.360261
688.740089	0.360813
688.942281	0.361260
689.144456	0.361313
689.346612	0.361635
689.548750	0.361708
689.750870	0.361897
689.952971	0.362067
690.155055	0.362580
690.357120	0.362943
690.559167	0.362799
690.761195	0.362840
690.963206	0.362980
691.165198	0.362750
691.367172	0.362942
691.569128	0.363234
691.771065	0.363364
691.972984	0.363386
692.174885	0.363596
692.376768	0.363906
692.578633	0.364138
692.780479	0.364315
692.982308	0.365004
693.184118	0.365099
693.385909	0.365238
