sample name	sample
index	1421
start time	 05-10-2021  12:07:58 PM


Wavelength (nm)	Absorbance
494.344910	0.050005
494.563924	0.050005
494.782919	0.050005
495.001897	0.006077
495.220856	0.001081
495.439797	0.001605
495.658719	0.000232
495.877624	0.002338
496.096510	-0.004450
496.315378	-0.016153
496.534227	-0.010570
496.753059	-0.003280
496.971872	0.002384
497.190667	0.063707
497.409444	0.090481
497.628203	0.102702
497.846943	0.108379
498.065665	0.113524
498.284369	0.116185
498.503055	0.117461
498.721723	0.118678
498.940372	0.120140
499.159003	0.120107
499.377616	0.120500
499.596210	0.119937
499.814787	0.118415
500.033345	0.117961
500.251885	0.118104
500.470406	0.118027
500.688910	0.118264
500.907395	0.118003
501.125862	0.118120
501.344311	0.117471
501.562742	0.117069
501.781154	0.118093
501.999548	0.117854
502.217924	0.117856
502.436282	0.117628
502.654621	0.116725
502.872942	0.117541
503.091245	0.117590
503.309530	0.118146
503.527797	0.119476
503.746045	0.119646
503.964275	0.118965
504.182487	0.119235
504.400681	0.119874
504.618856	0.120158
504.837013	0.119185
505.055152	0.118437
505.273273	0.117332
505.491376	0.116646
505.709460	0.116370
505.927526	0.116508
506.145574	0.115608
506.363604	0.115608
506.581615	0.116455
506.799608	0.116842
507.017583	0.117233
507.235540	0.117748
507.453478	0.117932
507.671399	0.118074
507.889301	0.118423
508.107185	0.119548
508.325050	0.119150
508.542898	0.119268
508.760727	0.118975
508.978538	0.119462
509.196330	0.119392
509.414105	0.119105
509.631861	0.119035
509.849599	0.119645
510.067319	0.119908
510.285021	0.120247
510.502704	0.119591
510.720369	0.119692
510.938016	0.119845
511.155645	0.120495
511.373255	0.120274
511.590848	0.121146
511.808422	0.120964
512.025977	0.121174
512.243515	0.121148
512.461034	0.121648
512.678536	0.122748
512.896018	0.122897
513.113483	0.122411
513.330930	0.123269
513.548358	0.122398
513.765768	0.122151
513.983160	0.121619
514.200533	0.122117
514.417889	0.121315
514.635226	0.120207
514.852545	0.120491
515.069845	0.120607
515.287128	0.119440
515.504392	0.119176
515.721638	0.120001
515.938866	0.120106
516.156075	0.119654
516.373267	0.120698
516.590440	0.120792
516.807594	0.120189
517.024731	0.121036
517.241850	0.121512
517.458950	0.122753
517.676032	0.123046
517.893095	0.123327
518.110141	0.123522
518.327168	0.122914
518.544177	0.124080
518.761168	0.124928
518.978141	0.124722
519.195095	0.125348
519.412031	0.124991
519.628949	0.124570
519.845849	0.125353
520.062731	0.126053
520.279594	0.127232
520.496439	0.127039
520.713266	0.126461
520.930074	0.126223
521.146865	0.125645
521.363637	0.126299
521.580391	0.126136
521.797127	0.126152
522.013844	0.125492
522.230543	0.124800
522.447224	0.124455
522.663887	0.124567
522.880532	0.125193
523.097158	0.126161
523.313766	0.125474
523.530356	0.126288
523.746928	0.126157
523.963481	0.127264
524.180017	0.127942
524.396534	0.128642
524.613032	0.129145
524.829513	0.128749
525.045975	0.128383
525.262420	0.129146
525.478845	0.129148
525.695253	0.129606
525.911643	0.129177
526.128014	0.129230
526.344367	0.128471
526.560702	0.129249
526.777018	0.130085
526.993316	0.130165
527.209597	0.130230
527.425858	0.129939
527.642102	0.129229
527.858328	0.129416
528.074535	0.129817
528.290724	0.130551
528.506894	0.129958
528.723047	0.130236
528.939181	0.130736
529.155297	0.130900
529.371395	0.131245
529.587475	0.131899
529.803536	0.132610
530.019579	0.132285
530.235604	0.132465
530.451611	0.132854
530.667600	0.132260
530.883570	0.132110
531.099522	0.131465
531.315456	0.132191
531.531372	0.132110
531.747269	0.131943
531.963148	0.132285
532.179009	0.132446
532.394852	0.132321
532.610676	0.132709
532.826482	0.132823
533.042271	0.133305
533.258040	0.132638
533.473792	0.132929
533.689525	0.132129
533.905240	0.132561
534.120937	0.132850
534.336616	0.132924
534.552277	0.132889
534.767919	0.133118
534.983543	0.133795
535.199149	0.134223
535.414736	0.133997
535.630306	0.134986
535.845857	0.134987
536.061390	0.134685
536.276904	0.134488
536.492401	0.134234
536.707879	0.134437
536.923339	0.134091
537.138781	0.134017
537.354204	0.134453
537.569610	0.134301
537.784997	0.134080
538.000366	0.134494
538.215716	0.135151
538.431049	0.135786
538.646363	0.136497
538.861659	0.136387
539.076937	0.136445
539.292196	0.136355
539.507438	0.136565
539.722661	0.136604
539.937866	0.136273
540.153052	0.136573
540.368221	0.136693
540.583371	0.136565
540.798503	0.137078
541.013617	0.137298
541.228712	0.137684
541.443789	0.137314
541.658848	0.137807
541.873889	0.138279
542.088912	0.137986
542.303916	0.138397
542.518902	0.138093
542.733870	0.137987
542.948820	0.138075
543.163752	0.138231
543.378665	0.138892
543.593560	0.138939
543.808437	0.139086
544.023295	0.139320
544.238136	0.139001
544.452958	0.139402
544.667762	0.140040
544.882548	0.140469
545.097315	0.140493
545.312064	0.140556
545.526795	0.140621
545.741508	0.140896
545.956203	0.140749
546.170879	0.140779
546.385537	0.140965
546.600177	0.141258
546.814799	0.141309
547.029402	0.141250
547.243988	0.141113
547.458555	0.141143
547.673103	0.140965
547.887634	0.141291
548.102146	0.141542
548.316640	0.141204
548.531116	0.141260
548.745574	0.141080
548.960013	0.141230
549.174435	0.141781
549.388838	0.141435
549.603222	0.141771
549.817589	0.142148
550.031937	0.142350
550.246267	0.142927
550.460579	0.142707
550.674873	0.143044
550.889148	0.143237
551.103405	0.142803
551.317644	0.143787
551.531865	0.143747
551.746068	0.143721
551.960252	0.144170
552.174418	0.143954
552.388566	0.144124
552.602696	0.144023
552.816807	0.144146
553.030900	0.144577
553.244975	0.144252
553.459032	0.144250
553.673070	0.144095
553.887091	0.144022
554.101093	0.143728
554.315077	0.143483
554.529042	0.143808
554.742990	0.143880
554.956919	0.143825
555.170830	0.143986
555.384722	0.143966
555.598597	0.144380
555.812453	0.144138
556.026291	0.144480
556.240111	0.144658
556.453913	0.144746
556.667696	0.144806
556.881461	0.144863
557.095208	0.144995
557.308937	0.145295
557.522647	0.145162
557.736339	0.145422
557.950013	0.145390
558.163669	0.145231
558.377307	0.145263
558.590926	0.144911
558.804527	0.144668
559.018110	0.144594
559.231675	0.144308
559.445221	0.144166
559.658749	0.143866
559.872259	0.144240
560.085751	0.144627
560.299225	0.144712
560.512680	0.145245
560.726117	0.145352
560.939536	0.145487
561.152937	0.145888
561.366319	0.146278
561.579683	0.146585
561.793029	0.146311
562.006357	0.146562
562.219667	0.146782
562.432958	0.146800
562.646231	0.147558
562.859486	0.147528
563.072723	0.147526
563.285941	0.147344
563.499141	0.147566
563.712323	0.148215
563.925487	0.148311
564.138632	0.148286
564.351760	0.148339
564.564869	0.147961
564.777960	0.148114
564.991032	0.148193
565.204087	0.148783
565.417123	0.148647
565.630141	0.148491
565.843140	0.148342
566.056122	0.148352
566.269085	0.148327
566.482030	0.148917
566.694957	0.149092
566.907866	0.149330
567.120756	0.148856
567.333628	0.148980
567.546482	0.149032
567.759318	0.149083
567.972135	0.149315
568.184935	0.149342
568.397716	0.148996
568.610478	0.148770
568.823223	0.148650
569.035949	0.148590
569.248657	0.148702
569.461347	0.148870
569.674019	0.148894
569.886672	0.149040
570.099308	0.149094
570.311925	0.149262
570.524523	0.149363
570.737104	0.149467
570.949666	0.150144
571.162210	0.150446
571.374736	0.150781
571.587244	0.151087
571.799733	0.151410
572.012205	0.152015
572.224658	0.152018
572.437092	0.152281
572.649509	0.152516
572.861907	0.152122
573.074287	0.151850
573.286649	0.151612
573.498993	0.151784
573.711318	0.151149
573.923625	0.150682
574.135914	0.150602
574.348185	0.150912
574.560438	0.150766
574.772672	0.150870
574.984888	0.151219
575.197086	0.151402
575.409266	0.151698
575.621427	0.152233
575.833570	0.153063
576.045695	0.153317
576.257802	0.153244
576.469890	0.153367
576.681961	0.153756
576.894013	0.153735
577.106046	0.153523
577.318062	0.153612
577.530059	0.153761
577.742039	0.153468
577.954000	0.153821
578.165942	0.153869
578.377867	0.154117
578.589773	0.154469
578.801661	0.154693
579.013531	0.154789
579.225382	0.154642
579.437216	0.154544
579.649031	0.154491
579.860828	0.154443
580.072606	0.154995
580.284367	0.154891
580.496109	0.154775
580.707833	0.154659
580.919539	0.154913
581.131227	0.154756
581.342896	0.154975
581.554547	0.155349
581.766180	0.155657
581.977795	0.155323
582.189391	0.155510
582.400969	0.155774
582.612529	0.156109
582.824071	0.156353
583.035595	0.157057
583.247100	0.156974
583.458587	0.156957
583.670056	0.157197
583.881506	0.157399
584.092939	0.157524
584.304353	0.157369
584.515749	0.157362
584.727127	0.157363
584.938486	0.157080
585.149828	0.157701
585.361151	0.157920
585.572456	0.157987
585.783742	0.158215
585.995011	0.158817
586.206261	0.158841
586.417493	0.159158
586.628706	0.159598
586.839902	0.159619
587.051079	0.159416
587.262238	0.159419
587.473379	0.159454
587.684502	0.159383
587.895606	0.159292
588.106692	0.159511
588.317760	0.159392
588.528810	0.159334
588.739841	0.159620
588.950855	0.160117
589.161850	0.160173
589.372827	0.160302
589.583785	0.160360
589.794726	0.160252
590.005648	0.160767
590.216552	0.161032
590.427437	0.160982
590.638305	0.160830
590.849154	0.160322
591.059985	0.160471
591.270798	0.160241
591.481592	0.160523
591.692369	0.160633
591.903127	0.160316
592.113867	0.160608
592.324588	0.160778
592.535292	0.160865
592.745977	0.161325
592.956644	0.161199
593.167293	0.161567
593.377923	0.161689
593.588536	0.161762
593.799130	0.162017
594.009706	0.161768
594.220263	0.161957
594.430803	0.162208
594.641324	0.162223
594.851827	0.162531
595.062312	0.162451
595.272778	0.162422
595.483227	0.162601
595.693657	0.162548
595.904069	0.162746
596.114462	0.162885
596.324838	0.162671
596.535195	0.162592
596.745534	0.162709
596.955855	0.162762
597.166157	0.162701
597.376441	0.162605
597.586707	0.162730
597.796955	0.162755
598.007185	0.162895
598.217396	0.162798
598.427589	0.163012
598.637764	0.162924
598.847921	0.163321
599.058060	0.163592
599.268180	0.164013
599.478282	0.163985
599.688366	0.164211
599.898431	0.164404
600.108479	0.164995
600.318508	0.164906
600.528519	0.164983
600.738511	0.165098
600.948486	0.165255
601.158442	0.165290
601.368380	0.165346
601.578300	0.165343
601.788202	0.165151
601.998085	0.165179
602.207950	0.165567
602.417797	0.165723
602.627626	0.165480
602.837436	0.165533
603.047228	0.165500
603.257002	0.165514
603.466758	0.165532
603.676496	0.165499
603.886215	0.165558
604.095916	0.165479
604.305599	0.165438
604.515264	0.165646
604.724910	0.165893
604.934538	0.166059
605.144148	0.166020
605.353740	0.166165
605.563314	0.166273
605.772869	0.166305
605.982406	0.166081
606.191925	0.166355
606.401425	0.166175
606.610908	0.166031
606.820372	0.165555
607.029818	0.165992
607.239246	0.165844
607.448655	0.166136
607.658047	0.166297
607.867420	0.166160
608.076775	0.166273
608.286111	0.166268
608.495430	0.166628
608.704730	0.166744
608.914012	0.166833
609.123275	0.167165
609.332521	0.166896
609.541748	0.166897
609.750957	0.167240
609.960148	0.167213
610.169321	0.167634
610.378475	0.167339
610.587611	0.167934
610.796729	0.168135
611.005829	0.168221
611.214910	0.168550
611.423974	0.168748
611.633019	0.168955
611.842045	0.168936
612.051054	0.169002
612.260044	0.169282
612.469017	0.169062
612.677970	0.168864
612.886906	0.168789
613.095824	0.168660
613.304723	0.168781
613.513604	0.168710
613.722467	0.168903
613.931311	0.168761
614.140138	0.168435
614.348946	0.168542
614.557736	0.168851
614.766507	0.168953
614.975261	0.169277
615.183996	0.169178
615.392713	0.169407
615.601412	0.169581
615.810092	0.169759
616.018754	0.170151
616.227399	0.170320
616.436024	0.170261
616.644632	0.170387
616.853222	0.170230
617.061793	0.170513
617.270346	0.170673
617.478880	0.170875
617.687397	0.170986
617.895895	0.170808
618.104375	0.170915
618.312837	0.171104
618.521281	0.171017
618.729706	0.171389
618.938113	0.171362
619.146502	0.171314
619.354873	0.171245
619.563226	0.171251
619.771560	0.171329
619.979876	0.171320
620.188174	0.171228
620.396453	0.171510
620.604715	0.171402
620.812958	0.171532
621.021183	0.171639
621.229390	0.171770
621.437578	0.171935
621.645748	0.172239
621.853900	0.172325
622.062034	0.172357
622.270150	0.172377
622.478247	0.172408
622.686326	0.172425
622.894387	0.172410
623.102430	0.172276
623.310454	0.172426
623.518461	0.172301
623.726449	0.172344
623.934418	0.172220
624.142370	0.172407
624.350303	0.172480
624.558218	0.172357
624.766115	0.172435
624.973994	0.172615
625.181855	0.172658
625.389697	0.172697
625.597521	0.172625
625.805327	0.173080
626.013114	0.173071
626.220883	0.173154
626.428634	0.173469
626.636367	0.173296
626.844082	0.173201
627.051778	0.172939
627.259457	0.173061
627.467117	0.173398
627.674758	0.173394
627.882382	0.173332
628.089987	0.173436
628.297574	0.173424
628.505143	0.173760
628.712694	0.173914
628.920226	0.174430
629.127740	0.174558
629.335236	0.174565
629.542714	0.174587
629.750174	0.174698
629.957615	0.174468
630.165038	0.174437
630.372443	0.174365
630.579829	0.174429
630.787198	0.174305
630.994548	0.174367
631.201880	0.174344
631.409194	0.174422
631.616489	0.174440
631.823766	0.174681
632.031025	0.174703
632.238266	0.174891
632.445489	0.174756
632.652693	0.174760
632.859879	0.174877
633.067047	0.174867
633.274197	0.174874
633.481329	0.174956
633.688442	0.175055
633.895537	0.175268
634.102614	0.175349
634.309672	0.175722
634.516713	0.175768
634.723735	0.175813
634.930739	0.175876
635.137724	0.176022
635.344692	0.176270
635.551641	0.176527
635.758572	0.176772
635.965485	0.176818
636.172379	0.176850
636.379256	0.177037
636.586114	0.177082
636.792954	0.177279
636.999775	0.177205
637.206579	0.177228
637.413364	0.177075
637.620131	0.177154
637.826880	0.177209
638.033610	0.177306
638.240323	0.177450
638.447017	0.177742
638.653692	0.178042
638.860350	0.178134
639.066990	0.178309
639.273611	0.178706
639.480214	0.178653
639.686798	0.178995
639.893365	0.179095
640.099913	0.179172
640.306443	0.179292
640.512955	0.179375
640.719449	0.179709
640.925924	0.179813
641.132381	0.179999
641.338820	0.179994
641.545241	0.180050
641.751644	0.180110
641.958028	0.180135
642.164394	0.180171
642.370742	0.180229
642.577071	0.180247
642.783383	0.180161
642.989676	0.180263
643.195951	0.180430
643.402207	0.180392
643.608446	0.180699
643.814666	0.180825
644.020868	0.180850
644.227052	0.180990
644.433218	0.181100
644.639365	0.181077
644.845494	0.181160
645.051605	0.181228
645.257698	0.181428
645.463772	0.181497
645.669828	0.181635
645.875866	0.181799
646.081886	0.181923
646.287888	0.182052
646.493871	0.182176
646.699836	0.182197
646.905783	0.182146
647.111712	0.182117
647.317622	0.182015
647.523514	0.181999
647.729388	0.181960
647.935244	0.181852
648.141082	0.182024
648.346901	0.182391
648.552702	0.182461
648.758485	0.182759
648.964250	0.182660
649.169996	0.182604
649.375724	0.182497
649.581434	0.182512
649.787126	0.182503
649.992800	0.182304
650.198455	0.182220
650.404092	0.181977
650.609711	0.181879
650.815311	0.182164
651.020894	0.182346
651.226458	0.182786
651.432004	0.182718
651.637532	0.182811
651.843041	0.182672
652.048532	0.182660
652.254006	0.182881
652.459460	0.182766
652.664897	0.182976
652.870315	0.183054
653.075716	0.182866
653.281097	0.183074
653.486461	0.183256
653.691807	0.183449
653.897134	0.183506
654.102443	0.183599
654.307734	0.183825
654.513006	0.183766
654.718261	0.183930
654.923497	0.184144
655.128715	0.184161
655.333915	0.184442
655.539096	0.184494
655.744259	0.184750
655.949404	0.184691
656.154531	0.185003
656.359640	0.185137
656.564730	0.185180
656.769802	0.185127
656.974856	0.185486
657.179892	0.185365
657.384909	0.185913
657.589908	0.185967
657.794889	0.186271
657.999852	0.186390
658.204797	0.186608
658.409723	0.186772
658.614631	0.186874
658.819521	0.186770
659.024393	0.186881
659.229246	0.186910
659.434081	0.187157
659.638898	0.187269
659.843697	0.187408
660.048478	0.187284
660.253240	0.187511
660.457984	0.187599
660.662710	0.187841
660.867417	0.188121
661.072107	0.187786
661.276778	0.187780
661.481431	0.187883
661.686066	0.187807
661.890682	0.187693
662.095281	0.187532
662.299861	0.187860
662.504422	0.188029
662.708966	0.187874
662.913491	0.188337
663.117999	0.188331
663.322488	0.188256
663.526958	0.188241
663.731411	0.188560
663.935845	0.188762
664.140261	0.188905
664.344659	0.188769
664.549038	0.188903
664.753400	0.188993
664.957743	0.189262
665.162068	0.189483
665.366375	0.189567
665.570663	0.189730
665.774933	0.189641
665.979185	0.189555
666.183419	0.189691
666.387635	0.189833
666.591832	0.189847
666.796011	0.189771
667.000172	0.189979
667.204315	0.190247
667.408439	0.190410
667.612545	0.190577
667.816634	0.190702
668.020703	0.191068
668.224755	0.190877
668.428788	0.190792
668.632803	0.190941
668.836800	0.190946
669.040779	0.191108
669.244739	0.191100
669.448681	0.191050
669.652605	0.191206
669.856511	0.191184
670.060399	0.191661
670.264268	0.191855
670.468119	0.191867
670.671952	0.192008
670.875767	0.192249
671.079563	0.192547
671.283341	0.192922
671.487101	0.193136
671.690843	0.193214
671.894567	0.193287
672.098272	0.193529
672.301959	0.193743
672.505628	0.193684
672.709278	0.193596
672.912911	0.193652
673.116525	0.193653
673.320121	0.193544
673.523699	0.193560
673.727258	0.193809
673.930799	0.193799
674.134322	0.193744
674.337827	0.193794
674.541314	0.193882
674.744782	0.193760
674.948232	0.193930
675.151664	0.193992
675.355078	0.194084
675.558474	0.193850
675.761851	0.193847
675.965210	0.194177
676.168551	0.194346
676.371873	0.194402
676.575178	0.194523
676.778464	0.194468
676.981732	0.194665
677.184981	0.194671
677.388213	0.194891
677.591426	0.195003
677.794621	0.195092
677.997798	0.195140
678.200956	0.195223
678.404097	0.195357
678.607219	0.195488
678.810323	0.195702
679.013408	0.195798
679.216476	0.195989
679.419525	0.196157
679.622556	0.196095
679.825569	0.196411
680.028563	0.196500
680.231540	0.196515
680.434498	0.196621
680.637438	0.196658
680.840359	0.196855
681.043263	0.196882
681.246148	0.196953
681.449015	0.197102
681.651864	0.197088
681.854694	0.196921
682.057506	0.197140
682.260301	0.197103
682.463076	0.197185
682.665834	0.197071
682.868573	0.197081
683.071295	0.197550
683.273998	0.197782
683.476682	0.197773
683.679349	0.198195
683.881997	0.198320
684.084627	0.198714
684.287239	0.198985
684.489833	0.199303
684.692408	0.199427
684.894965	0.199243
685.097504	0.199426
685.300025	0.199812
685.502527	0.199798
685.705012	0.199661
685.907478	0.199778
686.109925	0.199682
686.312355	0.199871
686.514766	0.200058
686.717159	0.200255
686.919534	0.200081
687.121891	0.199939
687.324230	0.200114
687.526550	0.200227
687.728852	0.200241
687.931136	0.200378
688.133401	0.200352
688.335649	0.200137
688.537878	0.200144
688.740089	0.200413
688.942281	0.200555
689.144456	0.200816
689.346612	0.200902
689.548750	0.200911
689.750870	0.201197
689.952971	0.201225
690.155055	0.201519
690.357120	0.201328
690.559167	0.200917
690.761195	0.201017
690.963206	0.200929
691.165198	0.201098
691.367172	0.201163
691.569128	0.201039
691.771065	0.201365
691.972984	0.201283
692.174885	0.201741
692.376768	0.202241
692.578633	0.202305
692.780479	0.202384
692.982308	0.202404
693.184118	0.202566
693.385909	0.202543
