sample name	sample
index	1187
start time	 04-26-2021  12:01:53 PM


Wavelength (nm)	Absorbance
494.344910	NaN
494.563924	NaN
494.782919	NaN
495.001897	0.265378
495.220856	1.044617
495.439797	0.643543
495.658719	0.466283
495.877624	0.237271
496.096510	0.351672
496.315378	0.267009
496.534227	0.531597
496.753059	1.088385
496.971872	0.546863
497.190667	0.155830
497.409444	0.136823
497.628203	0.137103
497.846943	0.135910
498.065665	0.131754
498.284369	0.132633
498.503055	0.131293
498.721723	0.130731
498.940372	0.131796
499.159003	0.133013
499.377616	0.134063
499.596210	0.134109
499.814787	0.134669
500.033345	0.137409
500.251885	0.136749
500.470406	0.136785
500.688910	0.136132
500.907395	0.136890
501.125862	0.134907
501.344311	0.134569
501.562742	0.134477
501.781154	0.133081
501.999548	0.132340
502.217924	0.134456
502.436282	0.133972
502.654621	0.134208
502.872942	0.133201
503.091245	0.133275
503.309530	0.134126
503.527797	0.133889
503.746045	0.135862
503.964275	0.135631
504.182487	0.134295
504.400681	0.135112
504.618856	0.136192
504.837013	0.135730
505.055152	0.137944
505.273273	0.136471
505.491376	0.136643
505.709460	0.136991
505.927526	0.136691
506.145574	0.137266
506.363604	0.138249
506.581615	0.137796
506.799608	0.138571
507.017583	0.138082
507.235540	0.139066
507.453478	0.137775
507.671399	0.137248
507.889301	0.137742
508.107185	0.138391
508.325050	0.137699
508.542898	0.137379
508.760727	0.137484
508.978538	0.136989
509.196330	0.137452
509.414105	0.138995
509.631861	0.139306
509.849599	0.139296
510.067319	0.138264
510.285021	0.139302
510.502704	0.140439
510.720369	0.140219
510.938016	0.140485
511.155645	0.140610
511.373255	0.140556
511.590848	0.140208
511.808422	0.140567
512.025977	0.141102
512.243515	0.140780
512.461034	0.140551
512.678536	0.141355
512.896018	0.142629
513.113483	0.141210
513.330930	0.141906
513.548358	0.142019
513.765768	0.141517
513.983160	0.142338
514.200533	0.141738
514.417889	0.141197
514.635226	0.140347
514.852545	0.139371
515.069845	0.140267
515.287128	0.140116
515.504392	0.140517
515.721638	0.141202
515.938866	0.140725
516.156075	0.141187
516.373267	0.141523
516.590440	0.142725
516.807594	0.142852
517.024731	0.143998
517.241850	0.143800
517.458950	0.143916
517.676032	0.144522
517.893095	0.144847
518.110141	0.144947
518.327168	0.145559
518.544177	0.145297
518.761168	0.145945
518.978141	0.146264
519.195095	0.146436
519.412031	0.146115
519.628949	0.145972
519.845849	0.146153
520.062731	0.147067
520.279594	0.147054
520.496439	0.147193
520.713266	0.147243
520.930074	0.147400
521.146865	0.147773
521.363637	0.148392
521.580391	0.149028
521.797127	0.148616
522.013844	0.147650
522.230543	0.148064
522.447224	0.147843
522.663887	0.147781
522.880532	0.147621
523.097158	0.147750
523.313766	0.147699
523.530356	0.147424
523.746928	0.147576
523.963481	0.147671
524.180017	0.147967
524.396534	0.148855
524.613032	0.149264
524.829513	0.150107
525.045975	0.149833
525.262420	0.150663
525.478845	0.150502
525.695253	0.151868
525.911643	0.153212
526.128014	0.152920
526.344367	0.152963
526.560702	0.152828
526.777018	0.152422
526.993316	0.153378
527.209597	0.153080
527.425858	0.153177
527.642102	0.152762
527.858328	0.152968
528.074535	0.153785
528.290724	0.153892
528.506894	0.154259
528.723047	0.154427
528.939181	0.154256
529.155297	0.154687
529.371395	0.155477
529.587475	0.156078
529.803536	0.155784
530.019579	0.155908
530.235604	0.156560
530.451611	0.157150
530.667600	0.157452
530.883570	0.157768
531.099522	0.157853
531.315456	0.157742
531.531372	0.157652
531.747269	0.157442
531.963148	0.157559
532.179009	0.157869
532.394852	0.157305
532.610676	0.157556
532.826482	0.157664
533.042271	0.158311
533.258040	0.158438
533.473792	0.158875
533.689525	0.159936
533.905240	0.160048
534.120937	0.160287
534.336616	0.161600
534.552277	0.162154
534.767919	0.163329
534.983543	0.164131
535.199149	0.165336
535.414736	0.165105
535.630306	0.165481
535.845857	0.166060
536.061390	0.166499
536.276904	0.166197
536.492401	0.166364
536.707879	0.165790
536.923339	0.165527
537.138781	0.165234
537.354204	0.166032
537.569610	0.166251
537.784997	0.166757
538.000366	0.166781
538.215716	0.167261
538.431049	0.166981
538.646363	0.167483
538.861659	0.168411
539.076937	0.168687
539.292196	0.168810
539.507438	0.168968
539.722661	0.168557
539.937866	0.168826
540.153052	0.169423
540.368221	0.169598
540.583371	0.169566
540.798503	0.168596
541.013617	0.168746
541.228712	0.168967
541.443789	0.169257
541.658848	0.170208
541.873889	0.170756
542.088912	0.170597
542.303916	0.171461
542.518902	0.172665
542.733870	0.173109
542.948820	0.173354
543.163752	0.173171
543.378665	0.173637
543.593560	0.173400
543.808437	0.172950
544.023295	0.173243
544.238136	0.173288
544.452958	0.172671
544.667762	0.173462
544.882548	0.173639
545.097315	0.174147
545.312064	0.174168
545.526795	0.174434
545.741508	0.174557
545.956203	0.174440
546.170879	0.174690
546.385537	0.174868
546.600177	0.174773
546.814799	0.174970
547.029402	0.174968
547.243988	0.174929
547.458555	0.174836
547.673103	0.175187
547.887634	0.175556
548.102146	0.175839
548.316640	0.176293
548.531116	0.176483
548.745574	0.176826
548.960013	0.177092
549.174435	0.177808
549.388838	0.178294
549.603222	0.178538
549.817589	0.178864
550.031937	0.178938
550.246267	0.179156
550.460579	0.179087
550.674873	0.178977
550.889148	0.179632
551.103405	0.179313
551.317644	0.179489
551.531865	0.179480
551.746068	0.179302
551.960252	0.179157
552.174418	0.179249
552.388566	0.179842
552.602696	0.180186
552.816807	0.180273
553.030900	0.180424
553.244975	0.180775
553.459032	0.181528
553.673070	0.181741
553.887091	0.181973
554.101093	0.181969
554.315077	0.181961
554.529042	0.182212
554.742990	0.182254
554.956919	0.182447
555.170830	0.182559
555.384722	0.183068
555.598597	0.183524
555.812453	0.183353
556.026291	0.183876
556.240111	0.183662
556.453913	0.183943
556.667696	0.184235
556.881461	0.184732
557.095208	0.184828
557.308937	0.184197
557.522647	0.184454
557.736339	0.185427
557.950013	0.185591
558.163669	0.186224
558.377307	0.186580
558.590926	0.186797
558.804527	0.187052
559.018110	0.187164
559.231675	0.187686
559.445221	0.187710
559.658749	0.187534
559.872259	0.187471
560.085751	0.187141
560.299225	0.186500
560.512680	0.186477
560.726117	0.186267
560.939536	0.186286
561.152937	0.186477
561.366319	0.186889
561.579683	0.186905
561.793029	0.186852
562.006357	0.187543
562.219667	0.188183
562.432958	0.188368
562.646231	0.188894
562.859486	0.189219
563.072723	0.189212
563.285941	0.188996
563.499141	0.189029
563.712323	0.189459
563.925487	0.189836
564.138632	0.189934
564.351760	0.190075
564.564869	0.189922
564.777960	0.190039
564.991032	0.190117
565.204087	0.190293
565.417123	0.191024
565.630141	0.190955
565.843140	0.190604
566.056122	0.190773
566.269085	0.190777
566.482030	0.191132
566.694957	0.191545
566.907866	0.191658
567.120756	0.191705
567.333628	0.191573
567.546482	0.192162
567.759318	0.192636
567.972135	0.192588
568.184935	0.192913
568.397716	0.193351
568.610478	0.193127
568.823223	0.193068
569.035949	0.193491
569.248657	0.193499
569.461347	0.193664
569.674019	0.193708
569.886672	0.194147
570.099308	0.194033
570.311925	0.193266
570.524523	0.193398
570.737104	0.194095
570.949666	0.194001
571.162210	0.194381
571.374736	0.194111
571.587244	0.194237
571.799733	0.194707
572.012205	0.194918
572.224658	0.195562
572.437092	0.195869
572.649509	0.195895
572.861907	0.196173
573.074287	0.196197
573.286649	0.196542
573.498993	0.196620
573.711318	0.196221
573.923625	0.196392
574.135914	0.196699
574.348185	0.196518
574.560438	0.196245
574.772672	0.195837
574.984888	0.196237
575.197086	0.196004
575.409266	0.196301
575.621427	0.196246
575.833570	0.196306
576.045695	0.195852
576.257802	0.196285
576.469890	0.196274
576.681961	0.197076
576.894013	0.197092
577.106046	0.197194
577.318062	0.197343
577.530059	0.197607
577.742039	0.197848
577.954000	0.198484
578.165942	0.198472
578.377867	0.198772
578.589773	0.198376
578.801661	0.197920
579.013531	0.198235
579.225382	0.198346
579.437216	0.198611
579.649031	0.198693
579.860828	0.198734
580.072606	0.198791
580.284367	0.199020
580.496109	0.199553
580.707833	0.199966
580.919539	0.200288
581.131227	0.200030
581.342896	0.200201
581.554547	0.200590
581.766180	0.200282
581.977795	0.200544
582.189391	0.200816
582.400969	0.201015
582.612529	0.201054
582.824071	0.201225
583.035595	0.201836
583.247100	0.201887
583.458587	0.201565
583.670056	0.201896
583.881506	0.202157
584.092939	0.201871
584.304353	0.202036
584.515749	0.202329
584.727127	0.202357
584.938486	0.202363
585.149828	0.202478
585.361151	0.202781
585.572456	0.202990
585.783742	0.202834
585.995011	0.202991
586.206261	0.202876
586.417493	0.203149
586.628706	0.203033
586.839902	0.202906
587.051079	0.203160
587.262238	0.203074
587.473379	0.203097
587.684502	0.203757
587.895606	0.204705
588.106692	0.205067
588.317760	0.205041
588.528810	0.205594
588.739841	0.205780
588.950855	0.205858
589.161850	0.205970
589.372827	0.206288
589.583785	0.206509
589.794726	0.206409
590.005648	0.206544
590.216552	0.206609
590.427437	0.206729
590.638305	0.207054
590.849154	0.207221
591.059985	0.207509
591.270798	0.207716
591.481592	0.207253
591.692369	0.207339
591.903127	0.207713
592.113867	0.208393
592.324588	0.208263
592.535292	0.208394
592.745977	0.208217
592.956644	0.208626
593.167293	0.208908
593.377923	0.209447
593.588536	0.209241
593.799130	0.209296
594.009706	0.209280
594.220263	0.209647
594.430803	0.209624
594.641324	0.210470
594.851827	0.210770
595.062312	0.210929
595.272778	0.211115
595.483227	0.211548
595.693657	0.211630
595.904069	0.211840
596.114462	0.211860
596.324838	0.212195
596.535195	0.212029
596.745534	0.211950
596.955855	0.212026
597.166157	0.212226
597.376441	0.212298
597.586707	0.212152
597.796955	0.211954
598.007185	0.212253
598.217396	0.212125
598.427589	0.212259
598.637764	0.212668
598.847921	0.212617
599.058060	0.212636
599.268180	0.213172
599.478282	0.213713
599.688366	0.213988
599.898431	0.213974
600.108479	0.214447
600.318508	0.214787
600.528519	0.214490
600.738511	0.214716
600.948486	0.214575
601.158442	0.214317
601.368380	0.214254
601.578300	0.214637
601.788202	0.214774
601.998085	0.215198
602.207950	0.215370
602.417797	0.215366
602.627626	0.215655
602.837436	0.216223
603.047228	0.216372
603.257002	0.216600
603.466758	0.216698
603.676496	0.217140
603.886215	0.216508
604.095916	0.216564
604.305599	0.217293
604.515264	0.217328
604.724910	0.217243
604.934538	0.217401
605.144148	0.217528
605.353740	0.217230
605.563314	0.217499
605.772869	0.218130
605.982406	0.218304
606.191925	0.217926
606.401425	0.218354
606.610908	0.218424
606.820372	0.218436
607.029818	0.218784
607.239246	0.219210
607.448655	0.219071
607.658047	0.219109
607.867420	0.219039
608.076775	0.219774
608.286111	0.219863
608.495430	0.220149
608.704730	0.220339
608.914012	0.220028
609.123275	0.220010
609.332521	0.220101
609.541748	0.220167
609.750957	0.220505
609.960148	0.220264
610.169321	0.220133
610.378475	0.220241
610.587611	0.220374
610.796729	0.220926
611.005829	0.221392
611.214910	0.221739
611.423974	0.221735
611.633019	0.221573
611.842045	0.221902
612.051054	0.221954
612.260044	0.222165
612.469017	0.222238
612.677970	0.222245
612.886906	0.222113
613.095824	0.221939
613.304723	0.222405
613.513604	0.222582
613.722467	0.222389
613.931311	0.222731
614.140138	0.222788
614.348946	0.222989
614.557736	0.223086
614.766507	0.223280
614.975261	0.223513
615.183996	0.223530
615.392713	0.223482
615.601412	0.223763
615.810092	0.223548
616.018754	0.223509
616.227399	0.223586
616.436024	0.223593
616.644632	0.223494
616.853222	0.223518
617.061793	0.223383
617.270346	0.223754
617.478880	0.223696
617.687397	0.223987
617.895895	0.224085
618.104375	0.224151
618.312837	0.223871
618.521281	0.223889
618.729706	0.224026
618.938113	0.224194
619.146502	0.224114
619.354873	0.224247
619.563226	0.224097
619.771560	0.224258
619.979876	0.224349
620.188174	0.224848
620.396453	0.225217
620.604715	0.225224
620.812958	0.225609
621.021183	0.225790
621.229390	0.225921
621.437578	0.226276
621.645748	0.226451
621.853900	0.226684
622.062034	0.226652
622.270150	0.226908
622.478247	0.226989
622.686326	0.226653
622.894387	0.227068
623.102430	0.227159
623.310454	0.227348
623.518461	0.227364
623.726449	0.227423
623.934418	0.227802
624.142370	0.227790
624.350303	0.228169
624.558218	0.228710
624.766115	0.228811
624.973994	0.228915
625.181855	0.228963
625.389697	0.229121
625.597521	0.229453
625.805327	0.229689
626.013114	0.229820
626.220883	0.229771
626.428634	0.229853
626.636367	0.230027
626.844082	0.230234
627.051778	0.230357
627.259457	0.230440
627.467117	0.230633
627.674758	0.230805
627.882382	0.230976
628.089987	0.230933
628.297574	0.230816
628.505143	0.230853
628.712694	0.230830
628.920226	0.230956
629.127740	0.231048
629.335236	0.230905
629.542714	0.230567
629.750174	0.230650
629.957615	0.230821
630.165038	0.231146
630.372443	0.231301
630.579829	0.231496
630.787198	0.231554
630.994548	0.231780
631.201880	0.231827
631.409194	0.232112
631.616489	0.232127
631.823766	0.232366
632.031025	0.232419
632.238266	0.232288
632.445489	0.232466
632.652693	0.232769
632.859879	0.233048
633.067047	0.233203
633.274197	0.233247
633.481329	0.233261
633.688442	0.233130
633.895537	0.233185
634.102614	0.233193
634.309672	0.233375
634.516713	0.233391
634.723735	0.233138
634.930739	0.233674
635.137724	0.233809
635.344692	0.233904
635.551641	0.234259
635.758572	0.234518
635.965485	0.234839
636.172379	0.235276
636.379256	0.235483
636.586114	0.235764
636.792954	0.235353
636.999775	0.235502
637.206579	0.235892
637.413364	0.236065
637.620131	0.236160
637.826880	0.236332
638.033610	0.236096
638.240323	0.236189
638.447017	0.236511
638.653692	0.236936
638.860350	0.236994
639.066990	0.237540
639.273611	0.237623
639.480214	0.238128
639.686798	0.238425
639.893365	0.238561
640.099913	0.238721
640.306443	0.238796
640.512955	0.238869
640.719449	0.239336
640.925924	0.239134
641.132381	0.239455
641.338820	0.239184
641.545241	0.239334
641.751644	0.239748
641.958028	0.240019
642.164394	0.240122
642.370742	0.240300
642.577071	0.240355
642.783383	0.240574
642.989676	0.240816
643.195951	0.241224
643.402207	0.241377
643.608446	0.241263
643.814666	0.241552
644.020868	0.241867
644.227052	0.242096
644.433218	0.242253
644.639365	0.242241
644.845494	0.242244
645.051605	0.242390
645.257698	0.242567
645.463772	0.242911
645.669828	0.242763
645.875866	0.243020
646.081886	0.243491
646.287888	0.243588
646.493871	0.243768
646.699836	0.244156
646.905783	0.244233
647.111712	0.244279
647.317622	0.244509
647.523514	0.244642
647.729388	0.244860
647.935244	0.244718
648.141082	0.245255
648.346901	0.245727
648.552702	0.245589
648.758485	0.245761
648.964250	0.245856
649.169996	0.245887
649.375724	0.246190
649.581434	0.246252
649.787126	0.246414
649.992800	0.246174
650.198455	0.246114
650.404092	0.246632
650.609711	0.246662
650.815311	0.246830
651.020894	0.246998
651.226458	0.246974
651.432004	0.246982
651.637532	0.247284
651.843041	0.247544
652.048532	0.247555
652.254006	0.247434
652.459460	0.247603
652.664897	0.247692
652.870315	0.247921
653.075716	0.247925
653.281097	0.248154
653.486461	0.248197
653.691807	0.248236
653.897134	0.248524
654.102443	0.248808
654.307734	0.249010
654.513006	0.249165
654.718261	0.249432
654.923497	0.249734
655.128715	0.250033
655.333915	0.250194
655.539096	0.250567
655.744259	0.250806
655.949404	0.250978
656.154531	0.250978
656.359640	0.251231
656.564730	0.251258
656.769802	0.251877
656.974856	0.251947
657.179892	0.252281
657.384909	0.252305
657.589908	0.252332
657.794889	0.252435
657.999852	0.253050
658.204797	0.253351
658.409723	0.253533
658.614631	0.253564
658.819521	0.253874
659.024393	0.253845
659.229246	0.253975
659.434081	0.254252
659.638898	0.254515
659.843697	0.254420
660.048478	0.254789
660.253240	0.255006
660.457984	0.255285
660.662710	0.255265
660.867417	0.255619
661.072107	0.256038
661.276778	0.256362
661.481431	0.256570
661.686066	0.256825
661.890682	0.257025
662.095281	0.257236
662.299861	0.257304
662.504422	0.257614
662.708966	0.257939
662.913491	0.258082
663.117999	0.258388
663.322488	0.258572
663.526958	0.258838
663.731411	0.259029
663.935845	0.259325
664.140261	0.259588
664.344659	0.259978
664.549038	0.260116
664.753400	0.260353
664.957743	0.260389
665.162068	0.260879
665.366375	0.260968
665.570663	0.260947
665.774933	0.261194
665.979185	0.261196
666.183419	0.261323
666.387635	0.261389
666.591832	0.261497
666.796011	0.261479
667.000172	0.261105
667.204315	0.261328
667.408439	0.261217
667.612545	0.261223
667.816634	0.261539
668.020703	0.261427
668.224755	0.261545
668.428788	0.261708
668.632803	0.262175
668.836800	0.262419
669.040779	0.262681
669.244739	0.262888
669.448681	0.262998
669.652605	0.263045
669.856511	0.263388
670.060399	0.263748
670.264268	0.263901
670.468119	0.263902
670.671952	0.264337
670.875767	0.264626
671.079563	0.265348
671.283341	0.265869
671.487101	0.266111
671.690843	0.266415
671.894567	0.266272
672.098272	0.266537
672.301959	0.266908
672.505628	0.267062
672.709278	0.267158
672.912911	0.266756
673.116525	0.266690
673.320121	0.267058
673.523699	0.267118
673.727258	0.267481
673.930799	0.267754
674.134322	0.267936
674.337827	0.268218
674.541314	0.268522
674.744782	0.269127
674.948232	0.269325
675.151664	0.269308
675.355078	0.269798
675.558474	0.270176
675.761851	0.270332
675.965210	0.270461
676.168551	0.270602
676.371873	0.270844
676.575178	0.271248
676.778464	0.271594
676.981732	0.271828
677.184981	0.271813
677.388213	0.272040
677.591426	0.272642
677.794621	0.273125
677.997798	0.273320
678.200956	0.273563
678.404097	0.273547
678.607219	0.273740
678.810323	0.274182
679.013408	0.274188
679.216476	0.274505
679.419525	0.274366
679.622556	0.274568
679.825569	0.274766
680.028563	0.274963
680.231540	0.275020
680.434498	0.275277
680.637438	0.275769
680.840359	0.276041
681.043263	0.276133
681.246148	0.276388
681.449015	0.276297
681.651864	0.276669
681.854694	0.276499
682.057506	0.276739
682.260301	0.276822
682.463076	0.276718
682.665834	0.276868
682.868573	0.277278
683.071295	0.277411
683.273998	0.277569
683.476682	0.277510
683.679349	0.277988
683.881997	0.278253
684.084627	0.278681
684.287239	0.278854
684.489833	0.279068
684.692408	0.279016
684.894965	0.279108
685.097504	0.279368
685.300025	0.279916
685.502527	0.280047
685.705012	0.280283
685.907478	0.280244
686.109925	0.280270
686.312355	0.280507
686.514766	0.280649
686.717159	0.280937
686.919534	0.281254
687.121891	0.281096
687.324230	0.281257
687.526550	0.281414
687.728852	0.281460
687.931136	0.281760
688.133401	0.282011
688.335649	0.281925
688.537878	0.281844
688.740089	0.281875
688.942281	0.282095
689.144456	0.282158
689.346612	0.282197
689.548750	0.282403
689.750870	0.282511
689.952971	0.282267
690.155055	0.282600
690.357120	0.282817
690.559167	0.282819
690.761195	0.282768
690.963206	0.282837
691.165198	0.283106
691.367172	0.283322
691.569128	0.283416
691.771065	0.283827
691.972984	0.283937
692.174885	0.284186
692.376768	0.284275
692.578633	0.284615
692.780479	0.285048
692.982308	0.284856
693.184118	0.284909
693.385909	0.285082
693.587683	0.285441
