sample name	sample
index	623
start time	 03-19-2021  02:38:00 PM
880	0.021583
Peak Time (s)	90.537
Peak Height 	0.02158
calc peak height	90,93
Baseline Time (s)	9.535
Baseline Value 	-0.002165
subtract baseline	10,4
Abs	0.007273
Peak Time (s)	91.035
Peak Height 	0.007273
calc peak height	90,93
Baseline Time (s)	10.536
Baseline Value 	0.0034
subtract baseline	10,3
PK_550	0.010217
Peak Time (s)	91.035
Peak Height 	0.01022
calc peak height	90,93
Baseline Time (s)	9.037
Baseline Value 	2.1476E-4
subtract baseline	10,2
PK_880	0.010619
Peak Time (s)	91.035
Peak Height 	0.01062
calc peak height	90,93
Baseline Time (s)	10.038
Baseline Value 	0.002704
subtract baseline	10,1


Time (s)	A880-A510	A880-A775	A880-A975	A880	I510	I775	I975	I880	
0.040000	-0.001382	-0.000860	-0.002764	-0.000206	7106.038692	46940.248509	4058.577147	24799.431316
0.538500	-0.003462	0.000036	-0.001415	0.003193	7053.903585	46687.590572	4053.283535	24629.075753
1.035500	-0.002078	-0.000389	-0.001199	0.002284	7075.642612	46736.261600	4056.184778	24674.491907
1.536000	-0.003858	0.000419	-0.002231	0.003351	7048.670341	46710.246283	4050.776659	24621.200528
2.036000	-0.002359	-0.000075	-0.002778	-0.000348	7098.040847	47034.108387	4058.904725	24806.538706
2.536500	-0.000823	0.000337	-0.003324	-0.000069	7110.079315	47047.654682	4056.773213	24792.527271
3.036000	0.002876	0.000524	-0.003651	-0.001321	7157.790636	47193.859809	4059.164378	24855.564085
3.539500	-0.001494	0.000166	-0.003630	-0.000078	7103.738827	47031.186625	4056.007992	24792.985819
4.037000	0.000866	0.000969	0.000919	0.000190	7123.798461	47085.440085	4067.110994	24779.488367
4.534500	-0.000667	0.000209	-0.001139	-0.000207	7112.885962	47048.571809	4062.789081	24799.447859
5.035500	-0.000273	-0.000175	0.002831	-0.000925	7123.563079	47082.495417	4075.031325	24835.586009
5.535000	0.000921	0.000107	0.002435	-0.000240	7128.460791	47041.594799	4072.197628	24801.103584
6.035500	0.001409	0.000610	-0.000733	-0.000153	7132.330065	47083.866484	4063.704871	24796.750530
6.536500	-0.001573	-0.000028	-0.003007	-0.000155	7103.718175	47019.326945	4057.814250	24796.858641
7.036500	-0.001220	-0.000332	-0.001772	-0.000409	7109.525100	47014.309398	4061.670427	24809.631358
7.536000	-0.000450	-0.000030	-0.002745	-0.000960	7122.208546	47100.874211	4060.576423	24837.381908
8.036500	-0.001767	-0.000140	-0.000311	-0.000800	7108.024912	47073.341652	4066.484998	24829.298283
8.534500	0.001628	0.001239	0.003862	0.000944	7123.876823	47036.368968	4072.836036	24741.652294
9.036500	0.000209	0.000000	-0.001421	0.000103	7118.315160	46995.954884	4061.252838	24783.847232
9.535000	-0.000432	0.000562	-0.003489	0.000000	7113.160574	47063.460606	4056.169526	24789.047933
10.038000	0.000000	-0.000392	-0.000627	-0.000883	7125.790857	47056.284102	4065.879504	24833.497507
10.535500	-0.003438	-0.000055	0.000000	0.003345	7052.696586	46663.218656	4056.541275	24621.513488
11.035500	0.000069	-0.000198	0.002211	-0.000756	7125.238470	47063.108528	4072.961954	24827.115089
11.536000	-0.000690	0.000226	0.002459	-0.000271	7113.285775	47056.909338	4072.343016	24802.702766
12.036500	-0.000447	0.000409	-0.002007	-0.000185	7114.791893	47066.691433	4060.482213	24798.365378
12.536500	-0.003176	0.000555	-0.003089	0.003865	7050.258032	46672.125281	4047.256838	24595.552611
13.037000	0.001251	0.000610	-0.002512	-0.000104	7130.334705	47078.831468	4058.963252	24794.263641
13.537000	0.001414	0.000714	0.003084	0.000427	7126.786388	47035.554070	4072.149843	24767.575509
14.034500	-0.002542	0.000690	0.001114	0.002799	7066.344930	46793.203800	4060.836833	24648.765300
14.535000	-0.002966	-0.000333	-0.006263	0.003190	7058.623525	46650.820715	4040.875540	24629.237257
15.035500	-0.000577	0.000759	-0.001091	0.000096	7110.852360	47073.677360	4062.127763	24784.228777
15.536000	-0.000460	0.000629	0.001451	0.000224	7110.740993	47047.518817	4068.411546	24777.790078
16.036000	-0.000033	0.000035	0.002409	-0.000422	7121.039543	47052.845466	4072.607247	24810.283237
16.536000	-0.004806	-0.000186	-0.004902	0.002989	7043.144648	46685.831300	4044.862145	24639.290023
17.036500	0.002853	0.001536	0.004567	-0.002022	7164.371990	47368.623406	4082.495525	24890.977798
17.537500	-0.000324	0.001140	0.001457	0.001850	7096.484530	46934.572674	4064.189697	24696.223391
18.037000	-0.000683	0.001207	0.003671	0.002098	7090.691438	46916.169618	4069.313513	24683.799004
18.537500	-0.001022	0.000925	0.000508	0.003255	7076.449403	46770.857301	4058.084799	24625.979616
19.035000	0.000554	0.000848	0.000411	0.002075	7102.725262	46882.178920	4060.890024	24684.936713
19.538000	-0.000428	0.000155	-0.002791	0.001534	7098.505731	46866.877437	4054.011040	24712.036413
20.035500	0.000139	0.000306	0.000805	0.001593	7103.370042	46876.120466	4063.163619	24709.078557
20.536000	-0.001454	0.000664	0.001760	0.002844	7076.247619	46786.065400	4062.394559	24646.511359
21.036000	0.000310	0.000294	-0.004657	0.001234	7108.444043	46911.240329	4049.982949	24727.066952
21.536500	0.000157	0.000471	0.002062	0.001703	7102.490523	46881.754460	4066.148934	24703.597052
22.037000	-0.001463	0.000521	0.002182	0.001311	7090.752211	46926.356362	4067.480884	24723.205588
22.537000	-0.002552	0.000338	-0.002695	0.003334	7061.175669	46703.748500	4049.629309	24622.025790
23.037000	0.000005	0.001149	-0.000563	0.002246	7095.844789	46895.368157	4057.925812	24676.387621
23.537500	0.001224	0.000913	-0.001912	0.001964	7110.199476	46899.965547	4055.169509	24690.499345
24.035500	-0.001238	0.001549	0.000432	0.002282	7083.655082	46932.218800	4060.407900	24674.604501
24.535000	-0.000173	0.000314	0.000205	0.001523	7101.062964	46884.103098	4061.788238	24712.622174
25.035500	-0.001305	0.001165	0.000986	0.002300	7082.844289	46891.530056	4061.798153	24673.703978
25.535500	-0.000261	0.000602	0.001024	0.001961	7096.034765	46868.907615	4062.777204	24690.682900
26.036000	-0.000689	0.001409	-0.002260	0.002231	7089.375593	46923.214340	4053.586617	24677.178078
26.536500	0.000612	0.001431	0.000119	0.002833	7096.035803	46864.548044	4058.169629	24647.040478
27.036500	0.000660	0.000957	-0.002693	0.002503	7099.647313	46850.038461	4051.770289	24663.546020
27.536500	0.000410	0.001497	0.000001	0.000987	7111.769628	47058.174185	4062.649254	24739.463448
28.037000	0.000336	0.000964	-0.001856	0.000870	7112.184510	47015.970067	4058.138747	24745.339246
28.535000	0.000722	0.001604	0.004788	0.001295	7111.811872	47037.812765	4074.341690	24724.037202
29.037500	-0.002537	-0.000091	-0.001529	0.003164	7062.932930	46677.664902	4053.063921	24630.506333
29.535500	0.000524	0.001641	-0.001231	0.001593	7107.056210	47011.248585	4057.885171	24709.082705
30.035000	0.002732	0.001868	-0.002295	0.002060	7123.759626	46987.013340	4053.934025	24685.712673
30.536000	-0.001272	0.001055	-0.000418	0.003713	7069.723677	46737.866732	4054.514198	24603.159579
31.036500	-0.000539	0.000881	-0.002864	0.005176	7062.802294	46573.267375	4044.479345	24530.338920
31.536500	0.000647	0.000386	0.000978	0.000868	7115.186815	46957.588300	4065.500233	24745.454063
32.036500	0.000979	0.000649	0.001886	0.000781	7119.207378	46993.050975	4068.092609	24749.804924
32.537000	0.000925	0.001332	0.002343	0.001606	7110.771577	46978.670299	4067.132115	24708.423821
33.035000	0.000243	0.000942	0.005526	0.004235	7079.154318	46673.930879	4068.579311	24577.138632
33.538000	0.000850	0.001263	0.000188	0.002413	7102.323522	46889.952792	4059.435013	24668.026438
34.035500	0.000550	0.000853	-0.001360	0.003011	7093.745968	46788.282842	4053.894658	24638.169880
34.535500	0.000888	0.000812	-0.000739	0.002868	7098.337594	46798.484105	4055.862828	24645.287527
35.036000	-0.000312	0.000820	0.000698	0.003603	7079.890306	46725.159414	4057.677056	24608.602582
35.536500	0.000195	0.001258	0.003232	0.002918	7091.247778	46838.549115	4066.031725	24642.824077
36.036500	0.001518	0.001426	-0.001195	0.003210	7101.093795	46826.028035	4053.806454	24628.254164
36.536500	-0.002000	0.000829	0.001582	0.005119	7049.525453	46573.765242	4056.045639	24533.167975
37.036000	0.000369	0.001628	0.001974	0.004672	7076.205819	46699.024034	4058.213954	24555.398433
37.534500	0.000259	0.001367	0.002408	0.003315	7088.074322	46809.428745	4062.856026	24622.991706
38.035000	0.000219	0.000445	0.003066	0.002478	7095.667907	46800.758053	4066.742929	24664.777008
38.537500	-0.000741	0.001054	0.000242	0.003174	7079.894802	46792.109352	4057.606204	24630.028561
39.036500	-0.000590	0.000802	-0.002821	0.002847	7084.438601	46799.659614	4050.557717	24646.361530
39.536000	0.000640	0.001516	0.001730	0.003941	7085.736215	46761.253131	4059.471299	24591.761429
40.036000	0.001293	0.001222	0.003807	0.003806	7093.246794	46745.238776	4065.215482	24598.503220
40.536500	0.001212	0.001696	0.000770	0.005681	7074.621438	46604.345540	4052.504250	24505.250384
41.036000	-0.001297	0.001390	-0.000799	0.005386	7053.641522	46603.300898	4049.229451	24519.900583
41.537000	-0.000147	0.001483	0.008823	0.003786	7079.718464	46773.538406	4078.398992	24599.482853
42.037500	0.001644	0.000848	-0.001893	0.003323	7101.224826	46756.341603	4051.720472	24622.616904
42.534500	-0.001640	0.000374	-0.006080	0.004120	7062.381483	46628.428678	4038.975208	24582.882109
43.040500	-0.000123	0.001481	0.006262	0.003959	7078.299305	46755.919285	4071.222331	24590.861448
43.535500	0.002538	0.000668	0.004272	-0.001301	7154.313665	47206.378124	4079.809540	24854.539206
44.037500	0.002565	0.001531	0.005121	0.002098	7121.794158	46949.021191	4073.109889	24683.820664
44.536000	-0.000535	0.000807	0.002311	0.005467	7060.081074	46536.650413	4057.029939	24515.876460
45.039000	0.001668	0.001831	0.003534	0.002162	7112.559866	46972.903681	4068.790370	24680.590213
45.536500	0.000674	0.001465	0.006509	0.002068	7103.946343	46945.404612	4076.831283	24685.310108
46.036500	0.001650	0.001251	0.001553	0.002036	7113.607968	46927.030982	4063.957242	24686.932052
46.537000	-0.000132	0.000866	0.002680	0.005461	7063.955043	46543.086396	4057.997198	24516.150162
47.035000	-0.001858	0.001861	-0.001059	0.006922	7033.866185	46496.434816	4044.630293	24443.749039
47.535500	-0.000288	0.001266	0.001762	0.004657	7070.109211	46664.040476	4057.704478	24556.148793
48.037500	-0.001191	0.001274	-0.001293	0.001904	7087.693926	46942.554995	4056.922353	24693.505510
48.574000	-0.000969	0.000945	-0.001631	0.007090	7040.657327	46387.923959	4042.741374	24435.449193
49.035500	-0.002588	0.002231	-0.000213	0.007059	7025.717842	46519.756010	4046.442403	24436.961101
49.536000	0.003174	0.001168	0.005703	-0.000512	7152.841688	47177.060201	4081.506405	24814.805678
50.040000	0.001986	0.001779	0.007189	0.003444	7103.333628	46837.974745	4075.002630	24616.545101
50.536500	-0.005424	-0.003556	-0.000303	0.005235	7016.224354	46124.262605	4050.889581	24527.399562
51.037000	-0.019946	-0.011801	-0.003147	0.199977	5460.771677	30017.193932	3642.946737	16730.743943
51.574000	-0.035863	-0.026122	-0.000847	-0.073896	7498.875709	52125.445988	4272.271173	28839.621984
52.037500	-0.014223	-0.060614	0.009111	-0.205034	9417.455803	64373.409197	4785.667998	37965.236914
52.538000	-0.032954	-0.024474	0.002129	-0.079945	7593.721260	53004.133844	4300.353855	29202.730056
53.035000	-0.028392	-0.021809	-0.007676	-0.103703	7906.737441	56141.894069	4344.933697	30678.768263
53.536000	-0.008562	-0.030572	-0.001564	-0.160773	8867.285872	62396.050332	4565.751797	34572.659571
54.036000	-0.002706	-0.032557	0.002210	-0.165122	9008.014780	62720.430171	4596.544803	34890.907469
54.535500	-0.008753	-0.014897	-0.007819	-0.117712	8306.197067	58765.254400	4390.683197	31587.763626
55.036000	-0.006442	-0.013338	-0.004901	-0.117341	8330.191739	58918.111907	4399.247186	31563.333163
55.536500	0.000170	-0.011527	-0.002804	-0.107175	8286.318565	57852.323726	4372.289458	30901.365299
56.036500	-0.002191	-0.008028	-0.004383	-0.071544	7839.184278	53939.373240	4254.260320	28699.790651
56.537000	-0.002086	-0.007254	-0.000899	-0.064562	7762.337089	53216.157163	4243.673387	28289.124748
57.035000	-0.003891	-0.005614	-0.000845	-0.044713	7528.192461	51153.491575	4185.355700	27157.147887
57.535000	-0.004402	-0.004432	-0.000309	-0.023069	7300.411048	48936.679922	4126.032523	25980.394957
58.035500	-0.003091	-0.003785	-0.003418	-0.014361	7226.905303	48091.566270	4094.057825	25523.224283
58.535500	-0.004540	-0.002754	-0.003693	-0.009961	7169.672677	47743.042960	4081.645699	25295.714326
59.036000	-0.006361	-0.002619	-0.006252	0.000907	7048.113952	46650.498319	4046.733403	24743.509049
59.536000	-0.004973	-0.002121	0.000263	0.000331	7066.697459	46758.583013	4065.036597	24772.395420
60.036500	-0.003425	-0.002058	-0.000374	0.004121	7045.493031	46384.575596	4053.573087	24582.814157
60.537000	-0.000501	0.002026	0.002572	0.011143	7007.010369	46091.950135	4043.123950	24235.893581
61.037000	-0.008086	-0.001550	-0.006360	0.018038	6873.907458	45064.987240	4003.459586	23900.602963
61.534500	-0.001292	0.000379	-0.002459	-0.004184	7145.161885	47471.376268	4069.713148	25000.452630
62.038000	0.002893	0.003032	-0.003507	-0.008724	7230.324072	48214.322267	4078.872853	25232.145237
62.535500	0.001299	0.003005	0.001081	-0.008991	7217.268728	48239.339158	4091.735102	25245.868443
63.035500	-0.000837	0.002408	-0.006039	-0.006748	7174.437233	47944.457108	4067.061574	25131.030833
63.536000	0.002993	0.003850	-0.001367	-0.011222	7256.016022	48560.972084	4091.155377	25360.658913
64.036500	0.002565	0.002860	-0.000376	-0.011037	7249.945502	48437.860952	4093.302674	25351.115745
64.536000	0.004074	0.003811	0.001921	-0.009605	7250.714248	48387.589131	4095.614122	25277.397451
65.036500	0.000478	0.003552	0.000910	-0.004342	7163.838181	47813.959686	4078.967597	25008.482294
65.536500	0.004177	0.004299	0.002952	-0.007123	7227.202347	48179.588723	4091.741575	25150.161238
66.037000	0.006249	0.004881	-0.004149	-0.006046	7237.016249	48128.107775	4070.161911	25095.185074
66.537500	0.000833	0.004642	-0.002214	0.000056	7124.767558	47473.736441	4059.320507	24786.224445
67.035000	0.001493	0.004312	-0.002299	0.001150	7120.599659	47328.129469	4056.271105	24731.302004
67.535000	0.006259	0.005197	0.002822	-0.003066	7207.787740	47852.061590	4080.642153	24943.764818
68.036000	0.004756	0.006139	0.002121	-0.001483	7177.625363	47785.811376	4074.632000	24863.723695
68.536000	0.001992	0.005254	0.000073	0.003690	7101.038655	47165.278158	4055.840588	24604.313655
69.036500	0.002590	0.006281	-0.001472	0.005629	7088.233368	47072.514028	4046.879977	24507.820233
69.536500	0.006666	0.006487	0.003943	0.000724	7174.736796	47594.431003	4073.621397	24752.658648
70.037000	0.008286	0.006594	0.003152	0.001317	7184.743441	47544.568188	4069.999619	24722.921689
70.537000	0.001596	0.006204	0.001888	0.006163	7073.692411	47010.527731	4054.140195	24481.324103
71.037500	0.002838	0.006311	-0.001563	0.007390	7073.826802	46897.162109	4042.146931	24420.577991
71.537500	0.006475	0.007037	0.004456	0.002874	7152.010638	47430.396311	4069.337853	24644.996441
72.035500	0.007709	0.007022	0.002396	0.003320	7159.649481	47383.229083	4062.809738	24622.732744
72.535500	0.002599	0.007206	0.003090	0.008898	7057.267362	46835.248743	4050.197312	24346.165947
73.035500	0.004206	0.008137	0.001169	0.010589	7056.469959	46758.597350	4040.957356	24263.020563
73.536000	0.005930	0.007557	0.001764	0.004915	7127.064656	47275.079149	4057.041214	24543.308245
74.036000	0.008110	0.007366	0.006628	0.004865	7148.572798	47260.654601	4069.810819	24545.780394
74.536500	0.003296	0.006716	0.001440	0.010399	7049.669676	46634.643542	4042.134916	24272.365655
75.037000	0.004168	0.007322	-0.000943	0.011711	7045.524109	46563.833402	4032.752878	24208.066326
75.537000	0.006543	0.007550	0.004334	0.006330	7119.341226	47130.189112	4060.028785	24473.042245
76.040500	0.007747	0.007368	0.005541	0.006686	7127.499698	47075.638580	4062.235349	24455.416950
76.534500	0.006979	0.007387	0.006074	0.006518	7121.729779	47094.626644	4064.057839	24463.743810
77.034500	0.009584	0.008263	0.008321	0.008001	7132.527354	47033.048290	4066.046753	24390.422282
77.535500	0.007555	0.007187	0.006230	0.007374	7119.043342	46987.452760	4062.238585	24421.392063
78.035500	0.008987	0.008349	0.005413	0.009079	7116.427363	46932.527518	4055.713017	24337.273544
78.536000	0.008510	0.008088	0.005064	0.009159	7111.073561	46897.995318	4054.603159	24333.313730
79.036500	0.005692	0.008859	0.006563	0.013111	7046.689358	46577.609441	4048.298565	24139.649411
79.536500	0.006414	0.008071	0.006061	0.009211	7090.539112	46891.048924	4057.045414	24330.766381
80.037000	0.009152	0.008467	0.008088	0.009959	7109.560675	46855.446721	4060.352679	24293.965528
80.534500	0.009258	0.007716	0.001487	0.009839	7111.729953	46791.785326	4043.683914	24299.881157
81.037500	0.004599	0.007974	0.004144	0.013040	7037.052289	46495.919700	4042.293885	24143.104324
81.535000	0.004889	0.007608	0.005358	0.010349	7065.220937	46729.490494	4052.296290	24274.816022
82.038000	0.007031	0.008069	0.003493	0.010877	7080.550996	46722.732554	4046.157430	24248.934110
82.535500	0.009017	0.007916	0.005256	0.011100	7097.352143	46684.864734	4050.104444	24237.977149
83.036000	0.005530	0.008059	0.006245	0.015425	7023.383638	46266.018604	4041.570132	24027.019268
83.536500	0.007348	0.008051	0.005444	0.011930	7073.549670	46615.000908	4048.457688	24197.326188
84.036500	0.009358	0.008249	0.004287	0.012492	7087.329984	46578.490606	4044.058607	24169.881557
84.537000	0.004734	0.008513	-0.000394	0.018420	6987.972008	46013.586474	4017.289921	23882.205412
85.037000	0.007725	0.008997	0.003634	0.017175	7027.571103	46185.318079	4030.514451	23942.307619
85.537500	0.007529	0.008502	0.009754	0.013302	7062.247338	46522.559613	4056.015566	24130.300683
86.035500	0.006432	0.008681	0.005753	0.013377	7051.169173	46533.058187	4045.542778	24126.678192
86.535500	0.004426	0.007946	0.001976	0.018040	6988.640603	45995.033143	4024.166873	23900.526831
87.035000	0.006326	0.009134	0.003526	0.017935	7007.335822	46123.285254	4028.323964	23905.574182
87.535500	0.006677	0.009604	0.009818	0.014532	7042.575907	46509.725072	4053.010576	24070.435181
88.036500	0.009703	0.009043	0.005802	0.014773	7068.919209	46429.455233	4042.104706	24058.714204
88.536500	0.006081	0.008669	0.010367	0.019912	6986.631112	45881.451785	4040.642620	23810.440794
89.036500	0.005123	0.008356	0.003989	0.018446	6991.349718	45995.403055	4028.203227	23880.932822
89.537000	0.008608	0.008405	0.007569	0.014865	7057.671572	46356.494980	4046.383050	24054.254903
90.037500	0.008969	0.009232	0.006165	0.015425	7055.779920	46383.156427	4041.364875	24027.027784
90.537000	0.004097	0.009331	0.002730	0.021583	6952.780690	45781.951851	4017.193145	23730.334338
91.035000	0.010619	0.010217	0.007273	0.017081	7055.735453	46316.179755	4039.972436	23946.851055
91.535000	0.008957	0.008393	0.002494	0.015278	7057.059155	46314.008475	4032.425368	24034.176776
92.035500	0.008360	0.008813	0.004541	0.015943	7045.149297	46289.611638	4035.923999	24001.939607
92.536000	0.007546	0.008147	0.007111	0.015581	7040.879122	46259.290345	4043.380453	24019.475350
93.036500	0.009018	0.009705	0.008238	0.016879	7042.517308	46285.238517	4042.944755	23956.587012
93.536500	0.007091	0.008640	0.011877	0.016401	7028.889272	46226.825768	4053.501495	23979.754722
94.036500	0.005499	0.008477	0.012275	0.016011	7017.600181	46249.364419	4055.530895	23998.620872
94.537000	0.008155	0.008678	0.002292	0.016880	7034.379292	46182.878419	4027.875202	23956.550045
95.037500	0.007226	0.009204	0.004436	0.018974	7006.041025	46027.116161	4028.001189	23855.507680
95.535000	0.009802	0.009493	0.005424	0.017134	7047.514578	46238.638976	4035.142545	23944.272094
96.035500	0.008247	0.008941	0.005414	0.017523	7029.197284	46144.999741	4034.130358	23925.458078
