sample name	sample
index	1428
start time	 05-10-2021  12:26:20 PM
880	0.453660
Peak Time (s)	92.535
Peak Height 	0.4537
calc peak height	90,93
Baseline Time (s)	9.035
Baseline Value 	-0.00427
subtract baseline	10,4
Abs	0.333604
Peak Time (s)	92.035
Peak Height 	0.3336
calc peak height	90,93
Baseline Time (s)	9.035
Baseline Value 	0.003106
subtract baseline	10,3
PK_550	0.174028
Peak Time (s)	90.535
Peak Height 	0.174
calc peak height	90,93
Baseline Time (s)	10.536
Baseline Value 	6.0626E-4
subtract baseline	10,2
PK_880	0.311745
Peak Time (s)	91.535
Peak Height 	0.3117
calc peak height	90,93
Baseline Time (s)	10.036
Baseline Value 	0.001703
subtract baseline	10,1


Time (s)	A880-A510	A880-A775	A880-A975	A880	I510	I775	I975	I880	
0.035000	-0.000655	-0.000212	-0.001969	0.003174	6477.824849	43967.532701	3935.041462	22601.142943
0.538000	-0.003148	-0.001171	-0.005463	0.006903	6426.224243	43527.041261	3916.571621	22432.344814
1.036000	-0.002590	-0.001358	-0.002848	0.003619	6457.996743	43817.514283	3931.631793	22580.931561
1.537000	-0.001828	-0.000176	0.001045	0.002138	6476.681340	44068.948316	3945.533651	22648.308918
2.036000	0.001187	-0.000579	-0.001618	0.001439	6507.826946	44096.994434	3940.431472	22680.165505
2.536500	-0.003310	0.000486	0.001949	0.006276	6430.051866	43741.032960	3937.147498	22460.616899
3.036000	0.001847	0.000043	-0.002783	-0.000346	6528.470884	44325.695906	3942.040133	22761.797233
3.537000	-0.000709	-0.000616	-0.000332	0.000829	6497.012523	44151.322748	3945.356865	22708.035720
4.037000	-0.000011	0.000505	-0.001798	0.001287	6499.021619	44214.294233	3940.358589	22687.105981
4.535000	-0.003218	-0.000603	-0.005613	0.005124	6440.323933	43746.996876	3920.710895	22512.695911
5.035500	0.000553	-0.000361	-0.004360	0.000485	6510.513926	44208.148272	3935.807733	22723.735942
5.535500	0.001117	0.000647	-0.001058	0.000549	6514.732172	44297.986796	3944.196364	22720.834543
6.035500	0.000607	0.000364	-0.001772	0.000741	6508.808346	44252.743911	3941.840350	22712.026367
6.536000	-0.000030	0.000718	-0.004555	0.000850	6502.536486	44276.002025	3934.364513	22707.047960
7.036500	-0.000658	-0.000180	0.000806	0.000024	6504.202638	44269.201842	3950.422000	22744.832388
7.536500	-0.000641	-0.000214	-0.003573	-0.000203	6506.256103	44287.554964	3939.622666	22755.252019
8.037000	0.000543	0.000735	-0.000029	0.000039	6514.192681	44354.953037	3948.203937	22744.175368
8.537500	-0.000321	-0.000077	-0.001900	-0.000417	6510.754001	44321.055834	3944.518675	22765.071417
9.035000	0.001752	0.000315	0.000000	0.000000	6524.737680	44318.644629	3948.380119	22745.951026
9.534500	0.000293	-0.000013	-0.002929	-0.000083	6513.117307	44295.278134	3940.979869	22749.759653
10.035500	0.000000	0.000523	-0.003468	0.000547	6505.341454	44286.413257	3937.952552	22720.931495
10.535500	-0.000763	0.000000	0.001527	0.000088	6502.779625	44280.251109	3952.141104	22741.920975
11.036000	-0.000545	-0.000220	0.000687	-0.000174	6506.816197	44284.271219	3950.628461	22753.911324
11.535500	0.002351	0.000685	0.003586	0.000873	6522.418299	44270.720584	3955.479474	22706.001696
12.036000	-0.000109	0.000281	-0.000933	0.000235	6507.043921	44292.995030	3945.335296	22735.180689
12.536500	0.000040	-0.000324	0.001777	0.000074	6509.664397	44250.810303	3952.834199	22742.580822
13.034000	-0.001452	0.000315	0.002704	0.000149	6496.477232	44304.410969	3955.067445	22739.133041
13.537000	-0.001231	0.000519	-0.004284	0.001538	6486.685415	44191.755784	3933.291700	22675.644507
14.035000	-0.001664	-0.000509	-0.004946	0.002457	6475.385801	44007.197787	3929.228974	22633.752478
14.538000	-0.001825	0.000538	0.000772	0.004405	6457.824159	43922.089992	3938.940536	22545.238249
15.035000	-0.000906	0.000567	-0.001894	0.000900	6494.763203	44256.994076	3941.115857	22704.802619
15.538500	-0.001337	-0.000248	-0.002222	0.000550	6494.076870	44212.724916	3941.170700	22720.776038
16.036000	0.000554	-0.000056	-0.005213	0.000252	6512.493871	44259.343739	3934.211173	22734.434148
16.537500	0.001088	0.000339	-0.001037	0.000439	6515.414256	44279.122311	3944.536336	22725.859211
17.036500	0.000533	0.000958	0.004573	-0.002098	6532.182842	44580.663570	3965.919143	22842.264292
17.537000	-0.002331	0.000054	-0.003523	0.001121	6480.970685	44187.147389	3936.327192	22694.671407
18.036500	-0.003116	-0.000020	0.001736	0.001595	6470.462101	44135.128839	3948.746239	22673.022799
18.537500	-0.002439	-0.000464	-0.004876	0.000857	6482.269584	44163.052825	3933.519575	22706.725286
19.035000	0.000139	0.000548	-0.004384	0.001792	6496.048317	44170.413113	3932.382141	22664.071227
19.535000	-0.001589	0.000746	0.005115	0.001996	6479.859292	44169.760740	3956.546349	22654.746564
20.038000	-0.001119	0.000362	0.000940	0.001141	6490.949760	44214.532913	3947.853516	22693.749644
20.536000	-0.001213	-0.000200	-0.001339	0.001046	6490.959889	44170.143305	3942.173196	22698.094945
21.036500	0.001703	-0.000229	-0.002538	0.000835	6517.266332	44187.475846	3939.615677	22707.763790
21.536500	-0.002274	0.000351	-0.000512	0.001373	6479.341837	44191.458894	3943.472009	22683.166017
22.037000	-0.001845	-0.000345	-0.003469	0.000598	6489.423533	44199.018037	3937.818439	22718.602980
22.537000	-0.002669	0.000532	0.001417	0.001433	6475.538424	44202.873368	3948.338118	22680.427269
23.035000	-0.001133	-0.000039	-0.004543	0.001196	6490.373904	44171.238888	3933.504169	22691.259241
23.534500	-0.000790	0.000423	0.001485	0.001726	6488.799800	44164.712267	3947.749459	22667.051523
24.036500	0.000852	0.001400	0.001904	0.001614	6503.537798	44268.339573	3949.138059	22672.200668
24.538500	-0.001889	0.000285	-0.001761	0.001555	6481.039462	44167.857071	3939.761288	22674.852607
25.035500	0.000678	0.000443	0.000018	0.001590	6502.266914	44179.517183	3944.286375	22673.268409
25.536000	-0.000563	-0.000460	0.002854	0.001186	6495.238265	44132.192575	3952.739765	22691.704133
26.036000	-0.000428	0.000579	0.001135	0.001649	6492.492094	44186.944671	3947.040733	22670.597400
26.536500	0.000036	0.000178	-0.001194	0.001654	6496.338839	44148.367569	3940.975427	22670.361541
27.037000	0.000684	0.000625	0.000485	-0.000993	6524.099373	44442.996035	3952.242304	22791.469937
27.537000	0.000117	0.000542	-0.000660	-0.000129	6512.017721	44352.515831	3946.995650	22751.844062
28.034500	-0.001190	0.000463	0.000439	0.000387	6496.677780	44295.860578	3948.516711	22728.242442
28.534500	-0.003394	-0.000298	-0.003649	0.004751	6441.946704	43810.706135	3926.672592	22529.565187
29.035500	0.000497	0.000459	0.002360	0.000618	6508.924308	44273.457335	3952.935485	22717.670096
29.535500	-0.000567	0.000491	0.002039	0.000625	6499.908402	44275.858030	3952.074091	22717.333009
30.035500	-0.000907	0.000097	0.002741	0.000381	6499.103686	44261.634258	3954.554733	22728.509889
30.536500	-0.003043	0.000031	0.005442	0.003517	6455.084856	43958.045279	3953.412272	22585.543401
31.036500	0.001318	0.000148	0.000631	0.001497	6508.439413	44160.448149	3946.125167	22677.539167
31.536500	-0.001054	-0.000272	-0.000771	0.000479	6497.048492	44217.190012	3945.125374	22724.040691
32.037000	0.000091	0.000072	-0.007403	0.000405	6507.301092	44256.966830	3928.188695	22727.405778
32.537500	-0.002746	0.000184	0.002428	0.004600	6448.564126	43870.323543	3942.728202	22536.412531
33.035000	-0.000726	0.000120	0.001825	0.000036	6503.534982	44296.680787	3953.059683	22744.321590
33.537500	-0.000869	-0.000268	0.004980	0.001561	6489.531885	44114.865089	3957.336978	22674.615780
34.035000	-0.000677	0.000590	-0.001128	0.002531	6483.012243	44104.244437	3938.872162	22630.376232
34.535500	-0.001298	0.000519	-0.000917	0.003547	6469.343197	44001.361679	3936.792946	22584.175875
35.035500	-0.002027	-0.000183	0.000411	0.002081	6475.490745	44073.600070	3944.030923	22650.867937
35.536500	0.001185	0.000890	0.002096	0.002852	6495.921238	44102.199263	3946.408265	22615.760867
36.036500	-0.001422	0.000464	0.000737	0.002678	6475.564511	44078.437825	3943.326621	22623.705219
36.537000	-0.000602	-0.000022	-0.004324	0.002398	6484.758980	44058.923952	3930.978358	22636.456971
37.034500	0.000006	0.000830	-0.003374	0.002993	6484.862441	44083.184850	3931.889345	22609.372943
37.534500	-0.000948	0.000479	-0.002937	0.002424	6481.639429	44103.843122	3934.479243	22635.258198
38.034500	-0.001425	0.000499	0.003311	0.002159	6479.871002	44130.901361	3951.388432	22647.326757
38.535000	-0.000975	0.000753	0.001141	0.002632	6479.676382	44110.106839	3944.495608	22625.790048
39.035500	-0.001523	-0.000391	-0.002326	0.001543	6484.194933	44104.890768	3938.329034	22675.402814
39.535500	-0.000322	0.000359	-0.001240	0.002101	6489.585988	44123.135235	3939.695618	22649.971325
40.041000	-0.000930	-0.000074	-0.003329	0.001692	6487.916427	44120.833765	3935.354907	22668.627059
40.536500	-0.000199	0.000836	-0.002590	0.002771	6485.002069	44104.759956	3934.479312	22619.460574
41.036500	-0.000115	0.001070	-0.002005	0.002898	6484.646032	44114.970796	3935.661829	22613.701395
41.537000	-0.001096	-0.000052	0.002747	0.001954	6484.329670	44098.062734	3950.450918	22656.653826
42.040000	-0.000598	0.000964	-0.001011	0.002999	6479.761463	44095.394942	3937.967424	22609.100050
42.537000	-0.002337	0.001035	0.005698	0.002936	6465.783911	44108.028760	3955.610126	22611.960511
43.035000	-0.002655	-0.000032	0.005678	0.002185	6469.390579	44078.076409	3957.529685	22646.144436
43.535500	0.001641	0.000600	-0.000696	-0.001779	6538.872352	44515.757251	3951.209392	22827.565936
44.035500	0.000781	0.000068	-0.002857	0.000503	6512.286948	44247.245141	3939.649037	22722.937030
44.535500	-0.000059	-0.000357	-0.000303	0.000088	6508.708788	44246.293077	3947.360273	22741.912972
45.036500	0.000482	0.000106	-0.002077	0.000721	6507.939202	44230.144652	3941.104961	22712.983805
45.539000	-0.001518	0.000401	-0.002372	0.001942	6480.900674	44142.162849	3937.180411	22657.208424
46.042500	-0.000837	0.001500	0.001455	0.001319	6491.824784	44305.907904	3948.736324	22685.653235
46.537000	0.000663	0.000119	0.001208	0.001913	6499.426323	44118.137188	3946.540570	22658.520509
47.037000	-0.002685	0.000510	-0.001165	0.003199	6460.698941	44033.402125	3937.051703	22600.011405
47.535000	-0.001021	-0.000036	-0.002625	0.003337	6473.405115	43968.692975	3932.930693	22593.703615
48.035000	-0.000698	0.000517	-0.000780	0.000755	6497.724153	44265.990423	3944.381636	22711.411248
48.536000	-0.000165	0.000750	-0.003384	0.002483	6487.697498	44123.984118	3933.175317	22632.569591
49.036000	-0.001581	0.000686	0.000806	0.001055	6487.795722	44253.517830	3947.729697	22697.693129
49.536000	0.000693	-0.000636	0.003078	-0.000716	6521.837997	44296.261545	3958.322724	22778.776514
50.036500	0.001406	0.000415	0.000576	0.002238	6502.933533	44115.371360	3944.051287	22643.710522
50.536500	-0.006322	-0.012373	0.008506	0.008775	6384.923125	42323.460630	3947.678830	22348.170914
51.039500	0.010639	-0.020154	0.026344	0.244183	4987.782392	25437.035778	3501.442113	14192.781182
51.537500	-0.011163	-0.034697	-0.027642	-0.108020	7424.276061	51893.539854	4178.757198	28362.021356
52.037500	-0.006442	-0.098929	-0.032246	-0.278702	9700.348095	65490.990083	4813.882692	40640.302121
52.535000	-0.005772	-0.090821	-0.021867	-0.268441	9550.734213	65181.619324	4814.425063	39758.085739
53.035500	0.000827	-0.060799	-0.009863	-0.224717	9001.757792	63248.554155	4673.615050	36223.968334
53.538500	0.006785	-0.032165	0.004113	-0.165489	8291.679777	59146.207241	4489.726805	31970.293737
54.035500	0.008788	-0.030409	0.000715	-0.166500	8329.579173	59505.645052	4480.553707	32038.182044
54.535500	0.008644	-0.023235	0.004243	-0.142017	8027.519465	57295.336949	4402.104706	30438.655517
55.042000	0.020593	-0.012563	0.017891	-0.126256	7982.274564	56662.160135	4394.403988	29455.675108
55.536500	0.037014	-0.005233	0.043616	-0.070884	7542.041847	51036.267638	4290.203962	26271.835514
56.037000	0.057710	0.009386	0.061893	-0.009587	7123.312727	46134.996361	4151.102020	23189.840384
56.537000	0.075305	0.021809	0.088226	0.054117	6692.909475	41324.272891	4040.960885	20415.966750
57.040500	0.102626	0.034781	0.113448	0.116152	6397.724954	37223.879579	3941.345678	18078.890995
57.538000	0.122207	0.048280	0.134571	0.166075	6158.350243	34465.814966	3869.091586	16426.070591
58.035500	0.143749	0.060226	0.158679	0.217174	5940.710360	31748.058582	3805.592313	14920.046568
58.535500	0.167344	0.077105	0.181128	0.261317	5797.898737	29995.111492	3757.338863	13754.308142
59.036000	0.189915	0.088902	0.204994	0.285138	5789.430573	29256.359078	3757.435863	13172.754041
59.536500	0.207603	0.104662	0.222583	0.319858	5676.394757	28132.129474	3720.996034	12380.257763
60.036000	0.220747	0.114059	0.231693	0.327217	5714.295387	28250.705033	3724.655217	12220.287118
60.539500	0.230464	0.114255	0.249794	0.374329	5478.016314	25658.948658	3665.893053	11257.852558
61.037000	0.239184	0.117165	0.263831	0.397619	5391.322663	24617.423170	3647.958904	10819.262296
61.537000	0.245896	0.129248	0.264202	0.374730	5570.552168	26435.238384	3693.773007	11250.094854
62.035000	0.251533	0.135780	0.265550	0.363735	5676.743976	27402.843150	3719.100213	11465.257946
62.535500	0.255196	0.139525	0.269035	0.367603	5675.406686	27395.928434	3718.303663	11388.944446
63.054000	0.261858	0.142078	0.278905	0.368888	5710.600179	27467.404185	3736.331867	11363.741841
63.535500	0.267398	0.146105	0.284193	0.373899	5714.091281	27411.946597	3736.921284	11266.174605
64.039000	0.268846	0.147409	0.285397	0.377209	5701.843272	27299.131724	3732.461265	11202.338850
64.536500	0.272296	0.150462	0.285780	0.381416	5696.871052	27234.471720	3724.419973	11121.895070
65.037000	0.277909	0.153748	0.288151	0.386295	5701.688179	27145.535985	3719.185645	11029.584420
65.536500	0.279961	0.155963	0.293060	0.391127	5683.492627	27000.122777	3719.345819	10939.166565
66.034000	0.282622	0.157279	0.293164	0.393258	5686.948501	26954.977103	3715.135847	10899.607984
66.537500	0.282644	0.157183	0.289838	0.394667	5677.904234	26871.929625	3705.378979	10873.564988
67.034500	0.284101	0.160039	0.294903	0.397883	5666.477739	26852.055966	3709.175201	10814.425903
67.535500	0.284847	0.160485	0.293607	0.399466	5661.052049	26789.538988	3703.269328	10785.479735
68.035000	0.288924	0.164720	0.300197	0.403217	5663.169745	26816.166542	3709.094210	10717.317001
68.539000	0.290474	0.165566	0.298709	0.405054	5661.308281	26761.769398	3702.277574	10684.143726
69.036500	0.289586	0.166000	0.299581	0.404496	5659.177146	26816.213106	3705.202039	10694.203770
69.536500	0.293415	0.167850	0.308887	0.408160	5660.246246	26716.744465	3716.839477	10628.376616
70.037000	0.295131	0.168660	0.308889	0.409508	5662.621064	26687.261599	3714.047851	10604.289044
70.537000	0.297498	0.169661	0.301595	0.412777	5656.791410	26563.579723	3692.453090	10546.208855
71.034500	0.297100	0.170145	0.311321	0.413878	5647.119113	26530.011636	3710.045460	10526.736132
71.538000	0.299775	0.171061	0.308957	0.416418	5647.992950	26442.022161	3700.001432	10482.026725
72.041000	0.298901	0.171756	0.310325	0.416982	5638.744034	26449.099238	3701.639856	10472.134136
72.535500	0.303565	0.174277	0.312891	0.420345	5647.102363	26403.539743	3700.013981	10413.394040
73.039000	0.299175	0.173140	0.313880	0.419502	5624.354909	26387.678667	3703.753707	10428.074591
73.536000	0.300367	0.174311	0.312619	0.422356	5613.763417	26296.973151	3695.374921	10378.495339
74.036500	0.302610	0.174269	0.311651	0.422568	5626.712829	26283.284692	3692.987286	10374.818071
74.536000	0.304906	0.175792	0.308922	0.423943	5632.610518	26291.303048	3684.733300	10351.069717
75.037000	0.304416	0.176919	0.315446	0.425298	5620.815535	26279.059137	3695.142380	10327.727602
75.534000	0.303106	0.176740	0.313494	0.424960	5614.621741	26287.599365	3691.880130	10333.547332
76.034500	0.306075	0.178195	0.320748	0.426335	5624.786393	26291.882197	3703.825230	10309.906723
76.535000	0.303161	0.176769	0.321305	0.426523	5605.042282	26205.253297	3704.581138	10306.687888
77.038500	0.306954	0.179352	0.317075	0.428614	5615.854926	26231.637538	3691.731437	10270.911883
77.538500	0.305948	0.177939	0.319617	0.427483	5616.657122	26216.529269	3699.177082	10290.245755
78.036000	0.306162	0.178972	0.316404	0.429094	5607.767850	26185.540149	3689.410522	10262.717949
78.536500	0.311474	0.179833	0.321084	0.431062	5629.083101	26126.362911	3694.886188	10229.241490
79.036500	0.307778	0.179809	0.321671	0.431333	5603.812802	26110.614610	3695.526472	10224.641260
79.536500	0.307475	0.179281	0.313252	0.430456	5607.457021	26129.290092	3680.372673	10239.541669
80.037500	0.309321	0.180008	0.321773	0.432822	5604.158908	26041.912377	3692.721539	10199.436609
80.535000	0.306705	0.177500	0.314259	0.431382	5596.711424	25985.140027	3680.534586	10223.815006
81.034500	0.307804	0.178745	0.317930	0.435050	5580.509898	25856.920930	3680.540146	10161.866960
81.534500	0.305848	0.176917	0.325920	0.435193	5567.349018	25753.170813	3696.315361	10159.462794
82.035500	0.308400	0.178167	0.322556	0.437400	5569.509502	25702.979358	3685.086424	10122.456374
82.536000	0.308146	0.177265	0.323401	0.438355	5561.953270	25605.821250	3684.866879	10106.500314
83.036000	0.307593	0.178464	0.324050	0.440389	5545.845027	25562.307296	3682.096822	10072.635031
83.536000	0.310585	0.177205	0.323836	0.440205	5565.634842	25506.394394	3682.039190	10075.695858
84.037000	0.309447	0.177901	0.320816	0.442327	5545.325151	25432.386551	3671.835212	10040.513434
84.537000	0.304793	0.177610	0.317683	0.442316	5516.665334	25417.880666	3665.700035	10040.692415
85.037000	0.306296	0.177236	0.323909	0.442775	5523.081121	25374.830174	3677.066993	10033.101387
85.535000	0.308020	0.176081	0.321188	0.442537	5535.186191	25327.514301	3672.155422	10037.045590
86.035000	0.308311	0.175057	0.322566	0.443344	5531.999247	25233.347517	3673.282115	10023.715540
86.535500	0.307212	0.176491	0.321434	0.445017	5514.939991	25221.092107	3667.759422	9996.168724
87.036000	0.307686	0.174002	0.325656	0.443395	5527.827593	25176.572988	3679.307744	10022.864830
87.536000	0.310156	0.174660	0.323583	0.446049	5526.696782	25074.687741	3669.954195	9979.228067
88.036500	0.307432	0.174461	0.327330	0.447438	5501.466405	24993.827199	3674.607076	9956.478509
88.536500	0.307912	0.173537	0.320965	0.445581	5515.771239	25041.327333	3665.734066	9986.906927
89.036500	0.309175	0.174045	0.326615	0.447279	5513.102244	24980.799353	3673.507220	9959.077053
89.536500	0.305511	0.174554	0.322704	0.448481	5483.435186	24945.667020	3663.463708	9939.458168
90.037500	0.308412	0.171889	0.323214	0.449021	5497.786068	24783.854914	3663.404355	9930.651582
90.535000	0.308854	0.174028	0.329965	0.450256	5492.960542	24829.424388	3674.245088	9910.578960
91.035000	0.309419	0.171489	0.327433	0.449418	5501.511219	24743.829694	3670.901090	9924.196370
91.535500	0.311745	0.172218	0.325054	0.451411	5503.543932	24680.453872	3662.332144	9891.848447
92.035500	0.310553	0.173342	0.333604	0.453461	5483.815137	24634.181048	3675.104003	9858.728108
92.535500	0.311471	0.171987	0.324787	0.453660	5488.172320	24556.634428	3657.438235	9855.512161
93.035000	0.311062	0.173075	0.329718	0.455991	5471.588669	24494.925794	3662.495864	9818.064935
93.536500	0.310020	0.171937	0.330211	0.456284	5463.541268	24424.018790	3662.885722	9813.372901
94.037000	0.311029	0.172380	0.332864	0.457558	5461.946956	24382.882661	3665.581174	9792.990207
94.537000	0.310311	0.171081	0.330360	0.458022	5454.846171	24296.021179	3659.788224	9785.585226
95.034500	0.309560	0.170668	0.322287	0.459135	5443.697746	24221.135155	3642.114795	9767.864697
95.535000	0.312001	0.171209	0.330512	0.461052	5446.825104	24153.819150	3654.210464	9737.424609
96.040500	0.307364	0.170457	0.329755	0.464299	5400.118504	23959.376207	3646.513653	9686.192787
