sample name	sample
index	1164
start time	 04-26-2021  10:29:47 AM


Wavelength (nm)	Absorbance
494.344910	-0.168236
494.563924	-0.168236
494.782919	-0.168236
495.001897	0.097529
495.220856	-0.053934
495.439797	-0.027384
495.658719	-0.010691
495.877624	0.014154
496.096510	-0.042194
496.315378	-0.051284
496.534227	-0.066408
496.753059	-0.022498
496.971872	-0.077227
497.190667	0.093944
497.409444	0.132932
497.628203	0.136887
497.846943	0.142172
498.065665	0.144782
498.284369	0.145196
498.503055	0.145506
498.721723	0.145506
498.940372	0.147508
499.159003	0.148140
499.377616	0.147381
499.596210	0.147766
499.814787	0.146885
500.033345	0.146829
500.251885	0.147171
500.470406	0.147140
500.688910	0.147833
500.907395	0.147669
501.125862	0.146480
501.344311	0.145878
501.562742	0.146231
501.781154	0.147388
501.999548	0.148470
502.217924	0.149419
502.436282	0.150174
502.654621	0.150402
502.872942	0.150684
503.091245	0.151595
503.309530	0.152124
503.527797	0.152686
503.746045	0.151945
503.964275	0.153624
504.182487	0.154350
504.400681	0.154931
504.618856	0.155218
504.837013	0.154585
505.055152	0.154728
505.273273	0.154537
505.491376	0.152592
505.709460	0.152905
505.927526	0.151861
506.145574	0.151279
506.363604	0.150446
506.581615	0.149782
506.799608	0.150414
507.017583	0.150146
507.235540	0.150712
507.453478	0.152746
507.671399	0.152401
507.889301	0.152267
508.107185	0.152867
508.325050	0.153385
508.542898	0.154223
508.760727	0.155282
508.978538	0.155433
509.196330	0.154940
509.414105	0.155189
509.631861	0.155318
509.849599	0.155507
510.067319	0.154570
510.285021	0.155544
510.502704	0.155246
510.720369	0.154935
510.938016	0.156456
511.155645	0.156345
511.373255	0.155879
511.590848	0.156859
511.808422	0.156171
512.025977	0.156440
512.243515	0.155696
512.461034	0.156985
512.678536	0.156236
512.896018	0.155932
513.113483	0.157285
513.330930	0.158306
513.548358	0.158610
513.765768	0.159602
513.983160	0.159649
514.200533	0.160435
514.417889	0.158869
514.635226	0.159504
514.852545	0.159932
515.069845	0.158966
515.287128	0.158981
515.504392	0.159123
515.721638	0.158850
515.938866	0.159737
516.156075	0.158442
516.373267	0.159477
516.590440	0.159852
516.807594	0.159442
517.024731	0.160689
517.241850	0.160658
517.458950	0.160999
517.676032	0.161753
517.893095	0.161886
518.110141	0.162984
518.327168	0.163101
518.544177	0.163437
518.761168	0.163794
518.978141	0.163033
519.195095	0.163861
519.412031	0.164236
519.628949	0.164013
519.845849	0.164625
520.062731	0.165095
520.279594	0.165819
520.496439	0.166095
520.713266	0.166425
520.930074	0.167694
521.146865	0.167704
521.363637	0.167523
521.580391	0.168092
521.797127	0.168533
522.013844	0.168916
522.230543	0.168726
522.447224	0.168728
522.663887	0.169491
522.880532	0.170199
523.097158	0.170393
523.313766	0.170520
523.530356	0.171065
523.746928	0.171360
523.963481	0.171941
524.180017	0.172166
524.396534	0.172831
524.613032	0.172495
524.829513	0.171982
525.045975	0.171566
525.262420	0.171716
525.478845	0.172089
525.695253	0.171638
525.911643	0.171467
526.128014	0.172169
526.344367	0.171765
526.560702	0.171662
526.777018	0.172429
526.993316	0.173615
527.209597	0.173986
527.425858	0.173887
527.642102	0.174550
527.858328	0.175314
528.074535	0.175852
528.290724	0.176274
528.506894	0.176958
528.723047	0.177058
528.939181	0.176954
529.155297	0.177336
529.371395	0.177946
529.587475	0.177910
529.803536	0.178878
530.019579	0.178456
530.235604	0.179242
530.451611	0.179468
530.667600	0.179042
530.883570	0.179248
531.099522	0.179545
531.315456	0.179796
531.531372	0.180710
531.747269	0.179821
531.963148	0.180118
532.179009	0.180005
532.394852	0.180569
532.610676	0.181198
532.826482	0.181614
533.042271	0.181965
533.258040	0.182099
533.473792	0.181849
533.689525	0.182312
533.905240	0.182608
534.120937	0.182918
534.336616	0.183187
534.552277	0.183739
534.767919	0.183623
534.983543	0.183660
535.199149	0.183912
535.414736	0.184305
535.630306	0.185119
535.845857	0.185824
536.061390	0.186495
536.276904	0.187278
536.492401	0.187313
536.707879	0.188268
536.923339	0.188731
537.138781	0.188871
537.354204	0.189254
537.569610	0.189313
537.784997	0.189448
538.000366	0.189088
538.215716	0.189340
538.431049	0.190185
538.646363	0.190424
538.861659	0.190847
539.076937	0.191683
539.292196	0.191540
539.507438	0.191717
539.722661	0.191479
539.937866	0.191610
540.153052	0.191603
540.368221	0.191646
540.583371	0.191936
540.798503	0.192190
541.013617	0.191378
541.228712	0.192131
541.443789	0.192376
541.658848	0.193267
541.873889	0.194087
542.088912	0.194217
542.303916	0.193955
542.518902	0.194187
542.733870	0.194340
542.948820	0.195382
543.163752	0.195606
543.378665	0.196063
543.593560	0.196088
543.808437	0.196402
544.023295	0.196637
544.238136	0.196872
544.452958	0.196849
544.667762	0.197498
544.882548	0.197297
545.097315	0.197337
545.312064	0.196970
545.526795	0.197338
545.741508	0.197246
545.956203	0.197442
546.170879	0.198223
546.385537	0.198683
546.600177	0.199024
546.814799	0.199594
547.029402	0.199675
547.243988	0.200435
547.458555	0.200541
547.673103	0.201029
547.887634	0.201104
548.102146	0.201152
548.316640	0.201505
548.531116	0.201283
548.745574	0.201164
548.960013	0.201730
549.174435	0.201833
549.388838	0.202160
549.603222	0.202564
549.817589	0.202873
550.031937	0.203222
550.246267	0.203323
550.460579	0.203695
550.674873	0.204400
550.889148	0.204783
551.103405	0.204963
551.317644	0.205194
551.531865	0.205542
551.746068	0.205671
551.960252	0.205666
552.174418	0.205762
552.388566	0.205877
552.602696	0.205661
552.816807	0.205790
553.030900	0.205883
553.244975	0.206230
553.459032	0.206050
553.673070	0.206622
553.887091	0.206900
554.101093	0.206937
554.315077	0.207206
554.529042	0.207830
554.742990	0.207697
554.956919	0.207972
555.170830	0.207709
555.384722	0.207807
555.598597	0.207493
555.812453	0.207624
556.026291	0.208052
556.240111	0.208324
556.453913	0.208324
556.667696	0.208761
556.881461	0.208991
557.095208	0.209193
557.308937	0.209898
557.522647	0.209995
557.736339	0.210172
557.950013	0.210059
558.163669	0.209750
558.377307	0.210026
558.590926	0.210540
558.804527	0.210824
559.018110	0.211105
559.231675	0.211311
559.445221	0.211837
559.658749	0.212253
559.872259	0.212715
560.085751	0.213525
560.299225	0.213661
560.512680	0.213550
560.726117	0.214114
560.939536	0.214415
561.152937	0.214577
561.366319	0.214808
561.579683	0.214834
561.793029	0.215102
562.006357	0.215090
562.219667	0.214928
562.432958	0.214880
562.646231	0.214470
562.859486	0.214435
563.072723	0.213942
563.285941	0.214176
563.499141	0.214421
563.712323	0.214583
563.925487	0.214632
564.138632	0.215225
564.351760	0.215415
564.564869	0.215891
564.777960	0.216229
564.991032	0.216834
565.204087	0.216774
565.417123	0.216855
565.630141	0.217235
565.843140	0.217325
566.056122	0.217423
566.269085	0.217782
566.482030	0.217562
566.694957	0.217792
566.907866	0.217679
567.120756	0.218065
567.333628	0.218416
567.546482	0.218297
567.759318	0.218687
567.972135	0.218912
568.184935	0.219344
568.397716	0.219965
568.610478	0.220125
568.823223	0.220635
569.035949	0.221134
569.248657	0.221265
569.461347	0.221572
569.674019	0.221414
569.886672	0.221734
570.099308	0.221635
570.311925	0.222043
570.524523	0.221845
570.737104	0.222138
570.949666	0.222077
571.162210	0.222345
571.374736	0.222561
571.587244	0.223042
571.799733	0.222805
572.012205	0.223259
572.224658	0.223243
572.437092	0.223536
572.649509	0.223457
572.861907	0.223728
573.074287	0.223573
573.286649	0.223544
573.498993	0.223716
573.711318	0.224495
573.923625	0.224245
574.135914	0.223953
574.348185	0.224490
574.560438	0.224598
574.772672	0.224788
574.984888	0.225093
575.197086	0.225018
575.409266	0.225184
575.621427	0.225227
575.833570	0.225902
576.045695	0.226437
576.257802	0.226634
576.469890	0.227121
576.681961	0.227149
576.894013	0.227604
577.106046	0.228167
577.318062	0.228452
577.530059	0.228490
577.742039	0.228588
577.954000	0.228815
578.165942	0.228531
578.377867	0.228476
578.589773	0.228494
578.801661	0.228806
579.013531	0.229045
579.225382	0.228970
579.437216	0.228914
579.649031	0.228961
579.860828	0.228601
580.072606	0.229145
580.284367	0.229418
580.496109	0.229480
580.707833	0.229319
580.919539	0.229143
581.131227	0.229381
581.342896	0.229644
581.554547	0.229423
581.766180	0.229517
581.977795	0.229584
582.189391	0.229937
582.400969	0.230364
582.612529	0.230640
582.824071	0.231186
583.035595	0.231481
583.247100	0.231499
583.458587	0.231899
583.670056	0.232310
583.881506	0.232506
584.092939	0.232352
584.304353	0.232878
584.515749	0.233026
584.727127	0.233192
584.938486	0.233511
585.149828	0.234014
585.361151	0.234011
585.572456	0.234186
585.783742	0.234340
585.995011	0.234696
586.206261	0.234659
586.417493	0.234900
586.628706	0.235087
586.839902	0.235137
587.051079	0.235491
587.262238	0.236233
587.473379	0.236983
587.684502	0.237320
587.895606	0.237675
588.106692	0.237885
588.317760	0.237892
588.528810	0.238443
588.739841	0.238644
588.950855	0.238545
589.161850	0.238616
589.372827	0.238387
589.583785	0.238515
589.794726	0.238448
590.005648	0.238416
590.216552	0.238565
590.427437	0.238501
590.638305	0.238878
590.849154	0.239040
591.059985	0.239054
591.270798	0.239414
591.481592	0.240009
591.692369	0.240540
591.903127	0.240687
592.113867	0.241028
592.324588	0.241108
592.535292	0.241333
592.745977	0.241887
592.956644	0.242158
593.167293	0.242587
593.377923	0.242555
593.588536	0.242770
593.799130	0.243269
594.009706	0.243778
594.220263	0.243877
594.430803	0.244048
594.641324	0.243796
594.851827	0.243921
595.062312	0.244047
595.272778	0.244185
595.483227	0.244429
595.693657	0.244665
595.904069	0.244383
596.114462	0.244587
596.324838	0.244340
596.535195	0.244481
596.745534	0.244595
596.955855	0.244590
597.166157	0.244854
597.376441	0.244722
597.586707	0.244610
597.796955	0.244695
598.007185	0.244849
598.217396	0.245084
598.427589	0.245473
598.637764	0.245857
598.847921	0.245885
599.058060	0.245759
599.268180	0.246003
599.478282	0.246439
599.688366	0.247025
599.898431	0.247482
600.108479	0.247798
600.318508	0.247947
600.528519	0.248116
600.738511	0.248443
600.948486	0.249136
601.158442	0.249241
601.368380	0.249038
601.578300	0.248701
601.788202	0.248736
601.998085	0.248660
602.207950	0.248894
602.417797	0.248874
602.627626	0.248870
602.837436	0.248548
603.047228	0.248861
603.257002	0.249451
603.466758	0.249960
603.676496	0.250430
603.886215	0.250616
604.095916	0.250896
604.305599	0.251348
604.515264	0.251617
604.724910	0.252112
604.934538	0.252324
605.144148	0.252137
605.353740	0.251980
605.563314	0.251749
605.772869	0.252137
605.982406	0.252085
606.191925	0.251892
606.401425	0.251923
606.610908	0.252002
606.820372	0.251868
607.029818	0.252276
607.239246	0.252442
607.448655	0.252441
607.658047	0.252268
607.867420	0.252547
608.076775	0.252639
608.286111	0.252628
608.495430	0.252897
608.704730	0.253109
608.914012	0.252999
609.123275	0.253434
609.332521	0.253766
609.541748	0.254312
609.750957	0.254389
609.960148	0.254770
610.169321	0.255459
610.378475	0.255483
610.587611	0.255701
610.796729	0.256023
611.005829	0.256187
611.214910	0.256397
611.423974	0.256537
611.633019	0.256810
611.842045	0.257288
612.051054	0.257132
612.260044	0.257300
612.469017	0.257422
612.677970	0.257650
612.886906	0.257723
613.095824	0.257670
613.304723	0.257816
613.513604	0.257881
613.722467	0.257687
613.931311	0.257791
614.140138	0.257919
614.348946	0.258093
614.557736	0.258128
614.766507	0.258076
614.975261	0.258352
615.183996	0.258225
615.392713	0.258259
615.601412	0.258011
615.810092	0.258377
616.018754	0.258440
616.227399	0.258435
616.436024	0.258242
616.644632	0.258453
616.853222	0.258316
617.061793	0.258730
617.270346	0.258738
617.478880	0.259357
617.687397	0.259171
617.895895	0.259057
618.104375	0.259140
618.312837	0.259464
618.521281	0.259942
618.729706	0.259950
618.938113	0.259825
619.146502	0.260037
619.354873	0.260056
619.563226	0.260283
619.771560	0.260616
619.979876	0.260797
620.188174	0.260786
620.396453	0.260592
620.604715	0.261123
620.812958	0.261457
621.021183	0.261788
621.229390	0.261850
621.437578	0.262041
621.645748	0.262009
621.853900	0.262317
622.062034	0.262506
622.270150	0.262714
622.478247	0.262904
622.686326	0.263335
622.894387	0.263347
623.102430	0.263530
623.310454	0.263700
623.518461	0.264186
623.726449	0.264399
623.934418	0.264601
624.142370	0.265106
624.350303	0.264997
624.558218	0.265015
624.766115	0.265360
624.973994	0.265495
625.181855	0.265698
625.389697	0.266094
625.597521	0.265923
625.805327	0.266278
626.013114	0.266165
626.220883	0.266429
626.428634	0.266479
626.636367	0.266200
626.844082	0.266443
627.051778	0.266535
627.259457	0.266118
627.467117	0.266253
627.674758	0.266374
627.882382	0.266424
628.089987	0.266604
628.297574	0.266751
628.505143	0.267323
628.712694	0.267507
628.920226	0.267788
629.127740	0.268361
629.335236	0.268733
629.542714	0.268956
629.750174	0.269087
629.957615	0.269312
630.165038	0.269531
630.372443	0.269840
630.579829	0.269984
630.787198	0.270157
630.994548	0.270295
631.201880	0.270636
631.409194	0.270661
631.616489	0.270645
631.823766	0.270958
632.031025	0.271173
632.238266	0.271105
632.445489	0.271386
632.652693	0.271572
632.859879	0.271473
633.067047	0.271411
633.274197	0.271964
633.481329	0.272709
633.688442	0.272458
633.895537	0.272778
634.102614	0.273010
634.309672	0.273261
634.516713	0.273090
634.723735	0.273484
634.930739	0.273884
635.137724	0.273752
635.344692	0.273623
635.551641	0.273857
635.758572	0.273743
635.965485	0.274054
636.172379	0.274090
636.379256	0.274516
636.586114	0.274600
636.792954	0.274609
636.999775	0.274721
637.206579	0.275005
637.413364	0.275410
637.620131	0.275581
637.826880	0.275736
638.033610	0.275483
638.240323	0.275601
638.447017	0.275695
638.653692	0.275790
638.860350	0.276272
639.066990	0.276455
639.273611	0.276644
639.480214	0.276904
639.686798	0.277085
639.893365	0.277597
640.099913	0.278128
640.306443	0.278321
640.512955	0.278367
640.719449	0.278264
640.925924	0.278338
641.132381	0.278184
641.338820	0.278057
641.545241	0.278000
641.751644	0.278310
641.958028	0.278211
642.164394	0.278345
642.370742	0.278800
642.577071	0.279068
642.783383	0.279327
642.989676	0.279536
643.195951	0.280161
643.402207	0.280240
643.608446	0.280495
643.814666	0.280578
644.020868	0.281202
644.227052	0.281501
644.433218	0.281567
644.639365	0.281643
644.845494	0.282308
645.051605	0.282251
645.257698	0.282768
645.463772	0.282626
645.669828	0.282772
645.875866	0.282641
646.081886	0.282705
646.287888	0.283062
646.493871	0.283151
646.699836	0.283104
646.905783	0.283290
647.111712	0.283521
647.317622	0.283883
647.523514	0.284158
647.729388	0.284360
647.935244	0.284296
648.141082	0.284356
648.346901	0.284447
648.552702	0.284620
648.758485	0.284814
648.964250	0.284649
649.169996	0.284817
649.375724	0.285110
649.581434	0.285411
649.787126	0.285943
649.992800	0.286269
650.198455	0.286800
650.404092	0.287063
650.609711	0.287423
650.815311	0.287770
651.020894	0.288051
651.226458	0.288029
651.432004	0.288202
651.637532	0.288299
651.843041	0.288279
652.048532	0.288130
652.254006	0.288295
652.459460	0.288230
652.664897	0.288334
652.870315	0.288420
653.075716	0.288817
653.281097	0.288830
653.486461	0.289158
653.691807	0.289408
653.897134	0.289865
654.102443	0.290207
654.307734	0.290561
654.513006	0.290881
654.718261	0.291094
654.923497	0.291247
655.128715	0.291842
655.333915	0.291960
655.539096	0.292087
655.744259	0.292320
655.949404	0.292475
656.154531	0.292510
656.359640	0.292694
656.564730	0.293056
656.769802	0.293137
656.974856	0.292993
657.179892	0.293403
657.384909	0.293460
657.589908	0.293567
657.794889	0.293828
657.999852	0.294538
658.204797	0.294847
658.409723	0.295116
658.614631	0.295508
658.819521	0.295946
659.024393	0.295831
659.229246	0.296429
659.434081	0.296777
659.638898	0.297048
659.843697	0.297026
660.048478	0.297236
660.253240	0.297197
660.457984	0.297341
660.662710	0.297615
660.867417	0.297897
661.072107	0.297994
661.276778	0.298242
661.481431	0.298244
661.686066	0.298473
661.890682	0.298695
662.095281	0.298877
662.299861	0.298967
662.504422	0.299006
662.708966	0.299198
662.913491	0.299541
663.117999	0.299753
663.322488	0.300333
663.526958	0.300528
663.731411	0.300705
663.935845	0.301255
664.140261	0.301778
664.344659	0.302119
664.549038	0.302657
664.753400	0.302903
664.957743	0.303344
665.162068	0.303281
665.366375	0.303605
665.570663	0.303822
665.774933	0.303822
665.979185	0.303902
666.183419	0.303916
666.387635	0.303753
666.591832	0.304023
666.796011	0.303884
667.000172	0.303876
667.204315	0.303606
667.408439	0.303760
667.612545	0.304024
667.816634	0.304293
668.020703	0.304554
668.224755	0.304887
668.428788	0.305008
668.632803	0.305479
668.836800	0.305912
669.040779	0.306692
669.244739	0.306937
669.448681	0.307059
669.652605	0.307153
669.856511	0.307773
670.060399	0.308154
670.264268	0.308451
670.468119	0.308471
670.671952	0.308922
670.875767	0.309086
671.079563	0.309409
671.283341	0.309852
671.487101	0.310223
671.690843	0.310104
671.894567	0.310176
672.098272	0.310504
672.301959	0.310968
672.505628	0.310926
672.709278	0.311160
672.912911	0.311401
673.116525	0.311500
673.320121	0.311625
673.523699	0.311820
673.727258	0.312100
673.930799	0.311996
674.134322	0.312329
674.337827	0.312619
674.541314	0.312620
674.744782	0.312823
674.948232	0.313099
675.151664	0.313676
675.355078	0.314169
675.558474	0.314516
675.761851	0.315056
675.965210	0.315350
676.168551	0.315668
676.371873	0.315995
676.575178	0.316331
676.778464	0.316458
676.981732	0.316590
677.184981	0.316454
677.388213	0.316465
677.591426	0.316690
677.794621	0.316784
677.997798	0.316771
678.200956	0.317303
678.404097	0.317585
678.607219	0.318052
678.810323	0.318439
679.013408	0.318955
679.216476	0.319671
679.419525	0.319929
679.622556	0.320109
679.825569	0.320632
680.028563	0.320539
680.231540	0.320818
680.434498	0.320865
680.637438	0.320816
680.840359	0.320895
681.043263	0.320846
681.246148	0.320991
681.449015	0.320984
681.651864	0.320990
681.854694	0.321279
682.057506	0.321168
682.260301	0.321468
682.463076	0.321763
682.665834	0.321864
682.868573	0.322061
683.071295	0.322373
683.273998	0.322678
683.476682	0.322962
683.679349	0.322988
683.881997	0.323248
684.084627	0.323605
684.287239	0.323598
684.489833	0.323925
684.692408	0.323983
684.894965	0.323940
685.097504	0.324077
685.300025	0.324462
685.502527	0.324738
685.705012	0.324999
685.907478	0.324947
686.109925	0.325165
686.312355	0.325496
686.514766	0.325968
686.717159	0.326199
686.919534	0.326581
687.121891	0.326668
687.324230	0.326981
687.526550	0.327254
687.728852	0.327631
687.931136	0.327877
688.133401	0.328010
688.335649	0.328071
688.537878	0.328351
688.740089	0.328297
688.942281	0.328352
689.144456	0.328345
689.346612	0.328526
689.548750	0.328568
689.750870	0.329067
689.952971	0.329186
690.155055	0.329223
690.357120	0.329414
690.559167	0.329634
690.761195	0.329902
690.963206	0.330131
691.165198	0.330372
691.367172	0.330495
691.569128	0.330202
691.771065	0.330241
691.972984	0.330315
692.174885	0.330750
692.376768	0.331038
692.578633	0.331073
692.780479	0.331364
692.982308	0.331207
693.184118	0.331493
693.385909	0.331931
