sample name	sample
index	1513
start time	 05-18-2021  03:08:04 PM


Wavelength (nm)	Absorbance
494.344910	0.147020
494.563924	0.147020
494.782919	0.147020
495.001897	0.001796
495.220856	-0.025260
495.439797	-0.051884
495.658719	-0.095402
495.877624	-0.171297
496.096510	-0.169795
496.315378	-0.080939
496.534227	-0.129952
496.753059	-0.076759
496.971872	-0.046162
497.190667	0.122630
497.409444	0.141100
497.628203	0.140889
497.846943	0.146623
498.065665	0.144797
498.284369	0.145862
498.503055	0.147215
498.721723	0.146701
498.940372	0.144996
499.159003	0.145818
499.377616	0.145721
499.596210	0.147219
499.814787	0.145447
500.033345	0.146294
500.251885	0.145106
500.470406	0.143823
500.688910	0.145010
500.907395	0.146047
501.125862	0.144976
501.344311	0.143848
501.562742	0.143132
501.781154	0.144448
501.999548	0.145418
502.217924	0.146480
502.436282	0.145658
502.654621	0.144506
502.872942	0.145106
503.091245	0.145575
503.309530	0.146373
503.527797	0.146901
503.746045	0.146427
503.964275	0.145568
504.182487	0.144787
504.400681	0.146230
504.618856	0.146977
504.837013	0.146912
505.055152	0.146491
505.273273	0.146111
505.491376	0.145993
505.709460	0.146798
505.927526	0.147425
506.145574	0.148566
506.363604	0.148362
506.581615	0.148206
506.799608	0.148750
507.017583	0.149594
507.235540	0.149628
507.453478	0.149043
507.671399	0.148419
507.889301	0.147579
508.107185	0.147325
508.325050	0.148017
508.542898	0.147834
508.760727	0.147886
508.978538	0.147961
509.196330	0.148093
509.414105	0.148166
509.631861	0.148465
509.849599	0.149993
510.067319	0.149681
510.285021	0.149703
510.502704	0.150227
510.720369	0.150324
510.938016	0.150460
511.155645	0.150734
511.373255	0.152501
511.590848	0.152162
511.808422	0.151057
512.025977	0.150740
512.243515	0.150310
512.461034	0.149724
512.678536	0.149321
512.896018	0.149488
513.113483	0.149767
513.330930	0.149035
513.548358	0.150073
513.765768	0.151311
513.983160	0.152846
514.200533	0.153681
514.417889	0.154384
514.635226	0.154991
514.852545	0.154831
515.069845	0.154628
515.287128	0.154834
515.504392	0.154536
515.721638	0.153824
515.938866	0.153395
516.156075	0.153286
516.373267	0.154060
516.590440	0.154465
516.807594	0.155105
517.024731	0.156625
517.241850	0.157099
517.458950	0.157804
517.676032	0.159070
517.893095	0.159516
518.110141	0.159617
518.327168	0.159018
518.544177	0.159275
518.761168	0.159505
518.978141	0.158163
519.195095	0.158459
519.412031	0.158482
519.628949	0.157815
519.845849	0.157743
520.062731	0.157735
520.279594	0.158598
520.496439	0.159378
520.713266	0.159635
520.930074	0.160789
521.146865	0.160857
521.363637	0.161369
521.580391	0.162511
521.797127	0.163211
522.013844	0.163567
522.230543	0.162901
522.447224	0.162134
522.663887	0.162180
522.880532	0.162479
523.097158	0.163288
523.313766	0.163183
523.530356	0.162524
523.746928	0.162117
523.963481	0.163009
524.180017	0.163578
524.396534	0.164419
524.613032	0.164667
524.829513	0.164769
525.045975	0.163829
525.262420	0.164022
525.478845	0.165236
525.695253	0.165507
525.911643	0.165325
526.128014	0.165722
526.344367	0.165640
526.560702	0.165853
526.777018	0.166584
526.993316	0.167209
527.209597	0.167718
527.425858	0.167300
527.642102	0.167087
527.858328	0.167157
528.074535	0.167539
528.290724	0.167924
528.506894	0.168408
528.723047	0.168582
528.939181	0.169197
529.155297	0.169123
529.371395	0.169641
529.587475	0.170307
529.803536	0.170674
530.019579	0.170343
530.235604	0.170578
530.451611	0.171146
530.667600	0.171235
530.883570	0.171714
531.099522	0.173005
531.315456	0.173110
531.531372	0.174394
531.747269	0.175072
531.963148	0.176589
532.179009	0.176474
532.394852	0.176402
532.610676	0.177032
532.826482	0.176197
533.042271	0.176142
533.258040	0.176385
533.473792	0.176255
533.689525	0.176202
533.905240	0.176595
534.120937	0.177730
534.336616	0.177693
534.552277	0.177825
534.767919	0.178821
534.983543	0.178601
535.199149	0.179228
535.414736	0.179373
535.630306	0.179809
535.845857	0.179799
536.061390	0.179293
536.276904	0.179330
536.492401	0.178821
536.707879	0.179021
536.923339	0.179352
537.138781	0.179781
537.354204	0.180055
537.569610	0.180689
537.784997	0.180145
538.000366	0.181258
538.215716	0.182321
538.431049	0.182987
538.646363	0.183125
538.861659	0.183355
539.076937	0.183467
539.292196	0.183392
539.507438	0.183462
539.722661	0.184283
539.937866	0.183557
540.153052	0.183432
540.368221	0.183925
540.583371	0.184505
540.798503	0.184642
541.013617	0.184347
541.228712	0.184878
541.443789	0.184880
541.658848	0.184749
541.873889	0.185375
542.088912	0.185807
542.303916	0.186108
542.518902	0.186109
542.733870	0.186398
542.948820	0.186791
543.163752	0.187336
543.378665	0.187574
543.593560	0.187980
543.808437	0.187588
544.023295	0.187657
544.238136	0.187856
544.452958	0.188507
544.667762	0.189023
544.882548	0.189188
545.097315	0.188968
545.312064	0.189233
545.526795	0.188893
545.741508	0.189330
545.956203	0.189488
546.170879	0.189908
546.385537	0.190153
546.600177	0.190231
546.814799	0.190681
547.029402	0.190827
547.243988	0.191357
547.458555	0.192208
547.673103	0.192237
547.887634	0.192482
548.102146	0.192696
548.316640	0.192365
548.531116	0.192838
548.745574	0.193040
548.960013	0.193523
549.174435	0.194025
549.388838	0.193753
549.603222	0.194278
549.817589	0.194768
550.031937	0.194509
550.246267	0.195307
550.460579	0.195078
550.674873	0.194775
550.889148	0.194957
551.103405	0.194723
551.317644	0.195329
551.531865	0.195546
551.746068	0.195363
551.960252	0.195646
552.174418	0.195534
552.388566	0.195934
552.602696	0.196237
552.816807	0.196858
553.030900	0.197129
553.244975	0.197407
553.459032	0.197533
553.673070	0.198083
553.887091	0.198209
554.101093	0.198399
554.315077	0.198405
554.529042	0.198604
554.742990	0.198339
554.956919	0.198398
555.170830	0.198316
555.384722	0.198259
555.598597	0.198104
555.812453	0.198301
556.026291	0.198532
556.240111	0.198772
556.453913	0.198738
556.667696	0.199038
556.881461	0.198669
557.095208	0.198929
557.308937	0.199836
557.522647	0.199957
557.736339	0.200146
557.950013	0.199977
558.163669	0.200350
558.377307	0.200907
558.590926	0.200932
558.804527	0.201354
559.018110	0.201381
559.231675	0.201147
559.445221	0.201651
559.658749	0.201724
559.872259	0.202396
560.085751	0.202123
560.299225	0.202241
560.512680	0.202292
560.726117	0.202678
560.939536	0.203016
561.152937	0.203188
561.366319	0.202938
561.579683	0.203003
561.793029	0.202852
562.006357	0.203172
562.219667	0.203557
562.432958	0.203476
562.646231	0.203323
562.859486	0.203123
563.072723	0.202744
563.285941	0.203153
563.499141	0.203588
563.712323	0.203445
563.925487	0.203577
564.138632	0.202883
564.351760	0.203072
564.564869	0.203032
564.777960	0.203348
564.991032	0.204295
565.204087	0.204334
565.417123	0.203794
565.630141	0.203889
565.843140	0.203799
566.056122	0.204598
566.269085	0.204712
566.482030	0.205007
566.694957	0.205338
566.907866	0.205328
567.120756	0.205338
567.333628	0.206019
567.546482	0.206569
567.759318	0.206690
567.972135	0.206800
568.184935	0.207137
568.397716	0.207257
568.610478	0.207108
568.823223	0.207233
569.035949	0.207299
569.248657	0.207136
569.461347	0.206988
569.674019	0.206946
569.886672	0.206665
570.099308	0.206495
570.311925	0.206522
570.524523	0.206959
570.737104	0.206442
570.949666	0.206574
571.162210	0.206810
571.374736	0.207080
571.587244	0.207835
571.799733	0.208312
572.012205	0.208538
572.224658	0.209264
572.437092	0.208969
572.649509	0.209747
572.861907	0.209880
573.074287	0.210245
573.286649	0.210674
573.498993	0.210408
573.711318	0.210234
573.923625	0.210556
574.135914	0.210222
574.348185	0.210282
574.560438	0.210197
574.772672	0.210165
574.984888	0.210234
575.197086	0.209789
575.409266	0.210108
575.621427	0.210641
575.833570	0.210791
576.045695	0.211347
576.257802	0.211895
576.469890	0.212510
576.681961	0.212867
576.894013	0.212877
577.106046	0.213394
577.318062	0.213460
577.530059	0.213420
577.742039	0.213120
577.954000	0.212941
578.165942	0.213238
578.377867	0.213306
578.589773	0.213207
578.801661	0.213281
579.013531	0.213207
579.225382	0.213851
579.437216	0.213995
579.649031	0.214527
579.860828	0.214777
580.072606	0.214628
580.284367	0.214664
580.496109	0.215324
580.707833	0.215542
580.919539	0.215980
581.131227	0.215459
581.342896	0.215995
581.554547	0.216453
581.766180	0.216423
581.977795	0.216524
582.189391	0.216754
582.400969	0.216760
582.612529	0.216834
582.824071	0.216779
583.035595	0.216775
583.247100	0.216345
583.458587	0.216295
583.670056	0.216579
583.881506	0.216426
584.092939	0.216232
584.304353	0.216662
584.515749	0.216835
584.727127	0.216927
584.938486	0.217034
585.149828	0.216997
585.361151	0.216820
585.572456	0.216926
585.783742	0.217684
585.995011	0.217845
586.206261	0.217536
586.417493	0.217966
586.628706	0.217883
586.839902	0.218152
587.051079	0.218887
587.262238	0.218909
587.473379	0.218990
587.684502	0.218843
587.895606	0.218910
588.106692	0.219287
588.317760	0.219248
588.528810	0.219350
588.739841	0.219638
588.950855	0.219287
589.161850	0.219565
589.372827	0.219157
589.583785	0.219042
589.794726	0.219271
590.005648	0.218854
590.216552	0.218869
590.427437	0.219146
590.638305	0.219905
590.849154	0.220130
591.059985	0.220297
591.270798	0.221274
591.481592	0.221720
591.692369	0.221842
591.903127	0.222641
592.113867	0.222788
592.324588	0.222983
592.535292	0.222686
592.745977	0.223107
592.956644	0.223540
593.167293	0.223493
593.377923	0.223373
593.588536	0.223776
593.799130	0.223715
594.009706	0.223912
594.220263	0.224438
594.430803	0.224029
594.641324	0.224068
594.851827	0.224171
595.062312	0.224141
595.272778	0.224583
595.483227	0.224558
595.693657	0.224488
595.904069	0.224719
596.114462	0.224447
596.324838	0.224894
596.535195	0.225016
596.745534	0.224898
596.955855	0.225445
597.166157	0.225760
597.376441	0.226063
597.586707	0.226835
597.796955	0.226944
598.007185	0.227037
598.217396	0.227218
598.427589	0.227608
598.637764	0.228116
598.847921	0.228162
599.058060	0.228341
599.268180	0.228292
599.478282	0.228195
599.688366	0.228186
599.898431	0.228549
600.108479	0.228834
600.318508	0.228644
600.528519	0.228837
600.738511	0.228685
600.948486	0.228766
601.158442	0.228900
601.368380	0.228645
601.578300	0.228717
601.788202	0.228843
601.998085	0.228710
602.207950	0.228991
602.417797	0.228830
602.627626	0.229164
602.837436	0.229343
603.047228	0.229293
603.257002	0.229454
603.466758	0.229903
603.676496	0.229830
603.886215	0.230158
604.095916	0.229985
604.305599	0.230414
604.515264	0.230404
604.724910	0.230069
604.934538	0.230232
605.144148	0.230692
605.353740	0.230960
605.563314	0.231399
605.772869	0.231397
605.982406	0.231900
606.191925	0.231718
606.401425	0.232055
606.610908	0.232607
606.820372	0.232725
607.029818	0.232937
607.239246	0.232795
607.448655	0.233021
607.658047	0.233553
607.867420	0.233797
608.076775	0.234051
608.286111	0.233941
608.495430	0.234372
608.704730	0.234430
608.914012	0.234557
609.123275	0.234656
609.332521	0.234701
609.541748	0.234444
609.750957	0.234365
609.960148	0.234358
610.169321	0.234658
610.378475	0.234648
610.587611	0.234974
610.796729	0.234996
611.005829	0.235132
611.214910	0.235388
611.423974	0.235356
611.633019	0.235761
611.842045	0.236205
612.051054	0.236209
612.260044	0.236071
612.469017	0.236382
612.677970	0.236300
612.886906	0.236358
613.095824	0.236362
613.304723	0.236786
613.513604	0.236947
613.722467	0.236782
613.931311	0.236758
614.140138	0.236956
614.348946	0.236757
614.557736	0.237025
614.766507	0.237285
614.975261	0.237538
615.183996	0.238062
615.392713	0.238068
615.601412	0.238260
615.810092	0.238610
616.018754	0.238746
616.227399	0.238927
616.436024	0.238899
616.644632	0.239226
616.853222	0.239245
617.061793	0.239253
617.270346	0.239235
617.478880	0.239503
617.687397	0.239699
617.895895	0.239962
618.104375	0.240184
618.312837	0.240728
618.521281	0.240773
618.729706	0.241043
618.938113	0.241155
619.146502	0.241462
619.354873	0.241674
619.563226	0.241933
619.771560	0.241951
619.979876	0.242348
620.188174	0.242427
620.396453	0.242698
620.604715	0.242862
620.812958	0.242917
621.021183	0.243068
621.229390	0.243273
621.437578	0.243367
621.645748	0.243550
621.853900	0.243839
622.062034	0.243868
622.270150	0.244076
622.478247	0.244041
622.686326	0.244553
622.894387	0.244771
623.102430	0.244975
623.310454	0.244995
623.518461	0.245146
623.726449	0.245071
623.934418	0.245290
624.142370	0.245385
624.350303	0.245324
624.558218	0.245081
624.766115	0.245187
624.973994	0.245167
625.181855	0.245384
625.389697	0.245462
625.597521	0.245503
625.805327	0.245656
626.013114	0.245406
626.220883	0.245877
626.428634	0.245860
626.636367	0.245957
626.844082	0.246109
627.051778	0.246429
627.259457	0.246505
627.467117	0.246794
627.674758	0.246681
627.882382	0.247368
628.089987	0.247239
628.297574	0.247407
628.505143	0.247325
628.712694	0.247393
628.920226	0.247149
629.127740	0.247686
629.335236	0.247847
629.542714	0.248261
629.750174	0.248276
629.957615	0.248373
630.165038	0.248621
630.372443	0.249119
630.579829	0.249346
630.787198	0.249836
630.994548	0.249779
631.201880	0.249964
631.409194	0.250210
631.616489	0.250243
631.823766	0.250635
632.031025	0.251060
632.238266	0.250924
632.445489	0.250834
632.652693	0.250701
632.859879	0.250804
633.067047	0.250999
633.274197	0.251239
633.481329	0.251465
633.688442	0.251634
633.895537	0.251580
634.102614	0.251841
634.309672	0.252057
634.516713	0.252348
634.723735	0.252592
634.930739	0.252699
635.137724	0.252536
635.344692	0.252587
635.551641	0.252805
635.758572	0.253131
635.965485	0.253276
636.172379	0.253973
636.379256	0.254080
636.586114	0.253854
636.792954	0.253936
636.999775	0.254087
637.206579	0.254180
637.413364	0.254352
637.620131	0.254309
637.826880	0.254567
638.033610	0.254401
638.240323	0.254654
638.447017	0.255034
638.653692	0.254900
638.860350	0.255016
639.066990	0.255166
639.273611	0.255060
639.480214	0.255054
639.686798	0.255055
639.893365	0.255098
640.099913	0.254982
640.306443	0.254812
640.512955	0.255211
640.719449	0.255535
640.925924	0.255725
641.132381	0.255978
641.338820	0.256081
641.545241	0.256129
641.751644	0.256074
641.958028	0.256078
642.164394	0.256550
642.370742	0.256626
642.577071	0.256888
642.783383	0.256808
642.989676	0.256896
643.195951	0.257318
643.402207	0.257850
643.608446	0.258193
643.814666	0.258614
644.020868	0.258731
644.227052	0.258743
644.433218	0.258627
644.639365	0.258809
644.845494	0.259026
645.051605	0.259045
645.257698	0.259297
645.463772	0.259614
645.669828	0.259708
645.875866	0.259837
646.081886	0.259896
646.287888	0.260093
646.493871	0.260608
646.699836	0.260935
646.905783	0.261241
647.111712	0.261424
647.317622	0.261261
647.523514	0.261720
647.729388	0.261612
647.935244	0.262157
648.141082	0.262614
648.346901	0.262699
648.552702	0.262668
648.758485	0.262742
648.964250	0.262899
649.169996	0.263248
649.375724	0.263283
649.581434	0.263582
649.787126	0.263710
649.992800	0.263406
650.198455	0.263565
650.404092	0.263808
650.609711	0.264015
650.815311	0.264087
651.020894	0.264209
651.226458	0.264415
651.432004	0.265068
651.637532	0.265091
651.843041	0.265386
652.048532	0.265336
652.254006	0.265352
652.459460	0.265400
652.664897	0.265283
652.870315	0.265544
653.075716	0.265460
653.281097	0.265048
653.486461	0.265318
653.691807	0.265551
653.897134	0.265687
654.102443	0.266023
654.307734	0.266177
654.513006	0.266452
654.718261	0.266759
654.923497	0.267244
655.128715	0.267635
655.333915	0.267806
655.539096	0.268088
655.744259	0.268459
655.949404	0.268540
656.154531	0.268820
656.359640	0.268966
656.564730	0.268956
656.769802	0.269193
656.974856	0.269408
657.179892	0.269948
657.384909	0.269937
657.589908	0.270124
657.794889	0.270454
657.999852	0.270605
658.204797	0.270922
658.409723	0.271028
658.614631	0.271127
658.819521	0.271447
659.024393	0.271386
659.229246	0.271828
659.434081	0.272021
659.638898	0.272077
659.843697	0.272352
660.048478	0.272424
660.253240	0.272838
660.457984	0.272847
660.662710	0.273073
660.867417	0.273226
661.072107	0.273198
661.276778	0.273583
661.481431	0.273675
661.686066	0.273798
661.890682	0.273974
662.095281	0.274016
662.299861	0.274122
662.504422	0.274364
662.708966	0.274264
662.913491	0.274494
663.117999	0.274328
663.322488	0.274514
663.526958	0.274633
663.731411	0.274840
663.935845	0.275030
664.140261	0.275270
664.344659	0.275319
664.549038	0.275635
664.753400	0.275868
664.957743	0.276199
665.162068	0.276629
665.366375	0.276780
665.570663	0.276921
665.774933	0.277268
665.979185	0.277486
666.183419	0.277761
666.387635	0.278185
666.591832	0.278362
666.796011	0.278559
667.000172	0.278718
667.204315	0.278887
667.408439	0.279103
667.612545	0.279375
667.816634	0.279645
668.020703	0.279826
668.224755	0.280026
668.428788	0.280136
668.632803	0.280419
668.836800	0.280209
669.040779	0.280399
669.244739	0.280387
669.448681	0.280458
669.652605	0.281038
669.856511	0.281234
670.060399	0.281466
670.264268	0.281957
670.468119	0.281916
670.671952	0.282529
670.875767	0.282822
671.079563	0.283598
671.283341	0.283617
671.487101	0.283539
671.690843	0.284035
671.894567	0.284386
672.098272	0.284437
672.301959	0.284916
672.505628	0.285238
672.709278	0.285652
672.912911	0.285653
673.116525	0.285897
673.320121	0.286197
673.523699	0.286263
673.727258	0.286144
673.930799	0.286525
674.134322	0.286575
674.337827	0.286630
674.541314	0.286772
674.744782	0.286739
674.948232	0.287157
675.151664	0.287115
675.355078	0.287146
675.558474	0.287399
675.761851	0.287407
675.965210	0.287750
676.168551	0.287922
676.371873	0.287940
676.575178	0.288220
676.778464	0.288362
676.981732	0.288422
677.184981	0.288662
677.388213	0.289117
677.591426	0.289556
677.794621	0.289724
677.997798	0.289977
678.200956	0.290399
678.404097	0.290699
678.607219	0.290996
678.810323	0.291542
679.013408	0.291660
679.216476	0.291363
679.419525	0.291490
679.622556	0.291773
679.825569	0.292015
680.028563	0.292034
680.231540	0.292092
680.434498	0.291841
680.637438	0.291708
680.840359	0.291529
681.043263	0.291813
681.246148	0.291710
681.449015	0.291587
681.651864	0.291615
681.854694	0.291712
682.057506	0.291862
682.260301	0.292233
682.463076	0.292543
682.665834	0.293104
682.868573	0.293434
683.071295	0.293660
683.273998	0.294025
683.476682	0.294328
683.679349	0.294569
683.881997	0.294586
684.084627	0.294718
684.287239	0.294685
684.489833	0.294677
684.692408	0.294632
684.894965	0.294767
685.097504	0.294871
685.300025	0.294913
685.502527	0.294890
685.705012	0.295006
685.907478	0.295158
686.109925	0.295559
686.312355	0.295811
686.514766	0.295808
686.717159	0.295856
686.919534	0.295956
687.121891	0.295837
687.324230	0.296276
687.526550	0.296594
687.728852	0.296731
687.931136	0.296699
688.133401	0.296730
688.335649	0.296957
688.537878	0.297113
688.740089	0.297134
688.942281	0.297619
689.144456	0.297756
689.346612	0.297895
689.548750	0.297895
689.750870	0.298232
689.952971	0.298362
690.155055	0.298664
690.357120	0.299164
690.559167	0.299416
690.761195	0.299562
690.963206	0.299825
691.165198	0.300037
691.367172	0.300366
691.569128	0.300201
691.771065	0.300552
691.972984	0.300572
692.174885	0.300684
692.376768	0.300815
692.578633	0.300777
692.780479	0.300677
692.982308	0.300699
693.184118	0.300844
693.385909	0.301078
