sample name	sample
index	1404
start time	 05-10-2021  11:21:00 AM


Wavelength (nm)	Absorbance
494.344910	-0.044167
494.563924	-0.044167
494.782919	-0.044167
495.001897	-0.048661
495.220856	-0.035799
495.439797	-0.028068
495.658719	-0.029350
495.877624	-0.022424
496.096510	-0.013556
496.315378	-0.021536
496.534227	-0.015041
496.753059	-0.015617
496.971872	-0.003674
497.190667	0.096437
497.409444	0.133586
497.628203	0.148493
497.846943	0.156014
498.065665	0.161361
498.284369	0.164527
498.503055	0.167338
498.721723	0.169009
498.940372	0.171445
499.159003	0.170735
499.377616	0.172542
499.596210	0.171954
499.814787	0.173579
500.033345	0.173664
500.251885	0.174644
500.470406	0.174582
500.688910	0.176518
500.907395	0.176435
501.125862	0.177959
501.344311	0.176899
501.562742	0.178378
501.781154	0.177577
501.999548	0.178605
502.217924	0.178749
502.436282	0.178696
502.654621	0.178584
502.872942	0.178246
503.091245	0.177908
503.309530	0.179216
503.527797	0.179129
503.746045	0.178991
503.964275	0.178383
504.182487	0.178050
504.400681	0.179733
504.618856	0.179375
504.837013	0.179710
505.055152	0.180633
505.273273	0.181032
505.491376	0.182334
505.709460	0.182342
505.927526	0.182837
506.145574	0.184322
506.363604	0.182676
506.581615	0.183009
506.799608	0.183598
507.017583	0.183517
507.235540	0.182990
507.453478	0.182234
507.671399	0.182548
507.889301	0.182778
508.107185	0.182629
508.325050	0.183576
508.542898	0.183297
508.760727	0.182983
508.978538	0.184049
509.196330	0.183440
509.414105	0.183040
509.631861	0.184056
509.849599	0.183858
510.067319	0.183286
510.285021	0.183401
510.502704	0.183925
510.720369	0.184930
510.938016	0.184161
511.155645	0.184921
511.373255	0.185491
511.590848	0.185194
511.808422	0.184880
512.025977	0.185474
512.243515	0.186322
512.461034	0.186149
512.678536	0.185938
512.896018	0.186732
513.113483	0.187362
513.330930	0.187399
513.548358	0.187295
513.765768	0.187937
513.983160	0.188265
514.200533	0.188238
514.417889	0.187954
514.635226	0.188101
514.852545	0.187900
515.069845	0.187616
515.287128	0.187806
515.504392	0.189167
515.721638	0.189464
515.938866	0.189760
516.156075	0.190003
516.373267	0.191305
516.590440	0.190701
516.807594	0.190917
517.024731	0.191995
517.241850	0.193338
517.458950	0.192973
517.676032	0.192879
517.893095	0.192220
518.110141	0.191832
518.327168	0.191716
518.544177	0.192954
518.761168	0.192574
518.978141	0.192481
519.195095	0.192436
519.412031	0.192911
519.628949	0.193914
519.845849	0.194609
520.062731	0.195358
520.279594	0.195608
520.496439	0.195876
520.713266	0.196961
520.930074	0.196877
521.146865	0.196808
521.363637	0.196768
521.580391	0.196277
521.797127	0.197324
522.013844	0.198233
522.230543	0.198963
522.447224	0.199444
522.663887	0.199024
522.880532	0.200144
523.097158	0.200656
523.313766	0.200840
523.530356	0.201720
523.746928	0.202070
523.963481	0.202204
524.180017	0.202119
524.396534	0.202169
524.613032	0.203050
524.829513	0.202806
525.045975	0.202541
525.262420	0.202973
525.478845	0.203559
525.695253	0.202942
525.911643	0.203130
526.128014	0.203806
526.344367	0.203264
526.560702	0.204166
526.777018	0.204015
526.993316	0.205126
527.209597	0.205163
527.425858	0.205405
527.642102	0.206195
527.858328	0.206238
528.074535	0.206086
528.290724	0.207366
528.506894	0.206783
528.723047	0.207331
528.939181	0.207521
529.155297	0.207933
529.371395	0.207595
529.587475	0.208741
529.803536	0.209128
530.019579	0.210222
530.235604	0.210388
530.451611	0.211281
530.667600	0.211758
530.883570	0.211534
531.099522	0.211611
531.315456	0.212353
531.531372	0.211833
531.747269	0.211866
531.963148	0.211509
532.179009	0.211887
532.394852	0.211523
532.610676	0.212078
532.826482	0.212572
533.042271	0.213017
533.258040	0.213264
533.473792	0.213061
533.689525	0.213244
533.905240	0.213952
534.120937	0.213985
534.336616	0.215177
534.552277	0.215609
534.767919	0.216919
534.983543	0.217717
535.199149	0.218402
535.414736	0.219280
535.630306	0.220094
535.845857	0.219947
536.061390	0.219736
536.276904	0.219668
536.492401	0.219463
536.707879	0.219989
536.923339	0.220251
537.138781	0.219758
537.354204	0.220836
537.569610	0.221011
537.784997	0.221879
538.000366	0.223429
538.215716	0.223647
538.431049	0.223894
538.646363	0.222984
538.861659	0.223353
539.076937	0.223694
539.292196	0.222829
539.507438	0.223137
539.722661	0.223945
539.937866	0.223578
540.153052	0.224303
540.368221	0.224943
540.583371	0.225659
540.798503	0.225894
541.013617	0.226929
541.228712	0.227969
541.443789	0.228565
541.658848	0.228119
541.873889	0.228711
542.088912	0.228915
542.303916	0.229022
542.518902	0.229619
542.733870	0.229674
542.948820	0.229617
543.163752	0.229234
543.378665	0.229242
543.593560	0.229465
543.808437	0.229291
544.023295	0.229737
544.238136	0.230369
544.452958	0.230274
544.667762	0.230940
544.882548	0.232040
545.097315	0.233083
545.312064	0.233809
545.526795	0.234679
545.741508	0.235033
545.956203	0.234488
546.170879	0.234490
546.385537	0.234776
546.600177	0.234839
546.814799	0.234563
547.029402	0.234239
547.243988	0.233969
547.458555	0.233738
547.673103	0.234664
547.887634	0.235543
548.102146	0.235693
548.316640	0.236399
548.531116	0.236633
548.745574	0.236755
548.960013	0.237207
549.174435	0.237704
549.388838	0.238447
549.603222	0.238005
549.817589	0.238002
550.031937	0.238755
550.246267	0.238516
550.460579	0.238914
550.674873	0.239265
550.889148	0.239156
551.103405	0.239572
551.317644	0.239379
551.531865	0.239793
551.746068	0.240315
551.960252	0.240244
552.174418	0.239839
552.388566	0.239888
552.602696	0.239831
552.816807	0.240524
553.030900	0.240334
553.244975	0.240741
553.459032	0.240922
553.673070	0.240715
553.887091	0.240227
554.101093	0.240843
554.315077	0.241381
554.529042	0.241609
554.742990	0.241459
554.956919	0.241797
555.170830	0.241332
555.384722	0.241879
555.598597	0.242769
555.812453	0.243932
556.026291	0.244576
556.240111	0.244255
556.453913	0.244350
556.667696	0.244637
556.881461	0.245159
557.095208	0.245553
557.308937	0.245510
557.522647	0.244933
557.736339	0.244737
557.950013	0.244774
558.163669	0.244745
558.377307	0.245046
558.590926	0.245701
558.804527	0.245762
559.018110	0.246677
559.231675	0.246928
559.445221	0.247613
559.658749	0.247887
559.872259	0.248246
560.085751	0.248634
560.299225	0.249028
560.512680	0.249174
560.726117	0.249035
560.939536	0.248618
561.152937	0.248677
561.366319	0.248094
561.579683	0.248663
561.793029	0.248681
562.006357	0.248888
562.219667	0.248652
562.432958	0.248378
562.646231	0.248782
562.859486	0.248960
563.072723	0.249201
563.285941	0.249951
563.499141	0.249632
563.712323	0.249798
563.925487	0.250218
564.138632	0.250526
564.351760	0.251006
564.564869	0.250779
564.777960	0.250543
564.991032	0.250810
565.204087	0.250877
565.417123	0.250987
565.630141	0.251489
565.843140	0.251711
566.056122	0.252021
566.269085	0.252181
566.482030	0.252753
566.694957	0.253324
566.907866	0.253781
567.120756	0.253781
567.333628	0.253948
567.546482	0.253779
567.759318	0.253769
567.972135	0.253944
568.184935	0.253812
568.397716	0.253908
568.610478	0.254177
568.823223	0.253815
569.035949	0.253638
569.248657	0.254018
569.461347	0.254317
569.674019	0.254536
569.886672	0.254833
570.099308	0.254907
570.311925	0.254831
570.524523	0.255250
570.737104	0.255189
570.949666	0.255767
571.162210	0.255670
571.374736	0.255344
571.587244	0.255440
571.799733	0.255311
572.012205	0.255633
572.224658	0.255562
572.437092	0.255163
572.649509	0.255788
572.861907	0.255743
573.074287	0.255725
573.286649	0.255547
573.498993	0.255311
573.711318	0.255253
573.923625	0.255203
574.135914	0.255218
574.348185	0.255631
574.560438	0.255834
574.772672	0.256319
574.984888	0.256858
575.197086	0.257420
575.409266	0.257581
575.621427	0.257867
575.833570	0.257885
576.045695	0.258281
576.257802	0.258195
576.469890	0.258123
576.681961	0.258035
576.894013	0.258016
577.106046	0.258499
577.318062	0.259014
577.530059	0.259508
577.742039	0.260139
577.954000	0.260297
578.165942	0.260381
578.377867	0.260474
578.589773	0.260322
578.801661	0.260478
579.013531	0.260526
579.225382	0.260673
579.437216	0.260485
579.649031	0.260395
579.860828	0.260646
580.072606	0.260781
580.284367	0.260844
580.496109	0.260987
580.707833	0.260997
580.919539	0.260689
581.131227	0.260667
581.342896	0.261053
581.554547	0.260803
581.766180	0.260787
581.977795	0.260778
582.189391	0.261022
582.400969	0.261490
582.612529	0.261740
582.824071	0.261845
583.035595	0.261980
583.247100	0.261778
583.458587	0.262563
583.670056	0.262817
583.881506	0.263054
584.092939	0.263218
584.304353	0.262883
584.515749	0.263581
584.727127	0.264004
584.938486	0.264190
585.149828	0.264375
585.361151	0.264379
585.572456	0.264418
585.783742	0.264832
585.995011	0.264880
586.206261	0.265667
586.417493	0.265243
586.628706	0.265344
586.839902	0.265787
587.051079	0.265920
587.262238	0.266115
587.473379	0.266520
587.684502	0.266849
587.895606	0.267255
588.106692	0.267392
588.317760	0.267732
588.528810	0.267745
588.739841	0.267593
588.950855	0.267995
589.161850	0.268182
589.372827	0.268527
589.583785	0.268480
589.794726	0.268545
590.005648	0.268591
590.216552	0.268390
590.427437	0.269226
590.638305	0.269640
590.849154	0.269614
591.059985	0.270035
591.270798	0.269757
591.481592	0.269913
591.692369	0.269960
591.903127	0.270294
592.113867	0.270788
592.324588	0.270625
592.535292	0.270468
592.745977	0.270322
592.956644	0.270327
593.167293	0.270786
593.377923	0.271020
593.588536	0.271019
593.799130	0.271180
594.009706	0.271169
594.220263	0.271383
594.430803	0.271521
594.641324	0.272163
594.851827	0.272267
595.062312	0.272348
595.272778	0.272526
595.483227	0.272965
595.693657	0.273010
595.904069	0.272968
596.114462	0.272740
596.324838	0.272976
596.535195	0.273115
596.745534	0.273053
596.955855	0.273345
597.166157	0.273417
597.376441	0.273413
597.586707	0.273446
597.796955	0.274302
598.007185	0.274842
598.217396	0.275290
598.427589	0.275109
598.637764	0.275394
598.847921	0.275302
599.058060	0.275382
599.268180	0.275872
599.478282	0.275898
599.688366	0.275700
599.898431	0.276094
600.108479	0.276383
600.318508	0.276904
600.528519	0.276916
600.738511	0.277085
600.948486	0.277571
601.158442	0.277444
601.368380	0.277631
601.578300	0.277952
601.788202	0.277951
601.998085	0.277854
602.207950	0.277969
602.417797	0.278008
602.627626	0.278280
602.837436	0.278218
603.047228	0.278505
603.257002	0.278836
603.466758	0.278763
603.676496	0.278718
603.886215	0.278726
604.095916	0.278987
604.305599	0.279429
604.515264	0.279478
604.724910	0.279539
604.934538	0.279741
605.144148	0.280270
605.353740	0.280624
605.563314	0.280749
605.772869	0.281179
605.982406	0.281356
606.191925	0.281364
606.401425	0.281612
606.610908	0.281961
606.820372	0.281835
607.029818	0.281746
607.239246	0.281915
607.448655	0.282460
607.658047	0.282665
607.867420	0.282744
608.076775	0.282829
608.286111	0.283234
608.495430	0.283607
608.704730	0.284314
608.914012	0.284244
609.123275	0.284415
609.332521	0.284217
609.541748	0.284401
609.750957	0.284636
609.960148	0.285126
610.169321	0.285598
610.378475	0.285434
610.587611	0.285332
610.796729	0.285631
611.005829	0.285814
611.214910	0.286107
611.423974	0.286108
611.633019	0.286155
611.842045	0.286396
612.051054	0.286128
612.260044	0.286527
612.469017	0.286442
612.677970	0.286749
612.886906	0.286338
613.095824	0.286313
613.304723	0.286454
613.513604	0.286622
613.722467	0.286290
613.931311	0.286573
614.140138	0.286692
614.348946	0.286928
614.557736	0.287025
614.766507	0.287688
614.975261	0.288295
615.183996	0.288207
615.392713	0.288515
615.601412	0.288876
615.810092	0.289013
616.018754	0.288995
616.227399	0.288967
616.436024	0.289164
616.644632	0.289277
616.853222	0.289259
617.061793	0.289851
617.270346	0.289721
617.478880	0.289768
617.687397	0.289489
617.895895	0.289490
618.104375	0.289727
618.312837	0.289589
618.521281	0.290056
618.729706	0.290230
618.938113	0.290242
619.146502	0.290324
619.354873	0.290693
619.563226	0.290970
619.771560	0.291010
619.979876	0.291044
620.188174	0.291463
620.396453	0.291155
620.604715	0.291089
620.812958	0.291010
621.021183	0.291414
621.229390	0.291531
621.437578	0.291794
621.645748	0.292546
621.853900	0.293118
622.062034	0.293009
622.270150	0.293251
622.478247	0.293772
622.686326	0.294372
622.894387	0.294729
623.102430	0.295006
623.310454	0.295200
623.518461	0.295242
623.726449	0.295365
623.934418	0.295871
624.142370	0.296039
624.350303	0.296245
624.558218	0.296446
624.766115	0.296535
624.973994	0.296635
625.181855	0.296650
625.389697	0.296611
625.597521	0.296869
625.805327	0.296871
626.013114	0.296778
626.220883	0.296722
626.428634	0.296727
626.636367	0.296703
626.844082	0.296583
627.051778	0.297165
627.259457	0.297144
627.467117	0.297177
627.674758	0.297421
627.882382	0.297732
628.089987	0.297498
628.297574	0.297575
628.505143	0.297653
628.712694	0.297725
628.920226	0.297476
629.127740	0.297519
629.335236	0.297431
629.542714	0.297206
629.750174	0.297349
629.957615	0.297433
630.165038	0.297500
630.372443	0.297776
630.579829	0.298231
630.787198	0.298118
630.994548	0.298560
631.201880	0.299155
631.409194	0.299433
631.616489	0.299868
631.823766	0.300084
632.031025	0.300031
632.238266	0.300201
632.445489	0.300311
632.652693	0.300752
632.859879	0.300827
633.067047	0.300783
633.274197	0.301206
633.481329	0.301157
633.688442	0.301677
633.895537	0.301888
634.102614	0.301888
634.309672	0.302037
634.516713	0.302397
634.723735	0.302620
634.930739	0.302519
635.137724	0.302431
635.344692	0.302707
635.551641	0.302724
635.758572	0.303180
635.965485	0.303363
636.172379	0.303818
636.379256	0.303724
636.586114	0.303952
636.792954	0.304181
636.999775	0.304712
637.206579	0.304651
637.413364	0.304949
637.620131	0.304929
637.826880	0.305078
638.033610	0.304899
638.240323	0.305372
638.447017	0.305506
638.653692	0.305666
638.860350	0.305467
639.066990	0.305520
639.273611	0.305677
639.480214	0.305584
639.686798	0.305754
639.893365	0.305863
640.099913	0.305772
640.306443	0.305784
640.512955	0.306138
640.719449	0.306664
640.925924	0.307295
641.132381	0.307345
641.338820	0.307739
641.545241	0.307990
641.751644	0.308255
641.958028	0.308675
642.164394	0.309007
642.370742	0.308834
642.577071	0.308540
642.783383	0.308657
642.989676	0.309033
643.195951	0.309226
643.402207	0.309414
643.608446	0.309493
643.814666	0.309301
644.020868	0.309433
644.227052	0.309563
644.433218	0.309940
644.639365	0.310054
644.845494	0.309836
645.051605	0.310085
645.257698	0.310182
645.463772	0.310435
645.669828	0.310682
645.875866	0.311006
646.081886	0.311791
646.287888	0.312100
646.493871	0.312098
646.699836	0.312433
646.905783	0.312690
647.111712	0.312954
647.317622	0.313165
647.523514	0.313539
647.729388	0.313439
647.935244	0.313408
648.141082	0.313530
648.346901	0.313728
648.552702	0.314155
648.758485	0.314212
648.964250	0.314382
649.169996	0.314628
649.375724	0.314471
649.581434	0.314776
649.787126	0.315013
649.992800	0.314982
650.198455	0.315303
650.404092	0.315335
650.609711	0.315425
650.815311	0.315469
651.020894	0.315704
651.226458	0.315994
651.432004	0.316488
651.637532	0.316497
651.843041	0.316560
652.048532	0.316547
652.254006	0.316712
652.459460	0.316978
652.664897	0.317349
652.870315	0.317555
653.075716	0.317841
653.281097	0.317671
653.486461	0.317723
653.691807	0.317842
653.897134	0.318138
654.102443	0.318140
654.307734	0.318398
654.513006	0.318855
654.718261	0.318768
654.923497	0.319324
655.128715	0.319573
655.333915	0.319833
655.539096	0.320231
655.744259	0.320284
655.949404	0.320551
656.154531	0.320586
656.359640	0.320599
656.564730	0.320733
656.769802	0.320543
656.974856	0.320821
657.179892	0.321134
657.384909	0.321539
657.589908	0.321888
657.794889	0.322037
657.999852	0.322272
658.204797	0.322218
658.409723	0.322501
658.614631	0.322716
658.819521	0.322766
659.024393	0.322552
659.229246	0.322715
659.434081	0.322777
659.638898	0.323207
659.843697	0.323377
660.048478	0.323645
660.253240	0.324072
660.457984	0.324417
660.662710	0.324538
660.867417	0.325256
661.072107	0.325284
661.276778	0.325405
661.481431	0.325601
661.686066	0.325791
661.890682	0.325988
662.095281	0.326031
662.299861	0.326078
662.504422	0.326510
662.708966	0.326659
662.913491	0.326830
663.117999	0.327272
663.322488	0.327307
663.526958	0.327321
663.731411	0.327360
663.935845	0.327452
664.140261	0.327453
664.344659	0.327576
664.549038	0.327525
664.753400	0.327748
664.957743	0.327770
665.162068	0.328144
665.366375	0.328627
665.570663	0.329051
665.774933	0.329443
665.979185	0.329983
666.183419	0.330327
666.387635	0.330718
666.591832	0.330956
666.796011	0.331456
667.000172	0.331280
667.204315	0.331241
667.408439	0.331545
667.612545	0.331591
667.816634	0.331473
668.020703	0.331531
668.224755	0.331499
668.428788	0.331934
668.632803	0.332124
668.836800	0.332554
669.040779	0.333038
669.244739	0.332992
669.448681	0.333359
669.652605	0.333744
669.856511	0.333586
670.060399	0.333765
670.264268	0.333840
670.468119	0.333899
670.671952	0.333825
670.875767	0.333914
671.079563	0.334114
671.283341	0.334126
671.487101	0.334406
671.690843	0.335132
671.894567	0.335365
672.098272	0.335457
672.301959	0.335451
672.505628	0.335923
672.709278	0.336100
672.912911	0.336249
673.116525	0.336489
673.320121	0.336552
673.523699	0.336495
673.727258	0.336911
673.930799	0.337061
674.134322	0.337260
674.337827	0.337497
674.541314	0.337501
674.744782	0.337734
674.948232	0.337787
675.151664	0.338130
675.355078	0.338443
675.558474	0.338643
675.761851	0.338731
675.965210	0.339215
676.168551	0.339326
676.371873	0.339835
676.575178	0.340150
676.778464	0.340547
676.981732	0.340837
677.184981	0.341053
677.388213	0.341093
677.591426	0.341698
677.794621	0.341876
677.997798	0.342148
678.200956	0.342479
678.404097	0.342816
678.607219	0.342931
678.810323	0.343323
679.013408	0.343298
679.216476	0.343528
679.419525	0.343482
679.622556	0.343453
679.825569	0.343561
680.028563	0.343746
680.231540	0.343750
680.434498	0.343762
680.637438	0.343674
680.840359	0.344056
681.043263	0.344141
681.246148	0.344501
681.449015	0.344702
681.651864	0.345058
681.854694	0.345169
682.057506	0.345276
682.260301	0.345683
682.463076	0.345916
682.665834	0.346051
682.868573	0.346590
683.071295	0.346628
683.273998	0.347042
683.476682	0.347327
683.679349	0.347694
683.881997	0.347923
684.084627	0.348269
684.287239	0.348325
684.489833	0.348537
684.692408	0.348557
684.894965	0.348816
685.097504	0.348914
685.300025	0.348813
685.502527	0.348622
685.705012	0.348998
685.907478	0.349231
686.109925	0.349627
686.312355	0.349911
686.514766	0.349991
686.717159	0.350034
686.919534	0.350289
687.121891	0.350492
687.324230	0.350950
687.526550	0.350998
687.728852	0.351042
687.931136	0.351104
688.133401	0.351412
688.335649	0.351824
688.537878	0.352145
688.740089	0.352209
688.942281	0.352703
689.144456	0.352917
689.346612	0.352805
689.548750	0.352946
689.750870	0.352950
689.952971	0.353054
690.155055	0.353084
690.357120	0.353513
690.559167	0.353883
690.761195	0.354068
690.963206	0.354127
691.165198	0.354683
691.367172	0.355012
691.569128	0.355346
691.771065	0.355459
691.972984	0.355690
692.174885	0.355608
692.376768	0.355576
692.578633	0.355430
692.780479	0.355745
692.982308	0.355823
693.184118	0.355925
