sample name	sample
index	93
start time	 02-15-2021  10:43:47 AM
880	-0.042637
Peak Time (s)	92.535
Peak Height 	-0.04264
calc peak height	90,93
Baseline Time (s)	10.039
Baseline Value 	-0.00325
subtract baseline	10,4
Abs	0.014101
Peak Time (s)	92.037
Peak Height 	0.0141
calc peak height	90,93
Baseline Time (s)	10.039
Baseline Value 	0.004795
subtract baseline	10,3
PK_550	0.002605
Peak Time (s)	91.535
Peak Height 	0.002605
calc peak height	90,93
Baseline Time (s)	10.039
Baseline Value 	6.2539E-4
subtract baseline	10,2
PK_880	-0.000733
Peak Time (s)	92.535
Peak Height 	-7.3349E-4
calc peak height	90,93
Baseline Time (s)	9.035
Baseline Value 	0.002623
subtract baseline	10,1


Time (s)	A880-A510	A880-A775	A880-A975	A880	I510	I775	I975	I880	
0.035000	-0.004240	-0.002056	-0.008068	0.001049	4193.881851	15827.507442	3166.533920	8971.636679
0.535500	-0.004565	-0.000012	0.004988	0.004971	4181.405476	15771.922686	3172.756853	8917.031315
1.036000	-0.003484	-0.002137	0.003042	0.002696	4191.253766	15776.330927	3172.983076	8948.640098
1.540000	-0.002794	-0.000534	0.013231	-0.000580	4202.991633	15921.345824	3182.407098	8994.469167
2.037000	-0.001713	0.000406	0.005200	-0.000177	4205.005571	15937.381419	3176.470052	8988.805526
2.537000	-0.005579	-0.001025	-0.011990	0.003105	4183.900257	15797.139731	3162.530858	8942.951490
3.034500	0.000452	0.000756	-0.011882	-0.000369	4212.043509	15953.594151	3164.922401	8991.498013
3.535000	-0.001448	0.000597	0.002266	0.001609	4200.485834	15889.770817	3173.198179	8963.814752
4.035500	-0.003889	0.001841	0.012708	0.001672	4193.078717	15924.993293	3180.440735	8962.931162
4.536000	-0.004479	0.000167	0.007532	0.003772	4185.168720	15812.683739	3175.345390	8933.674715
5.036000	-0.003206	-0.000782	-0.010507	0.000277	4199.223992	15888.361389	3165.411668	8982.444105
5.536500	0.003335	0.000532	-0.001141	0.000341	4218.564485	15925.667858	3171.727159	8981.549807
6.036500	-0.002605	0.000526	0.003976	0.001226	4198.191108	15899.049112	3174.644859	8969.162423
6.536500	0.000282	-0.000635	-0.002828	-0.000361	4211.510144	15911.765274	3171.052018	8991.391468
7.037000	-0.000377	-0.001740	0.009499	-0.001233	4212.149737	15904.826607	3180.226527	9003.644361
7.537000	-0.004028	0.000624	0.001877	0.000552	4195.975979	15922.100333	3173.658888	8978.594868
8.035000	-0.001538	-0.001946	-0.007579	-0.002025	4211.044173	15922.320574	3168.946051	9014.787758
8.535000	-0.002431	-0.000319	-0.000703	-0.001366	4206.410846	15951.291821	3173.202310	9005.510051
9.035000	0.000000	0.000532	0.019530	0.000361	4208.510211	15925.059339	3186.238643	8981.269788
9.535500	0.000298	0.002136	-0.002953	0.000082	4210.232392	15981.469833	3170.663279	8985.176299
10.038500	0.001724	0.000000	0.000000	0.000000	4214.749461	15919.955640	3172.745354	8986.326794
10.536500	-0.002293	0.000339	0.006750	0.000127	4202.378030	15926.292710	3177.340311	8984.551044
11.036500	-0.000136	-0.000398	0.019607	-0.000845	4211.706691	15933.317602	3187.162919	8998.179223
11.537000	0.001808	-0.000430	-0.005341	-0.000732	4217.197749	15928.994322	3169.588658	8996.598485
12.037000	-0.005029	0.000331	0.007606	-0.001430	4198.879219	15972.683363	3179.031547	9006.407748
12.534500	0.009643	0.000821	0.000106	0.000521	4237.130848	15928.932670	3172.459777	8979.027036
13.035000	-0.001510	0.000611	0.008947	-0.000991	4208.037570	15967.903324	3179.666494	9000.232256
13.537500	0.002445	0.001069	-0.003313	-0.001179	4220.460140	15987.295724	3171.279515	9002.880223
14.035500	-0.006646	-0.000729	-0.011594	0.003260	4180.324023	15801.295065	3162.690808	8940.786077
14.536000	-0.005080	-0.000266	0.000878	-0.001400	4198.637365	15953.876245	3174.317728	9005.983370
15.035500	-0.000137	-0.000174	-0.001070	-0.002167	4215.665840	15979.631460	3173.501641	9016.778857
15.536500	-0.000336	0.000054	-0.003248	-0.002276	4215.396020	15989.753072	3172.076822	9018.316458
16.036500	-0.003147	0.000879	-0.006004	0.004283	4187.577530	15818.656848	3165.745701	8926.574452
16.537000	-0.002900	0.001115	-0.000571	-0.001193	4204.497603	15989.104691	3173.173839	9003.080169
17.037000	-0.002914	-0.000056	-0.004272	-0.003846	4212.373606	16033.697198	3172.451807	9040.484738
17.537500	-0.001872	0.000475	0.011832	-0.000155	4204.467612	15938.777278	3181.112864	8988.494132
18.034500	-0.002177	-0.000132	-0.006447	0.002525	4195.616532	15840.802881	3166.631367	8951.030577
18.535000	-0.002451	-0.001017	-0.003819	0.000262	4201.507996	15881.803621	3169.948994	8982.660295
19.036000	-0.002397	0.000926	0.010116	0.000670	4200.455201	15927.601337	3179.320205	8976.935531
19.539000	0.000927	0.001255	0.004321	0.001406	4208.155212	15915.430705	3174.758831	8966.640164
20.035500	-0.001441	0.001107	0.002427	0.003217	4195.746476	15857.059595	3172.202294	8941.393375
20.536500	-0.003672	0.000503	0.003775	0.000766	4196.395852	15912.079192	3174.823968	8975.593905
21.037000	0.001031	0.002141	0.015292	0.001407	4208.465892	15941.908203	3182.459617	8966.637277
21.537500	-0.004716	0.000507	-0.000953	0.001365	4191.547499	15894.348248	3171.153665	8967.223969
22.037500	-0.000723	0.001333	-0.002477	0.003097	4198.222976	15867.348384	3168.931850	8943.059570
22.537000	0.000436	0.000491	-0.006451	0.001061	4207.722690	15902.934858	3167.617854	8971.472829
23.035500	-0.003116	-0.000870	-0.012683	-0.000819	4202.744591	15918.433822	3164.687915	8997.824722
23.534500	-0.001462	-0.000105	0.014769	-0.000588	4206.980476	15934.401685	3183.508022	8994.580408
24.038500	-0.004381	0.000619	0.004895	0.002346	4189.643001	15868.446329	3174.505410	8953.520499
24.539000	-0.003720	0.000195	-0.001397	0.000329	4197.545586	15915.959207	3171.558860	8981.712183
25.036500	-0.002214	-0.001099	0.008107	-0.000046	4203.129087	15888.551655	3178.411851	8986.977918
25.537000	-0.003425	0.000427	-0.003874	0.000565	4197.720344	15915.832387	3169.704214	8978.405210
26.037000	-0.001715	0.000434	0.002376	0.002680	4196.523424	15853.036062	3172.536637	8948.872923
26.537000	-0.003060	-0.001545	0.001758	-0.001130	4203.834442	15907.558469	3174.740498	9002.188880
27.037500	-0.000879	0.000436	-0.001993	-0.002863	4215.528583	16018.891569	3173.344909	9026.592421
27.535000	-0.002265	0.000883	0.007605	-0.001725	4207.975513	15998.098511	3179.238543	9010.555326
28.035000	-0.001497	0.001014	0.007784	-0.001821	4210.556512	16004.943647	3179.432008	9011.910486
28.535500	-0.005155	0.000686	-0.006680	-0.001650	4199.156796	15989.932004	3169.301808	9009.502654
29.035500	-0.000565	0.000278	0.000848	-0.001790	4213.251941	15981.884003	3174.566794	9011.470497
29.535500	-0.000338	0.000490	-0.008347	-0.001249	4212.315057	15972.018795	3167.898025	9003.867861
30.036500	-0.001876	-0.000165	-0.005414	-0.002085	4210.214457	15977.462395	3170.462067	9015.632694
30.536500	-0.000037	0.000861	0.000001	0.001853	4203.951244	15890.354616	3171.472533	8960.400180
31.037000	-0.004835	0.001055	0.003863	-0.000577	4196.929018	15968.805601	3175.818201	8994.425311
31.537500	0.002994	0.003403	-0.006064	0.000011	4218.532320	16021.696856	3168.592257	8986.176058
32.035000	0.001642	0.000785	0.006554	-0.001010	4217.535604	15973.720718	3177.998772	9000.508395
32.535500	-0.004153	0.000607	-0.011687	0.004206	4184.851518	15812.863715	3162.000570	8927.643308
33.035500	0.002781	0.000198	0.000890	-0.003266	4227.781039	16023.883883	3175.620828	9032.290926
33.538500	0.001668	-0.000372	0.008204	0.000907	4211.865045	15881.806679	3177.812296	8973.627474
34.036000	-0.005061	-0.001757	0.003447	0.001594	4189.855704	15820.201225	3174.023734	8964.014246
34.536500	-0.000638	-0.001112	-0.003353	0.002421	4200.478719	15814.817300	3168.796085	8952.475679
35.036000	-0.008250	-0.000791	0.002063	0.000066	4184.979535	15894.378845	3174.124039	8985.408522
35.537000	-0.000431	0.001126	0.015300	0.001016	4205.271537	15923.230597	3182.743473	8972.095014
36.037000	-0.003931	0.001249	0.001902	0.003280	4188.222113	15859.406329	3171.798459	8940.514719
36.537000	-0.001642	0.001320	0.000340	0.002535	4197.169144	15883.706320	3171.238271	8950.890580
37.035000	0.002009	0.000995	0.003070	0.002200	4209.016203	15884.000683	3173.344841	8955.554851
37.535000	-0.003698	0.000147	0.001146	0.000891	4195.951225	15897.754382	3172.921089	8973.851394
38.036000	-0.001862	0.001338	0.017445	0.003429	4193.875675	15857.628453	3182.552710	8938.445441
38.536000	-0.001676	0.000714	-0.003903	0.001281	4200.784953	15903.032911	3169.197596	8968.399912
39.035500	-0.000084	0.002354	0.000940	0.001876	4203.743679	15934.229620	3172.101852	8960.080721
39.536000	-0.003351	0.001229	0.000985	0.001449	4195.326060	15913.394412	3172.426417	8966.046796
40.036500	-0.005456	-0.000111	-0.001963	0.002116	4187.161412	15853.584045	3169.950423	8956.736690
40.537000	-0.003798	0.000163	-0.000665	0.001133	4194.936178	15891.004792	3171.509577	8970.457788
41.037000	-0.004263	-0.000219	0.010677	0.001009	4193.932346	15883.305408	3179.476334	8972.195487
41.537000	0.001876	0.000964	-0.003202	0.000940	4212.389368	15920.681000	3169.907371	8973.167781
42.035000	-0.005586	0.000121	0.004678	0.002249	4186.387379	15856.502621	3174.421785	8954.870878
42.535500	-0.002736	0.000712	-0.003804	0.002065	4195.321020	15879.567411	3168.731172	8957.438200
43.038500	-0.001189	0.000365	0.012295	0.000674	4204.034448	15910.726692	3180.854261	8976.882259
43.536000	0.002719	0.001058	0.006814	-0.003930	4229.606632	16069.860788	3180.235392	9041.680051
44.036500	-0.004332	0.000705	0.006502	0.003035	4187.763059	15850.537405	3175.141855	8943.927817
44.536500	0.000154	0.001074	-0.001292	0.003924	4198.372733	15835.090755	3169.175511	8931.560016
45.037000	-0.000284	0.000805	-0.003938	-0.000983	4211.679516	15973.494636	3170.717830	9000.125589
45.537000	-0.001430	0.000284	-0.000086	-0.001416	4209.546158	15970.863428	3173.662796	9006.216013
46.037000	-0.002825	0.000643	0.001240	0.003028	4192.216391	15848.902133	3171.516790	8944.022722
46.534500	-0.001236	0.002631	0.013920	0.005733	4188.932903	15827.601119	3178.435744	8906.476352
47.035000	-0.001249	0.000444	0.001862	0.001313	4201.954994	15894.009171	3173.123643	8967.942265
47.536000	-0.002179	0.001132	0.012992	-0.000495	4204.566330	15968.684604	3182.177346	8993.277673
48.035500	-0.001083	0.000648	0.003603	0.003508	4195.944555	15834.783666	3172.811093	8937.347829
48.536000	-0.002181	-0.000460	-0.002963	0.000690	4201.036541	15885.645714	3170.240733	8976.655902
49.036000	-0.000335	0.000275	0.003183	-0.003586	4219.335554	16035.833487	3177.442269	9036.806600
49.537000	0.003370	0.001599	0.010519	-0.002664	4227.740771	16047.946752	3181.961038	9023.784453
50.036500	-0.004991	-0.001158	0.005669	0.003592	4184.195719	15778.799811	3174.178435	8936.172611
50.536500	-0.063942	-0.031429	0.008365	0.240812	3555.254041	9876.632007	3048.815146	6394.691017
51.034500	-0.063950	-0.026340	-0.016009	0.050390	3909.231853	13818.482237	3130.352246	8319.290857
51.535000	-0.006738	-0.009053	0.005124	-0.158902	4754.049435	21266.659035	3309.962612	11676.332659
52.035000	-0.011804	-0.005733	0.002844	-0.108539	4533.334024	19385.662917	3260.164588	10715.105235
52.538000	-0.015522	-0.010637	-0.006771	-0.088289	4446.274552	18460.383687	3234.483296	10358.943200
53.036000	-0.005936	-0.002446	-0.000050	-0.106433	4547.438210	19430.417218	3255.741079	10677.279297
53.536000	-0.001706	-0.000735	0.008024	-0.109357	4574.603026	19607.336989	3265.538899	10729.841221
54.036500	-0.004662	-0.002874	0.000087	-0.093303	4503.395120	18923.677011	3244.481105	10445.587201
54.536500	-0.005144	-0.003063	-0.008544	-0.059770	4383.510353	17729.874942	3210.179106	9884.718916
55.037000	-0.006788	-0.001342	0.005656	-0.061763	4384.691166	17856.853601	3222.960209	9916.855735
55.537500	-0.005001	-0.001341	0.003618	-0.057201	4375.313985	17701.073838	3217.693794	9843.511043
56.035000	0.003129	-0.001181	0.008498	-0.041622	4350.425614	17186.317417	3209.323272	9598.750416
56.534500	-0.010346	-0.004216	-0.018467	-0.035692	4287.568329	16895.321168	3184.843053	9507.867727
57.038000	-0.009629	-0.004455	-0.002361	-0.031937	4277.982645	16767.618139	3193.817934	9450.965406
57.536000	-0.009037	-0.002929	-0.004936	-0.029142	4271.069612	16727.276473	3189.884519	9408.920387
58.036000	-0.010075	-0.002326	-0.000438	-0.027161	4261.655869	16683.595434	3191.721813	9379.284473
58.536500	-0.010418	-0.001645	-0.014635	-0.023763	4250.077740	16597.910395	3179.096081	9328.766494
59.036500	-0.007279	-0.001634	0.002637	-0.026995	4269.853917	16700.280216	3193.859712	9376.816808
59.537000	-0.004386	-0.003746	0.001593	-0.030085	4288.689704	16731.256134	3195.370702	9423.075279
60.037500	-0.001651	0.000164	-0.003128	-0.031632	4302.328363	16905.614095	3193.028752	9446.361747
60.537000	-0.010272	-0.003108	-0.007048	-0.057252	4357.828186	17642.869061	3209.388185	9844.324061
61.035000	-0.004500	-0.001270	-0.005405	-0.051562	4358.099834	17513.034614	3206.274472	9753.894262
61.535500	-0.003838	0.000713	-0.014460	-0.061225	4392.892969	17909.015871	3206.740741	9908.162009
62.035500	-0.005933	0.001050	-0.013263	-0.068237	4409.758445	18164.433666	3213.095532	10022.280421
62.535500	-0.008527	0.001697	-0.016868	-0.072622	4415.944186	18341.803990	3213.705002	10094.578460
63.038500	-0.005455	0.000425	-0.010407	-0.078783	4448.258104	18516.081255	3223.730319	10197.399461
63.537000	-0.001403	0.002220	0.004899	-0.078220	4460.651967	18560.368029	3235.816451	10187.952398
64.037000	-0.006250	0.001201	-0.017582	-0.079536	4448.112398	18571.000802	3218.593059	10210.066742
64.537500	-0.004849	0.002245	-0.002699	-0.079296	4452.224219	18599.969229	3230.419005	10206.026014
65.037500	-0.003035	0.001766	-0.008198	-0.079273	4458.588275	18581.874544	3225.912766	10205.639596
65.534500	-0.006790	0.001820	-0.008881	-0.077635	4439.501592	18524.976637	3224.035812	10178.132488
66.035000	-0.007831	0.001192	-0.007562	-0.071012	4412.783132	18266.971818	3219.783460	10067.943478
66.538000	-0.006756	0.002357	0.001023	-0.074548	4428.803230	18433.756884	3229.577217	10126.566199
67.036000	-0.005809	0.001688	-0.002597	-0.073604	4428.812024	18376.303395	3225.857545	10110.864503
67.536000	-0.004010	0.001425	-0.023268	-0.073002	4432.998995	18345.632423	3209.025146	10100.878757
68.036000	-0.011411	0.001014	-0.011632	-0.066405	4384.756632	18099.075403	3212.937750	9992.278787
68.536500	-0.005762	0.001207	-0.011445	-0.070222	4417.211266	18239.662228	3216.080176	10054.920040
69.037000	-0.011010	0.001580	-0.021637	-0.069579	4396.932456	18230.184017	3207.645032	10044.332051
69.537000	-0.004317	0.002080	-0.000609	-0.068818	4417.351141	18220.996103	3223.596361	10031.816493
70.034500	-0.011153	0.000868	-0.009345	-0.062279	4371.697039	17950.723147	3211.504222	9925.193211
70.535000	-0.006860	0.002628	-0.016157	-0.065125	4395.889196	18110.723759	3208.434232	9971.398470
71.035500	-0.002073	0.002582	0.006108	-0.065960	4415.225046	18138.308210	3226.718492	9985.011786
71.535000	-0.006254	0.002207	-0.006745	-0.065161	4398.083525	18097.281084	3215.795047	9971.985011
72.035500	-0.010776	0.001990	-0.007257	-0.057894	4358.287981	17838.412275	3209.722907	9854.599212
72.536000	-0.001324	0.002249	-0.008563	-0.062075	4404.407065	17991.455507	3211.954569	9921.891050
73.036000	-0.005051	0.002051	-0.007978	-0.062474	4393.015551	17998.420871	3212.722044	9928.352731
73.537000	-0.003978	0.002178	0.000541	-0.062007	4395.083839	17986.621397	3219.064733	9920.791544
74.037000	-0.005810	0.002942	-0.016169	-0.061126	4385.848658	17982.600628	3205.357322	9906.564339
74.537000	-0.006128	0.003004	-0.006214	-0.059544	4379.414788	17930.043231	3211.812641	9881.079279
75.037500	-0.003830	0.003767	-0.010734	-0.059114	4385.739811	17941.550577	3207.981252	9874.171232
75.535000	-0.003972	0.002937	-0.010205	-0.058972	4384.776099	17908.030592	3208.279532	9871.889856
76.038000	-0.005946	0.002226	-0.004814	-0.059140	4378.664620	17889.304243	3212.588466	9874.580960
76.536000	-0.008119	0.001398	-0.007813	-0.057847	4367.008869	17816.532278	3209.256861	9853.850716
77.036000	-0.002725	0.002766	-0.003354	-0.058247	4386.550208	17877.195739	3213.032116	9860.260507
77.536000	-0.008391	0.002814	-0.006200	-0.057051	4363.433723	17837.786874	3209.888796	9841.111299
78.036500	-0.011376	0.003446	-0.011738	-0.049242	4327.804201	17593.652723	3199.714717	9717.370005
78.536000	-0.006785	0.001126	-0.013283	-0.055822	4364.692749	17738.068988	3203.516275	9821.488412
79.037000	-0.002183	0.003074	-0.006383	-0.054553	4375.883665	17761.189955	3207.819873	9801.279284
79.534000	0.000253	0.002671	-0.005319	-0.054876	4385.213512	17758.471570	3208.888331	9806.413025
80.035000	-0.007597	0.001311	-0.013249	-0.048380	4337.346604	17492.919876	3197.938291	9703.848433
80.535500	-0.003125	0.002313	-0.008771	-0.053076	4367.752516	17685.049906	3204.859724	9777.837390
81.035500	-0.004469	0.003051	0.000001	-0.052853	4362.509093	17702.543819	3211.442390	9774.309384
81.535500	-0.002780	0.001973	-0.006183	-0.053383	4369.938247	17683.904152	3207.073656	9782.699384
82.036000	-0.006639	0.001889	-0.001615	-0.045632	4331.481870	17420.418782	3204.640334	9660.918381
82.536000	-0.000690	0.003413	0.005515	-0.050372	4366.854320	17630.701945	3213.809214	9735.140255
83.036500	0.003189	0.002838	-0.008602	-0.049855	4378.156602	17593.822335	3202.540530	9726.998753
83.537000	-0.003516	0.002953	-0.014036	-0.050968	4359.400412	17635.326545	3199.285561	9744.530135
84.037500	0.001356	0.002865	-0.018230	-0.050365	4373.700305	17611.967558	3195.709848	9735.027393
84.537500	-0.000451	0.002308	-0.000193	-0.048891	4362.694326	17543.490564	3208.225515	9711.850961
85.035000	-0.003878	0.001750	-0.004778	-0.050630	4357.067493	17583.247716	3206.040657	9739.193110
85.538500	-0.001767	0.004634	-0.009147	-0.047110	4352.389155	17561.840373	3200.059355	9683.975635
86.035500	-0.000381	0.003768	-0.001252	-0.046703	4355.639787	17519.062179	3205.735096	9677.620079
86.536000	-0.001348	0.001660	-0.009120	-0.047516	4355.127223	17475.654207	3200.384678	9690.312327
87.036000	-0.001955	0.002057	-0.004253	-0.047635	4353.505737	17492.918778	3204.156180	9692.172877
87.536500	-0.003661	0.000817	-0.013526	-0.048215	4349.776338	17470.871860	3197.608750	9701.266341
88.037000	-0.000936	0.003335	0.002516	-0.045290	4349.113375	17457.230954	3207.539546	9655.587703
88.537000	0.000260	0.002296	0.000630	-0.045301	4353.110272	17422.911304	3206.101284	9655.756998
89.037500	-0.000802	0.002249	-0.007570	-0.045706	4350.933829	17434.876710	3200.189852	9662.070830
89.537500	0.000324	0.001716	0.008439	-0.044929	4352.089789	17391.221160	3211.841939	9649.972462
90.038000	-0.003781	0.001658	0.010976	-0.045099	4339.101790	17394.956062	3213.956926	9652.621605
90.535000	-0.001445	0.001789	-0.004180	-0.043762	4342.386859	17354.882007	3201.277935	9631.855923
91.035500	-0.006819	0.000194	-0.005330	-0.045734	4331.227664	17367.364800	3201.898594	9662.497766
91.535500	-0.002735	0.002605	0.006325	-0.043303	4336.638680	17366.727899	3208.942951	9624.739902
92.036500	-0.003686	0.001726	0.014101	-0.043272	4333.421745	17336.540475	3214.975120	9624.260596
92.535500	-0.000733	0.001838	0.012388	-0.042637	4341.025261	17319.200995	3213.134297	9614.424380
93.042500	-0.002885	0.000936	0.000454	-0.043269	4336.036341	17310.283512	3204.416814	9624.217130
93.537500	0.000139	0.001349	-0.017530	-0.042456	4343.302299	17297.043921	3190.409022	9611.631725
94.034500	-0.004110	0.001448	-0.016447	-0.036628	4310.475817	17108.954380	3186.967869	9522.130395
94.534500	0.001471	0.001091	-0.006574	-0.042117	4346.580055	17277.350420	3198.245953	9606.398237
95.035000	-0.003956	0.000526	0.008487	-0.042463	4329.895957	17270.132588	3209.965500	9611.748619
95.535500	0.000874	0.001565	0.000735	-0.041338	4342.042828	17267.266839	3203.161947	9594.368813
