sample name	sample
index	1126
start time	 04-22-2021  02:06:03 PM


Wavelength (nm)	Absorbance
494.344910	NaN
494.563924	NaN
494.782919	NaN
495.001897	-1.028531
495.220856	0.716035
495.439797	0.000694
495.658719	-0.138360
495.877624	-0.207420
496.096510	-0.041393
496.315378	-0.043379
496.534227	-0.159925
496.753059	-0.237327
496.971872	-0.316810
497.190667	0.023962
497.409444	0.053549
497.628203	0.059206
497.846943	0.059656
498.065665	0.058925
498.284369	0.058391
498.503055	0.060354
498.721723	0.060441
498.940372	0.059957
499.159003	0.061142
499.377616	0.061648
499.596210	0.061106
499.814787	0.061766
500.033345	0.061125
500.251885	0.061312
500.470406	0.060413
500.688910	0.059792
500.907395	0.059214
501.125862	0.058514
501.344311	0.057424
501.562742	0.057186
501.781154	0.056565
501.999548	0.056101
502.217924	0.056354
502.436282	0.055884
502.654621	0.056279
502.872942	0.056987
503.091245	0.057427
503.309530	0.056850
503.527797	0.056988
503.746045	0.056576
503.964275	0.056836
504.182487	0.057217
504.400681	0.057599
504.618856	0.056987
504.837013	0.057382
505.055152	0.057403
505.273273	0.058495
505.491376	0.059101
505.709460	0.059319
505.927526	0.059543
506.145574	0.058806
506.363604	0.059386
506.581615	0.060209
506.799608	0.059400
507.017583	0.059547
507.235540	0.058614
507.453478	0.057814
507.671399	0.057456
507.889301	0.057558
508.107185	0.058348
508.325050	0.058342
508.542898	0.058726
508.760727	0.059603
508.978538	0.060134
509.196330	0.060727
509.414105	0.061070
509.631861	0.062135
509.849599	0.061460
510.067319	0.061294
510.285021	0.060171
510.502704	0.059829
510.720369	0.060455
510.938016	0.059612
511.155645	0.059565
511.373255	0.059404
511.590848	0.057730
511.808422	0.058407
512.025977	0.059043
512.243515	0.059793
512.461034	0.059256
512.678536	0.058993
512.896018	0.057806
513.113483	0.057900
513.330930	0.058625
513.548358	0.060030
513.765768	0.060593
513.983160	0.060027
514.200533	0.060045
514.417889	0.061593
514.635226	0.061487
514.852545	0.063389
515.069845	0.063075
515.287128	0.063183
515.504392	0.062131
515.721638	0.061382
515.938866	0.061458
516.156075	0.062717
516.373267	0.061842
516.590440	0.061456
516.807594	0.060230
517.024731	0.060293
517.241850	0.060241
517.458950	0.060684
517.676032	0.061578
517.893095	0.061711
518.110141	0.060267
518.327168	0.059740
518.544177	0.060076
518.761168	0.060335
518.978141	0.060042
519.195095	0.060033
519.412031	0.060425
519.628949	0.060546
519.845849	0.060308
520.062731	0.060781
520.279594	0.060673
520.496439	0.060508
520.713266	0.060599
520.930074	0.061587
521.146865	0.061632
521.363637	0.061413
521.580391	0.061153
521.797127	0.060980
522.013844	0.060868
522.230543	0.061643
522.447224	0.061658
522.663887	0.062067
522.880532	0.061052
523.097158	0.061262
523.313766	0.061827
523.530356	0.061940
523.746928	0.061745
523.963481	0.061705
524.180017	0.061464
524.396534	0.061737
524.613032	0.061736
524.829513	0.062663
525.045975	0.062071
525.262420	0.062130
525.478845	0.062221
525.695253	0.062548
525.911643	0.063059
526.128014	0.064184
526.344367	0.064662
526.560702	0.064999
526.777018	0.064672
526.993316	0.064878
527.209597	0.065257
527.425858	0.064956
527.642102	0.065391
527.858328	0.065325
528.074535	0.064121
528.290724	0.063974
528.506894	0.063995
528.723047	0.064473
528.939181	0.065237
529.155297	0.065268
529.371395	0.065643
529.587475	0.065708
529.803536	0.065696
530.019579	0.066645
530.235604	0.066244
530.451611	0.066702
530.667600	0.067014
530.883570	0.066805
531.099522	0.066499
531.315456	0.066414
531.531372	0.066895
531.747269	0.067447
531.963148	0.067240
532.179009	0.067583
532.394852	0.067687
532.610676	0.067505
532.826482	0.067577
533.042271	0.068279
533.258040	0.069302
533.473792	0.069138
533.689525	0.068655
533.905240	0.068632
534.120937	0.069079
534.336616	0.069171
534.552277	0.069567
534.767919	0.069999
534.983543	0.069903
535.199149	0.069219
535.414736	0.069293
535.630306	0.070357
535.845857	0.070513
536.061390	0.070487
536.276904	0.070644
536.492401	0.070773
536.707879	0.071053
536.923339	0.071112
537.138781	0.072002
537.354204	0.071720
537.569610	0.071142
537.784997	0.071482
538.000366	0.071542
538.215716	0.071846
538.431049	0.071483
538.646363	0.071204
538.861659	0.071079
539.076937	0.070647
539.292196	0.070816
539.507438	0.070933
539.722661	0.071376
539.937866	0.071606
540.153052	0.071358
540.368221	0.072023
540.583371	0.071866
540.798503	0.072274
541.013617	0.071844
541.228712	0.072223
541.443789	0.072395
541.658848	0.072735
541.873889	0.073011
542.088912	0.073030
542.303916	0.072823
542.518902	0.072709
542.733870	0.072647
542.948820	0.073066
543.163752	0.072912
543.378665	0.072594
543.593560	0.071806
543.808437	0.071766
544.023295	0.071991
544.238136	0.072213
544.452958	0.072429
544.667762	0.072924
544.882548	0.073385
545.097315	0.073519
545.312064	0.073822
545.526795	0.074581
545.741508	0.074472
545.956203	0.074649
546.170879	0.074861
546.385537	0.075303
546.600177	0.074807
546.814799	0.074598
547.029402	0.075235
547.243988	0.075654
547.458555	0.075470
547.673103	0.075672
547.887634	0.075369
548.102146	0.075265
548.316640	0.075389
548.531116	0.075914
548.745574	0.075805
548.960013	0.075913
549.174435	0.075931
549.388838	0.076124
549.603222	0.076233
549.817589	0.076905
550.031937	0.077048
550.246267	0.077155
550.460579	0.077450
550.674873	0.078115
550.889148	0.078107
551.103405	0.078081
551.317644	0.077834
551.531865	0.078013
551.746068	0.078146
551.960252	0.078402
552.174418	0.078324
552.388566	0.077859
552.602696	0.077513
552.816807	0.077246
553.030900	0.077711
553.244975	0.077824
553.459032	0.077708
553.673070	0.077159
553.887091	0.076974
554.101093	0.076636
554.315077	0.076905
554.529042	0.077037
554.742990	0.077205
554.956919	0.076726
555.170830	0.076750
555.384722	0.076676
555.598597	0.076947
555.812453	0.076678
556.026291	0.076980
556.240111	0.077214
556.453913	0.077474
556.667696	0.077694
556.881461	0.077839
557.095208	0.078144
557.308937	0.078495
557.522647	0.078497
557.736339	0.078821
557.950013	0.078958
558.163669	0.078993
558.377307	0.079027
558.590926	0.078828
558.804527	0.078841
559.018110	0.079069
559.231675	0.079178
559.445221	0.079569
559.658749	0.079677
559.872259	0.079757
560.085751	0.079749
560.299225	0.079693
560.512680	0.080663
560.726117	0.080877
560.939536	0.081099
561.152937	0.081261
561.366319	0.080862
561.579683	0.080795
561.793029	0.080811
562.006357	0.080555
562.219667	0.080865
562.432958	0.080171
562.646231	0.080398
562.859486	0.079972
563.072723	0.079867
563.285941	0.080467
563.499141	0.080657
563.712323	0.080661
563.925487	0.080928
564.138632	0.080795
564.351760	0.081283
564.564869	0.081152
564.777960	0.081180
564.991032	0.080907
565.204087	0.080318
565.417123	0.080265
565.630141	0.080168
565.843140	0.080124
566.056122	0.080258
566.269085	0.079487
566.482030	0.079600
566.694957	0.079806
566.907866	0.080532
567.120756	0.081168
567.333628	0.081309
567.546482	0.081776
567.759318	0.082064
567.972135	0.081938
568.184935	0.082348
568.397716	0.082354
568.610478	0.082228
568.823223	0.081967
569.035949	0.081753
569.248657	0.081636
569.461347	0.081710
569.674019	0.081532
569.886672	0.082142
570.099308	0.081957
570.311925	0.082157
570.524523	0.082217
570.737104	0.081879
570.949666	0.081782
571.162210	0.081929
571.374736	0.081896
571.587244	0.082362
571.799733	0.081437
572.012205	0.082003
572.224658	0.081916
572.437092	0.082076
572.649509	0.082173
572.861907	0.082370
573.074287	0.082413
573.286649	0.082598
573.498993	0.082197
573.711318	0.082679
573.923625	0.082219
574.135914	0.082280
574.348185	0.082158
574.560438	0.082336
574.772672	0.082424
574.984888	0.082409
575.197086	0.082594
575.409266	0.082855
575.621427	0.083104
575.833570	0.083359
576.045695	0.083191
576.257802	0.083675
576.469890	0.083871
576.681961	0.083813
576.894013	0.083885
577.106046	0.083467
577.318062	0.083436
577.530059	0.083341
577.742039	0.083378
577.954000	0.083678
578.165942	0.083665
578.377867	0.083533
578.589773	0.083707
578.801661	0.084001
579.013531	0.084253
579.225382	0.084288
579.437216	0.084570
579.649031	0.084412
579.860828	0.084448
580.072606	0.084412
580.284367	0.084641
580.496109	0.084261
580.707833	0.084423
580.919539	0.084300
581.131227	0.084304
581.342896	0.084127
581.554547	0.084373
581.766180	0.084523
581.977795	0.084354
582.189391	0.084561
582.400969	0.085172
582.612529	0.084864
582.824071	0.085191
583.035595	0.085272
583.247100	0.085376
583.458587	0.085573
583.670056	0.085213
583.881506	0.085346
584.092939	0.085131
584.304353	0.084701
584.515749	0.084735
584.727127	0.084501
584.938486	0.084664
585.149828	0.084722
585.361151	0.084824
585.572456	0.085091
585.783742	0.085092
585.995011	0.085345
586.206261	0.085529
586.417493	0.085771
586.628706	0.086141
586.839902	0.085908
587.051079	0.085864
587.262238	0.085807
587.473379	0.086133
587.684502	0.086200
587.895606	0.086301
588.106692	0.086304
588.317760	0.086389
588.528810	0.086439
588.739841	0.086884
588.950855	0.087157
589.161850	0.087304
589.372827	0.087195
589.583785	0.087342
589.794726	0.087072
590.005648	0.087161
590.216552	0.087245
590.427437	0.087010
590.638305	0.086995
590.849154	0.086950
591.059985	0.087113
591.270798	0.087189
591.481592	0.087145
591.692369	0.087188
591.903127	0.087492
592.113867	0.087458
592.324588	0.087483
592.535292	0.087274
592.745977	0.087317
592.956644	0.087202
593.167293	0.087091
593.377923	0.087351
593.588536	0.087580
593.799130	0.087715
594.009706	0.087606
594.220263	0.087957
594.430803	0.088371
594.641324	0.088575
594.851827	0.088828
595.062312	0.089375
595.272778	0.089540
595.483227	0.089723
595.693657	0.089740
595.904069	0.090048
596.114462	0.089891
596.324838	0.089678
596.535195	0.089443
596.745534	0.089048
596.955855	0.088916
597.166157	0.088576
597.376441	0.088232
597.586707	0.088095
597.796955	0.088069
598.007185	0.087924
598.217396	0.087802
598.427589	0.088196
598.637764	0.088403
598.847921	0.088169
599.058060	0.088606
599.268180	0.088642
599.478282	0.088881
599.688366	0.089055
599.898431	0.089287
600.108479	0.089475
600.318508	0.089230
600.528519	0.089533
600.738511	0.089484
600.948486	0.089388
601.158442	0.089977
601.368380	0.089744
601.578300	0.089637
601.788202	0.090027
601.998085	0.090101
602.207950	0.090260
602.417797	0.090022
602.627626	0.090508
602.837436	0.090350
603.047228	0.090063
603.257002	0.090193
603.466758	0.090378
603.676496	0.090101
603.886215	0.090383
604.095916	0.090569
604.305599	0.090958
604.515264	0.091067
604.724910	0.091314
604.934538	0.091398
605.144148	0.091418
605.353740	0.091454
605.563314	0.091592
605.772869	0.091622
605.982406	0.091646
606.191925	0.091553
606.401425	0.091405
606.610908	0.091264
606.820372	0.091405
607.029818	0.091450
607.239246	0.091325
607.448655	0.091371
607.658047	0.091272
607.867420	0.091207
608.076775	0.091212
608.286111	0.091028
608.495430	0.091108
608.704730	0.091250
608.914012	0.091541
609.123275	0.091454
609.332521	0.091757
609.541748	0.092194
609.750957	0.092120
609.960148	0.092392
610.169321	0.092591
610.378475	0.092873
610.587611	0.092786
610.796729	0.092987
611.005829	0.093332
611.214910	0.093079
611.423974	0.092832
611.633019	0.092977
611.842045	0.092716
612.051054	0.092773
612.260044	0.092617
612.469017	0.092595
612.677970	0.092282
612.886906	0.092405
613.095824	0.092409
613.304723	0.092321
613.513604	0.092304
613.722467	0.092492
613.931311	0.092812
614.140138	0.092905
614.348946	0.093052
614.557736	0.093090
614.766507	0.093016
614.975261	0.092818
615.183996	0.092995
615.392713	0.093131
615.601412	0.092846
615.810092	0.092344
616.018754	0.092547
616.227399	0.092601
616.436024	0.092639
616.644632	0.092503
616.853222	0.092853
617.061793	0.092788
617.270346	0.092599
617.478880	0.092594
617.687397	0.092922
617.895895	0.093056
618.104375	0.092890
618.312837	0.092803
618.521281	0.092793
618.729706	0.092585
618.938113	0.092752
619.146502	0.092912
619.354873	0.093250
619.563226	0.093413
619.771560	0.093143
619.979876	0.093315
620.188174	0.093552
620.396453	0.093707
620.604715	0.093945
620.812958	0.093904
621.021183	0.093886
621.229390	0.094082
621.437578	0.094029
621.645748	0.094197
621.853900	0.094419
622.062034	0.094316
622.270150	0.094375
622.478247	0.094564
622.686326	0.094685
622.894387	0.095061
623.102430	0.094925
623.310454	0.094950
623.518461	0.094949
623.726449	0.095059
623.934418	0.095285
624.142370	0.095397
624.350303	0.095128
624.558218	0.094884
624.766115	0.094874
624.973994	0.095004
625.181855	0.095195
625.389697	0.095183
625.597521	0.095171
625.805327	0.095156
626.013114	0.095261
626.220883	0.095479
626.428634	0.095851
626.636367	0.095681
626.844082	0.095773
627.051778	0.095696
627.259457	0.095718
627.467117	0.095767
627.674758	0.095843
627.882382	0.095804
628.089987	0.095776
628.297574	0.095654
628.505143	0.095783
628.712694	0.095505
628.920226	0.095383
629.127740	0.095488
629.335236	0.095352
629.542714	0.095363
629.750174	0.095232
629.957615	0.095336
630.165038	0.095472
630.372443	0.095571
630.579829	0.095794
630.787198	0.096006
630.994548	0.096441
631.201880	0.096526
631.409194	0.096686
631.616489	0.096950
631.823766	0.097047
632.031025	0.097180
632.238266	0.097433
632.445489	0.097718
632.652693	0.097769
632.859879	0.097525
633.067047	0.097598
633.274197	0.097457
633.481329	0.097599
633.688442	0.097569
633.895537	0.097552
634.102614	0.097408
634.309672	0.097315
634.516713	0.097428
634.723735	0.097362
634.930739	0.097304
635.137724	0.097371
635.344692	0.097349
635.551641	0.097490
635.758572	0.097140
635.965485	0.097252
636.172379	0.097548
636.379256	0.097426
636.586114	0.097537
636.792954	0.097794
636.999775	0.097958
637.206579	0.098069
637.413364	0.098150
637.620131	0.098666
637.826880	0.098730
638.033610	0.098769
638.240323	0.098955
638.447017	0.099141
638.653692	0.099216
638.860350	0.099375
639.066990	0.099333
639.273611	0.099438
639.480214	0.099548
639.686798	0.099565
639.893365	0.099475
640.099913	0.099560
640.306443	0.099683
640.512955	0.099903
640.719449	0.100070
640.925924	0.100167
641.132381	0.100389
641.338820	0.100340
641.545241	0.100346
641.751644	0.100494
641.958028	0.100677
642.164394	0.100675
642.370742	0.100496
642.577071	0.100639
642.783383	0.100805
642.989676	0.100716
643.195951	0.100941
643.402207	0.101139
643.608446	0.101112
643.814666	0.100960
644.020868	0.100932
644.227052	0.101061
644.433218	0.100881
644.639365	0.101052
644.845494	0.101221
645.051605	0.101397
645.257698	0.101305
645.463772	0.101325
645.669828	0.101589
645.875866	0.101604
646.081886	0.101930
646.287888	0.102285
646.493871	0.102450
646.699836	0.102447
646.905783	0.102095
647.111712	0.102204
647.317622	0.102316
647.523514	0.102116
647.729388	0.102202
647.935244	0.101910
648.141082	0.101868
648.346901	0.101711
648.552702	0.101641
648.758485	0.102080
648.964250	0.102149
649.169996	0.102218
649.375724	0.102583
649.581434	0.102742
649.787126	0.103013
649.992800	0.103058
650.198455	0.103089
650.404092	0.103291
650.609711	0.103187
650.815311	0.103157
651.020894	0.103273
651.226458	0.103252
651.432004	0.103575
651.637532	0.103691
651.843041	0.103807
652.048532	0.104162
652.254006	0.104401
652.459460	0.104550
652.664897	0.104811
652.870315	0.104829
653.075716	0.105104
653.281097	0.104975
653.486461	0.105002
653.691807	0.104968
653.897134	0.104920
654.102443	0.104982
654.307734	0.104988
654.513006	0.105168
654.718261	0.105217
654.923497	0.105188
655.128715	0.105195
655.333915	0.105142
655.539096	0.105371
655.744259	0.105412
655.949404	0.105380
656.154531	0.105370
656.359640	0.105423
656.564730	0.105612
656.769802	0.105590
656.974856	0.105677
657.179892	0.105873
657.384909	0.105793
657.589908	0.105714
657.794889	0.105780
657.999852	0.105937
658.204797	0.105877
658.409723	0.105910
658.614631	0.106119
658.819521	0.106271
659.024393	0.106414
659.229246	0.106431
659.434081	0.106623
659.638898	0.106576
659.843697	0.106650
660.048478	0.106680
660.253240	0.106583
660.457984	0.106475
660.662710	0.106279
660.867417	0.106247
661.072107	0.106294
661.276778	0.106349
661.481431	0.106282
661.686066	0.106371
661.890682	0.106566
662.095281	0.106500
662.299861	0.106609
662.504422	0.107052
662.708966	0.107055
662.913491	0.107215
663.117999	0.107285
663.322488	0.107711
663.526958	0.107829
663.731411	0.107941
663.935845	0.108246
664.140261	0.108412
664.344659	0.108217
664.549038	0.108425
664.753400	0.108477
664.957743	0.108559
665.162068	0.108617
665.366375	0.108613
665.570663	0.108696
665.774933	0.108786
665.979185	0.109028
666.183419	0.109349
666.387635	0.109382
666.591832	0.109501
666.796011	0.109819
667.000172	0.109714
667.204315	0.109835
667.408439	0.109852
667.612545	0.110162
667.816634	0.110076
668.020703	0.110002
668.224755	0.110138
668.428788	0.110286
668.632803	0.110133
668.836800	0.110259
669.040779	0.110121
669.244739	0.110150
669.448681	0.110204
669.652605	0.110334
669.856511	0.110571
670.060399	0.110654
670.264268	0.110910
670.468119	0.110995
670.671952	0.111236
670.875767	0.111574
671.079563	0.111666
671.283341	0.111641
671.487101	0.111725
671.690843	0.111768
671.894567	0.111709
672.098272	0.111760
672.301959	0.111980
672.505628	0.112009
672.709278	0.112164
672.912911	0.112434
673.116525	0.112432
673.320121	0.112445
673.523699	0.112577
673.727258	0.112843
673.930799	0.112981
674.134322	0.113018
674.337827	0.113218
674.541314	0.113166
674.744782	0.113197
674.948232	0.113391
675.151664	0.113579
675.355078	0.113749
675.558474	0.113603
675.761851	0.113486
675.965210	0.113786
676.168551	0.113879
676.371873	0.114337
676.575178	0.114318
676.778464	0.114213
676.981732	0.114332
677.184981	0.114220
677.388213	0.114600
677.591426	0.114710
677.794621	0.114480
677.997798	0.114459
678.200956	0.114232
678.404097	0.114468
678.607219	0.114840
678.810323	0.114903
679.013408	0.115031
679.216476	0.114854
679.419525	0.114946
679.622556	0.115212
679.825569	0.115437
680.028563	0.115518
680.231540	0.115545
680.434498	0.115466
680.637438	0.115419
680.840359	0.115651
681.043263	0.116002
681.246148	0.116148
681.449015	0.116061
681.651864	0.115981
681.854694	0.116271
682.057506	0.116315
682.260301	0.116310
682.463076	0.116555
682.665834	0.116643
682.868573	0.116573
683.071295	0.116503
683.273998	0.116776
683.476682	0.116810
683.679349	0.116749
683.881997	0.116891
684.084627	0.117163
684.287239	0.117167
684.489833	0.117220
684.692408	0.117107
684.894965	0.117197
685.097504	0.117196
685.300025	0.117345
685.502527	0.117264
685.705012	0.117144
685.907478	0.117302
686.109925	0.117336
686.312355	0.117047
686.514766	0.117409
686.717159	0.117563
686.919534	0.117535
687.121891	0.117466
687.324230	0.117631
687.526550	0.117799
687.728852	0.117664
687.931136	0.117630
688.133401	0.117900
688.335649	0.117954
688.537878	0.118055
688.740089	0.118164
688.942281	0.118353
689.144456	0.118297
689.346612	0.118336
689.548750	0.118404
689.750870	0.118594
689.952971	0.118720
690.155055	0.118703
690.357120	0.118501
690.559167	0.118396
690.761195	0.118296
690.963206	0.118396
691.165198	0.118414
691.367172	0.118401
691.569128	0.118185
691.771065	0.118137
691.972984	0.118004
692.174885	0.118065
692.376768	0.118282
692.578633	0.118500
692.780479	0.118570
692.982308	0.118570
693.184118	0.118891
693.385909	0.119149
