sample name	sample
index	651
start time	 03-19-2021  04:14:19 PM


Wavelength (nm)	Absorbance
494.344910	NaN
494.563924	NaN
494.782919	NaN
495.001897	0.305373
495.220856	NaN
495.439797	NaN
495.658719	NaN
495.877624	NaN
496.096510	NaN
496.315378	NaN
496.534227	NaN
496.753059	1.285175
496.971872	0.437759
497.190667	0.103600
497.409444	0.097321
497.628203	0.095455
497.846943	0.095036
498.065665	0.095888
498.284369	0.097438
498.503055	0.098994
498.721723	0.098574
498.940372	0.099168
499.159003	0.099130
499.377616	0.099582
499.596210	0.100369
499.814787	0.099796
500.033345	0.099612
500.251885	0.098844
500.470406	0.099055
500.688910	0.099086
500.907395	0.098850
501.125862	0.098284
501.344311	0.097974
501.562742	0.097615
501.781154	0.098625
501.999548	0.098644
502.217924	0.097914
502.436282	0.097365
502.654621	0.097878
502.872942	0.096300
503.091245	0.097232
503.309530	0.097314
503.527797	0.097724
503.746045	0.097503
503.964275	0.097764
504.182487	0.099253
504.400681	0.098962
504.618856	0.098660
504.837013	0.099398
505.055152	0.099170
505.273273	0.099628
505.491376	0.099329
505.709460	0.100163
505.927526	0.100337
506.145574	0.100501
506.363604	0.101381
506.581615	0.102129
506.799608	0.101851
507.017583	0.102384
507.235540	0.102889
507.453478	0.102779
507.671399	0.102029
507.889301	0.101349
508.107185	0.100943
508.325050	0.100633
508.542898	0.099795
508.760727	0.100951
508.978538	0.101117
509.196330	0.100797
509.414105	0.101499
509.631861	0.101683
509.849599	0.101612
510.067319	0.101902
510.285021	0.101794
510.502704	0.102983
510.720369	0.102914
510.938016	0.102527
511.155645	0.103191
511.373255	0.102994
511.590848	0.103361
511.808422	0.104360
512.025977	0.104454
512.243515	0.103993
512.461034	0.103279
512.678536	0.103216
512.896018	0.104093
513.113483	0.104023
513.330930	0.103778
513.548358	0.103118
513.765768	0.103114
513.983160	0.102840
514.200533	0.103556
514.417889	0.103961
514.635226	0.103934
514.852545	0.103892
515.069845	0.103533
515.287128	0.103507
515.504392	0.103667
515.721638	0.104049
515.938866	0.104920
516.156075	0.104648
516.373267	0.104602
516.590440	0.104509
516.807594	0.104455
517.024731	0.104859
517.241850	0.105157
517.458950	0.106048
517.676032	0.106608
517.893095	0.105941
518.110141	0.106407
518.327168	0.106541
518.544177	0.106583
518.761168	0.106304
518.978141	0.106272
519.195095	0.106872
519.412031	0.106531
519.628949	0.105727
519.845849	0.106062
520.062731	0.106020
520.279594	0.106283
520.496439	0.107028
520.713266	0.107075
520.930074	0.106795
521.146865	0.106864
521.363637	0.106675
521.580391	0.107005
521.797127	0.107034
522.013844	0.107146
522.230543	0.106662
522.447224	0.106722
522.663887	0.106776
522.880532	0.107124
523.097158	0.107113
523.313766	0.107438
523.530356	0.108182
523.746928	0.108542
523.963481	0.108302
524.180017	0.109173
524.396534	0.109408
524.613032	0.109799
524.829513	0.109962
525.045975	0.109861
525.262420	0.110379
525.478845	0.109520
525.695253	0.109292
525.911643	0.110232
526.128014	0.110275
526.344367	0.109740
526.560702	0.110181
526.777018	0.110546
526.993316	0.111460
527.209597	0.111536
527.425858	0.111955
527.642102	0.112135
527.858328	0.112207
528.074535	0.111884
528.290724	0.112584
528.506894	0.112511
528.723047	0.112934
528.939181	0.112773
529.155297	0.112747
529.371395	0.112788
529.587475	0.113008
529.803536	0.112818
530.019579	0.113120
530.235604	0.113498
530.451611	0.113563
530.667600	0.113616
530.883570	0.113842
531.099522	0.113901
531.315456	0.114256
531.531372	0.114263
531.747269	0.114687
531.963148	0.115345
532.179009	0.115230
532.394852	0.115671
532.610676	0.116007
532.826482	0.116500
533.042271	0.117229
533.258040	0.117073
533.473792	0.117371
533.689525	0.117119
533.905240	0.117074
534.120937	0.117037
534.336616	0.117088
534.552277	0.116953
534.767919	0.116903
534.983543	0.117048
535.199149	0.117694
535.414736	0.118520
535.630306	0.118956
535.845857	0.119099
536.061390	0.119492
536.276904	0.120100
536.492401	0.120823
536.707879	0.120866
536.923339	0.120310
537.138781	0.120363
537.354204	0.120014
537.569610	0.120409
537.784997	0.120769
538.000366	0.121158
538.215716	0.120991
538.431049	0.120203
538.646363	0.120028
538.861659	0.120561
539.076937	0.120377
539.292196	0.120926
539.507438	0.121527
539.722661	0.122106
539.937866	0.122332
540.153052	0.122728
540.368221	0.123328
540.583371	0.123850
540.798503	0.124551
541.013617	0.125208
541.228712	0.124856
541.443789	0.124660
541.658848	0.124684
541.873889	0.124598
542.088912	0.124335
542.303916	0.124217
542.518902	0.124527
542.733870	0.124039
542.948820	0.124056
543.163752	0.124480
543.378665	0.124522
543.593560	0.124303
543.808437	0.124728
544.023295	0.125141
544.238136	0.125671
544.452958	0.125747
544.667762	0.126380
544.882548	0.126541
545.097315	0.126897
545.312064	0.127336
545.526795	0.127413
545.741508	0.127601
545.956203	0.127430
546.170879	0.127755
546.385537	0.127926
546.600177	0.127643
546.814799	0.127763
547.029402	0.127719
547.243988	0.127385
547.458555	0.127437
547.673103	0.127172
547.887634	0.127568
548.102146	0.127343
548.316640	0.127344
548.531116	0.127854
548.745574	0.128047
548.960013	0.128244
549.174435	0.128986
549.388838	0.129341
549.603222	0.129802
549.817589	0.130211
550.031937	0.130840
550.246267	0.130838
550.460579	0.131004
550.674873	0.131062
550.889148	0.131103
551.103405	0.130955
551.317644	0.130704
551.531865	0.130635
551.746068	0.130606
551.960252	0.130394
552.174418	0.131081
552.388566	0.131004
552.602696	0.131600
552.816807	0.131865
553.030900	0.132149
553.244975	0.133061
553.459032	0.133608
553.673070	0.133477
553.887091	0.133603
554.101093	0.133480
554.315077	0.134012
554.529042	0.133931
554.742990	0.133666
554.956919	0.133752
555.170830	0.133425
555.384722	0.133375
555.598597	0.134181
555.812453	0.134213
556.026291	0.134758
556.240111	0.134813
556.453913	0.135358
556.667696	0.135567
556.881461	0.135337
557.095208	0.135577
557.308937	0.135415
557.522647	0.135550
557.736339	0.135847
557.950013	0.135405
558.163669	0.135531
558.377307	0.135331
558.590926	0.135913
558.804527	0.135969
559.018110	0.136182
559.231675	0.136605
559.445221	0.136303
559.658749	0.136425
559.872259	0.136410
560.085751	0.136278
560.299225	0.136111
560.512680	0.136064
560.726117	0.136483
560.939536	0.136775
561.152937	0.136738
561.366319	0.137078
561.579683	0.137222
561.793029	0.137552
562.006357	0.137804
562.219667	0.138199
562.432958	0.138093
562.646231	0.138463
562.859486	0.138350
563.072723	0.138605
563.285941	0.138475
563.499141	0.138505
563.712323	0.138712
563.925487	0.138842
564.138632	0.138757
564.351760	0.139490
564.564869	0.138968
564.777960	0.139091
564.991032	0.139433
565.204087	0.139906
565.417123	0.140084
565.630141	0.140205
565.843140	0.140299
566.056122	0.140282
566.269085	0.140288
566.482030	0.140614
566.694957	0.140491
566.907866	0.140590
567.120756	0.140462
567.333628	0.140502
567.546482	0.140628
567.759318	0.141058
567.972135	0.141502
568.184935	0.141240
568.397716	0.141351
568.610478	0.141746
568.823223	0.141542
569.035949	0.141582
569.248657	0.142055
569.461347	0.142259
569.674019	0.142077
569.886672	0.142282
570.099308	0.142566
570.311925	0.143228
570.524523	0.143517
570.737104	0.143398
570.949666	0.143443
571.162210	0.143463
571.374736	0.143866
571.587244	0.144327
571.799733	0.144313
572.012205	0.144271
572.224658	0.144139
572.437092	0.144214
572.649509	0.144490
572.861907	0.144785
573.074287	0.144736
573.286649	0.144166
573.498993	0.144059
573.711318	0.144470
573.923625	0.144899
574.135914	0.144792
574.348185	0.144953
574.560438	0.145338
574.772672	0.145495
574.984888	0.145904
575.197086	0.146494
575.409266	0.146768
575.621427	0.146613
575.833570	0.146731
576.045695	0.146838
576.257802	0.146984
576.469890	0.147106
576.681961	0.146908
576.894013	0.146851
577.106046	0.146302
577.318062	0.146100
577.530059	0.146259
577.742039	0.146011
577.954000	0.146364
578.165942	0.146267
578.377867	0.146356
578.589773	0.146676
578.801661	0.146601
579.013531	0.147347
579.225382	0.147597
579.437216	0.147649
579.649031	0.147997
579.860828	0.148113
580.072606	0.148220
580.284367	0.148128
580.496109	0.147909
580.707833	0.148263
580.919539	0.148035
581.131227	0.148342
581.342896	0.148304
581.554547	0.148421
581.766180	0.148273
581.977795	0.148425
582.189391	0.148776
582.400969	0.149005
582.612529	0.149053
582.824071	0.149542
583.035595	0.149691
583.247100	0.149675
583.458587	0.149659
583.670056	0.149846
583.881506	0.150055
584.092939	0.150087
584.304353	0.150608
584.515749	0.150816
584.727127	0.150449
584.938486	0.150221
585.149828	0.150500
585.361151	0.150529
585.572456	0.150729
585.783742	0.150932
585.995011	0.151264
586.206261	0.151252
586.417493	0.151437
586.628706	0.151886
586.839902	0.152248
587.051079	0.152573
587.262238	0.152812
587.473379	0.152970
587.684502	0.152897
587.895606	0.152907
588.106692	0.152891
588.317760	0.152998
588.528810	0.153181
588.739841	0.153483
588.950855	0.153345
589.161850	0.153672
589.372827	0.153765
589.583785	0.153727
589.794726	0.153677
590.005648	0.153948
590.216552	0.153667
590.427437	0.153671
590.638305	0.153526
590.849154	0.153688
591.059985	0.153524
591.270798	0.153813
591.481592	0.154331
591.692369	0.154686
591.903127	0.154620
592.113867	0.154840
592.324588	0.155038
592.535292	0.155209
592.745977	0.155646
592.956644	0.155936
593.167293	0.156020
593.377923	0.155769
593.588536	0.155808
593.799130	0.155996
594.009706	0.156032
594.220263	0.156211
594.430803	0.156174
594.641324	0.156191
594.851827	0.156290
595.062312	0.156418
595.272778	0.156740
595.483227	0.157376
595.693657	0.157608
595.904069	0.158142
596.114462	0.158343
596.324838	0.158678
596.535195	0.159037
596.745534	0.158965
596.955855	0.158784
597.166157	0.158995
597.376441	0.158393
597.586707	0.158674
597.796955	0.158597
598.007185	0.158505
598.217396	0.158172
598.427589	0.157922
598.637764	0.158524
598.847921	0.158710
599.058060	0.158466
599.268180	0.158776
599.478282	0.158384
599.688366	0.158589
599.898431	0.158967
600.108479	0.159141
600.318508	0.159389
600.528519	0.158924
600.738511	0.159188
600.948486	0.159631
601.158442	0.159529
601.368380	0.159796
601.578300	0.159987
601.788202	0.159579
601.998085	0.160095
602.207950	0.160022
602.417797	0.160228
602.627626	0.160370
602.837436	0.160290
603.047228	0.160554
603.257002	0.160768
603.466758	0.160635
603.676496	0.160936
603.886215	0.161143
604.095916	0.161127
604.305599	0.161363
604.515264	0.161258
604.724910	0.161490
604.934538	0.161696
605.144148	0.161859
605.353740	0.161940
605.563314	0.162282
605.772869	0.162143
605.982406	0.162529
606.191925	0.162799
606.401425	0.163093
606.610908	0.163243
606.820372	0.163296
607.029818	0.163420
607.239246	0.163466
607.448655	0.163149
607.658047	0.163301
607.867420	0.163254
608.076775	0.163271
608.286111	0.163094
608.495430	0.162695
608.704730	0.162575
608.914012	0.162479
609.123275	0.162607
609.332521	0.162835
609.541748	0.162760
609.750957	0.162955
609.960148	0.163425
610.169321	0.163669
610.378475	0.164320
610.587611	0.164588
610.796729	0.164685
611.005829	0.164759
611.214910	0.164874
611.423974	0.165269
611.633019	0.165296
611.842045	0.165043
612.051054	0.165151
612.260044	0.165100
612.469017	0.165320
612.677970	0.165330
612.886906	0.165424
613.095824	0.165350
613.304723	0.165309
613.513604	0.165339
613.722467	0.165545
613.931311	0.165912
614.140138	0.165904
614.348946	0.165976
614.557736	0.166235
614.766507	0.166539
614.975261	0.167057
615.183996	0.167071
615.392713	0.167281
615.601412	0.167157
615.810092	0.167222
616.018754	0.167512
616.227399	0.167377
616.436024	0.167660
616.644632	0.167581
616.853222	0.167365
617.061793	0.167476
617.270346	0.167493
617.478880	0.167477
617.687397	0.167453
617.895895	0.167310
618.104375	0.167489
618.312837	0.167453
618.521281	0.167818
618.729706	0.168016
618.938113	0.168180
619.146502	0.168194
619.354873	0.168400
619.563226	0.168157
619.771560	0.168503
619.979876	0.168517
620.188174	0.168592
620.396453	0.168312
620.604715	0.168400
620.812958	0.168442
621.021183	0.168621
621.229390	0.168624
621.437578	0.169099
621.645748	0.169029
621.853900	0.169234
622.062034	0.169450
622.270150	0.169802
622.478247	0.169839
622.686326	0.169763
622.894387	0.169892
623.102430	0.170151
623.310454	0.170194
623.518461	0.170429
623.726449	0.170573
623.934418	0.170601
624.142370	0.170785
624.350303	0.170898
624.558218	0.170962
624.766115	0.170866
624.973994	0.170713
625.181855	0.170595
625.389697	0.170851
625.597521	0.170694
625.805327	0.170718
626.013114	0.170639
626.220883	0.170722
626.428634	0.170919
626.636367	0.171410
626.844082	0.171623
627.051778	0.171985
627.259457	0.171970
627.467117	0.172256
627.674758	0.172320
627.882382	0.172457
628.089987	0.172597
628.297574	0.172776
628.505143	0.172628
628.712694	0.173023
628.920226	0.172867
629.127740	0.172568
629.335236	0.172407
629.542714	0.172679
629.750174	0.172961
629.957615	0.173151
630.165038	0.173158
630.372443	0.173142
630.579829	0.172814
630.787198	0.172766
630.994548	0.172986
631.201880	0.173158
631.409194	0.173119
631.616489	0.173021
631.823766	0.172963
632.031025	0.173154
632.238266	0.173318
632.445489	0.173666
632.652693	0.174042
632.859879	0.174288
633.067047	0.174614
633.274197	0.174734
633.481329	0.174872
633.688442	0.174936
633.895537	0.175010
634.102614	0.175250
634.309672	0.175198
634.516713	0.175210
634.723735	0.175135
634.930739	0.175127
635.137724	0.175092
635.344692	0.175267
635.551641	0.175328
635.758572	0.175429
635.965485	0.175352
636.172379	0.175595
636.379256	0.175775
636.586114	0.176034
636.792954	0.176242
636.999775	0.176610
637.206579	0.176629
637.413364	0.176766
637.620131	0.176827
637.826880	0.176924
638.033610	0.177267
638.240323	0.177414
638.447017	0.177339
638.653692	0.177284
638.860350	0.177208
639.066990	0.177337
639.273611	0.177504
639.480214	0.177619
639.686798	0.177739
639.893365	0.177563
640.099913	0.177465
640.306443	0.177647
640.512955	0.177717
640.719449	0.177900
640.925924	0.177851
641.132381	0.178027
641.338820	0.178034
641.545241	0.178311
641.751644	0.178321
641.958028	0.178546
642.164394	0.178659
642.370742	0.179123
642.577071	0.179114
642.783383	0.179457
642.989676	0.179634
643.195951	0.179865
643.402207	0.179992
643.608446	0.180235
643.814666	0.180538
644.020868	0.180692
644.227052	0.180597
644.433218	0.180715
644.639365	0.180696
644.845494	0.180718
645.051605	0.180795
645.257698	0.180663
645.463772	0.180723
645.669828	0.180779
645.875866	0.180989
646.081886	0.181057
646.287888	0.181413
646.493871	0.181570
646.699836	0.181758
646.905783	0.181910
647.111712	0.182095
647.317622	0.182235
647.523514	0.182193
647.729388	0.182223
647.935244	0.182266
648.141082	0.182054
648.346901	0.182112
648.552702	0.182291
648.758485	0.182239
648.964250	0.182334
649.169996	0.182354
649.375724	0.182596
649.581434	0.182736
649.787126	0.182919
649.992800	0.183054
650.198455	0.183201
650.404092	0.183364
650.609711	0.183572
650.815311	0.183603
651.020894	0.183873
651.226458	0.183737
651.432004	0.183837
651.637532	0.183776
651.843041	0.183977
652.048532	0.183776
652.254006	0.183673
652.459460	0.183787
652.664897	0.184115
652.870315	0.184241
653.075716	0.184288
653.281097	0.184486
653.486461	0.184754
653.691807	0.184862
653.897134	0.185183
654.102443	0.185251
654.307734	0.185504
654.513006	0.185493
654.718261	0.185373
654.923497	0.185629
655.128715	0.185474
655.333915	0.185404
655.539096	0.185724
655.744259	0.185747
655.949404	0.185708
656.154531	0.185775
656.359640	0.186017
656.564730	0.186278
656.769802	0.186277
656.974856	0.186485
657.179892	0.186992
657.384909	0.186958
657.589908	0.187259
657.794889	0.187774
657.999852	0.187705
658.204797	0.187649
658.409723	0.187828
658.614631	0.188155
658.819521	0.188403
659.024393	0.188373
659.229246	0.188298
659.434081	0.188357
659.638898	0.188445
659.843697	0.188796
660.048478	0.189113
660.253240	0.189092
660.457984	0.189385
660.662710	0.189474
660.867417	0.189573
661.072107	0.189845
661.276778	0.190048
661.481431	0.189966
661.686066	0.189929
661.890682	0.189998
662.095281	0.190328
662.299861	0.190280
662.504422	0.190266
662.708966	0.190355
662.913491	0.190355
663.117999	0.190199
663.322488	0.190255
663.526958	0.190518
663.731411	0.190579
663.935845	0.190523
664.140261	0.190504
664.344659	0.190643
664.549038	0.190811
664.753400	0.191075
664.957743	0.191384
665.162068	0.191624
665.366375	0.191624
665.570663	0.191683
665.774933	0.191959
665.979185	0.192213
666.183419	0.192235
666.387635	0.192373
666.591832	0.192462
666.796011	0.192717
667.000172	0.192863
667.204315	0.193057
667.408439	0.193282
667.612545	0.193475
667.816634	0.193466
668.020703	0.193822
668.224755	0.193936
668.428788	0.193962
668.632803	0.194035
668.836800	0.193930
669.040779	0.193896
669.244739	0.193981
669.448681	0.193996
669.652605	0.194200
669.856511	0.194463
670.060399	0.194553
670.264268	0.194843
670.468119	0.194821
670.671952	0.195351
670.875767	0.195528
671.079563	0.195754
671.283341	0.195858
671.487101	0.196125
671.690843	0.195976
671.894567	0.196122
672.098272	0.196277
672.301959	0.196509
672.505628	0.196506
672.709278	0.196883
672.912911	0.196973
673.116525	0.197124
673.320121	0.197019
673.523699	0.197448
673.727258	0.197603
673.930799	0.197756
674.134322	0.197944
674.337827	0.197910
674.541314	0.197699
674.744782	0.197666
674.948232	0.197643
675.151664	0.197887
675.355078	0.197807
675.558474	0.197784
675.761851	0.197719
675.965210	0.197642
676.168551	0.197704
676.371873	0.197966
676.575178	0.198267
676.778464	0.198372
676.981732	0.198266
677.184981	0.198072
677.388213	0.198218
677.591426	0.198373
677.794621	0.198589
677.997798	0.198844
678.200956	0.198800
678.404097	0.198743
678.607219	0.199034
678.810323	0.199440
679.013408	0.199819
679.216476	0.200244
679.419525	0.200331
679.622556	0.200371
679.825569	0.200530
680.028563	0.200891
680.231540	0.201241
680.434498	0.201234
680.637438	0.201403
680.840359	0.201530
681.043263	0.201349
681.246148	0.201384
681.449015	0.201430
681.651864	0.201689
681.854694	0.201532
682.057506	0.201617
682.260301	0.201900
682.463076	0.201828
682.665834	0.202062
682.868573	0.202423
683.071295	0.202691
683.273998	0.202927
683.476682	0.203095
683.679349	0.203193
683.881997	0.203321
684.084627	0.203299
684.287239	0.203293
684.489833	0.203373
684.692408	0.203231
684.894965	0.203378
685.097504	0.203704
685.300025	0.203612
685.502527	0.204032
685.705012	0.203969
685.907478	0.203922
686.109925	0.204202
686.312355	0.204212
686.514766	0.204471
686.717159	0.204693
686.919534	0.204677
687.121891	0.204782
687.324230	0.204679
687.526550	0.204767
687.728852	0.205059
687.931136	0.204912
688.133401	0.205128
688.335649	0.205198
688.537878	0.205051
688.740089	0.205138
688.942281	0.205125
689.144456	0.205363
689.346612	0.205494
689.548750	0.205416
689.750870	0.205750
689.952971	0.205646
690.155055	0.205643
690.357120	0.205912
690.559167	0.206094
690.761195	0.206241
690.963206	0.206290
691.165198	0.206207
691.367172	0.206410
691.569128	0.206490
691.771065	0.206835
691.972984	0.207071
692.174885	0.207206
692.376768	0.207082
692.578633	0.207213
692.780479	0.207335
692.982308	0.207670
693.184118	0.207642
693.385909	0.207791
693.587683	0.207715
693.789438	0.207915
693.991175	0.207976
