sample name	sample
index	933
start time	 04-12-2021  12:33:20 PM


Wavelength (nm)	Absorbance
494.344910	-0.725266
494.563924	-0.725266
494.782919	-0.725266
495.001897	NaN
495.220856	-0.079003
495.439797	0.263162
495.658719	-0.083286
495.877624	0.117193
496.096510	-0.129608
496.315378	-0.169481
496.534227	-0.293428
496.753059	-0.224342
496.971872	0.122222
497.190667	0.109438
497.409444	0.113175
497.628203	0.116381
497.846943	0.116059
498.065665	0.116821
498.284369	0.115243
498.503055	0.113971
498.721723	0.113542
498.940372	0.112557
499.159003	0.112696
499.377616	0.112607
499.596210	0.113073
499.814787	0.113721
500.033345	0.113363
500.251885	0.114118
500.470406	0.115681
500.688910	0.116007
500.907395	0.116035
501.125862	0.116477
501.344311	0.116667
501.562742	0.116204
501.781154	0.116218
501.999548	0.116231
502.217924	0.116699
502.436282	0.116630
502.654621	0.117236
502.872942	0.118724
503.091245	0.119455
503.309530	0.119108
503.527797	0.119408
503.746045	0.119061
503.964275	0.118819
504.182487	0.118903
504.400681	0.118801
504.618856	0.119266
504.837013	0.118156
505.055152	0.117499
505.273273	0.117139
505.491376	0.116829
505.709460	0.116686
505.927526	0.118101
506.145574	0.117963
506.363604	0.118505
506.581615	0.118007
506.799608	0.118646
507.017583	0.119133
507.235540	0.120074
507.453478	0.120398
507.671399	0.119977
507.889301	0.119776
508.107185	0.120637
508.325050	0.120664
508.542898	0.120807
508.760727	0.121176
508.978538	0.121477
509.196330	0.121037
509.414105	0.122167
509.631861	0.122781
509.849599	0.121496
510.067319	0.120732
510.285021	0.120485
510.502704	0.120773
510.720369	0.120833
510.938016	0.120771
511.155645	0.120940
511.373255	0.120884
511.590848	0.121166
511.808422	0.122663
512.025977	0.123111
512.243515	0.122819
512.461034	0.123637
512.678536	0.124389
512.896018	0.124278
513.113483	0.125016
513.330930	0.124698
513.548358	0.124732
513.765768	0.124613
513.983160	0.124524
514.200533	0.125317
514.417889	0.124628
514.635226	0.124461
514.852545	0.124373
515.069845	0.123977
515.287128	0.124408
515.504392	0.124699
515.721638	0.125198
515.938866	0.125995
516.156075	0.125736
516.373267	0.125870
516.590440	0.125850
516.807594	0.126787
517.024731	0.126938
517.241850	0.126821
517.458950	0.127191
517.676032	0.126736
517.893095	0.127077
518.110141	0.127694
518.327168	0.127742
518.544177	0.128186
518.761168	0.128202
518.978141	0.128881
519.195095	0.129408
519.412031	0.129723
519.628949	0.129758
519.845849	0.129993
520.062731	0.129860
520.279594	0.130386
520.496439	0.130550
520.713266	0.130705
520.930074	0.131148
521.146865	0.131614
521.363637	0.132598
521.580391	0.133559
521.797127	0.132873
522.013844	0.133357
522.230543	0.133780
522.447224	0.134271
522.663887	0.135033
522.880532	0.136181
523.097158	0.136302
523.313766	0.136015
523.530356	0.136048
523.746928	0.136847
523.963481	0.137429
524.180017	0.137793
524.396534	0.137497
524.613032	0.137504
524.829513	0.137050
525.045975	0.137653
525.262420	0.137926
525.478845	0.138390
525.695253	0.138889
525.911643	0.139085
526.128014	0.139459
526.344367	0.140418
526.560702	0.140856
526.777018	0.140544
526.993316	0.140724
527.209597	0.140699
527.425858	0.140744
527.642102	0.141169
527.858328	0.141737
528.074535	0.142269
528.290724	0.142377
528.506894	0.142321
528.723047	0.142984
528.939181	0.143637
529.155297	0.144142
529.371395	0.144883
529.587475	0.145009
529.803536	0.145273
530.019579	0.145847
530.235604	0.146035
530.451611	0.146588
530.667600	0.146611
530.883570	0.146252
531.099522	0.146325
531.315456	0.146202
531.531372	0.146502
531.747269	0.147166
531.963148	0.147196
532.179009	0.147741
532.394852	0.148033
532.610676	0.148659
532.826482	0.149371
533.042271	0.150236
533.258040	0.150570
533.473792	0.151211
533.689525	0.151003
533.905240	0.151405
534.120937	0.151137
534.336616	0.151364
534.552277	0.151805
534.767919	0.152364
534.983543	0.152211
535.199149	0.152824
535.414736	0.152840
535.630306	0.152946
535.845857	0.153014
536.061390	0.153674
536.276904	0.153616
536.492401	0.154364
536.707879	0.154587
536.923339	0.155519
537.138781	0.155438
537.354204	0.155967
537.569610	0.156352
537.784997	0.156538
538.000366	0.156990
538.215716	0.157845
538.431049	0.158053
538.646363	0.158029
538.861659	0.157970
539.076937	0.158671
539.292196	0.159439
539.507438	0.159789
539.722661	0.160011
539.937866	0.160423
540.153052	0.161152
540.368221	0.161133
540.583371	0.160974
540.798503	0.161660
541.013617	0.161827
541.228712	0.161629
541.443789	0.161591
541.658848	0.162223
541.873889	0.162314
542.088912	0.161957
542.303916	0.161901
542.518902	0.162464
542.733870	0.162422
542.948820	0.162726
543.163752	0.163017
543.378665	0.163805
543.593560	0.164021
543.808437	0.164394
544.023295	0.164629
544.238136	0.165509
544.452958	0.166222
544.667762	0.166037
544.882548	0.166124
545.097315	0.166472
545.312064	0.166571
545.526795	0.166611
545.741508	0.166463
545.956203	0.166945
546.170879	0.167219
546.385537	0.167338
546.600177	0.167902
546.814799	0.168517
547.029402	0.168719
547.243988	0.168860
547.458555	0.169555
547.673103	0.170411
547.887634	0.170004
548.102146	0.169844
548.316640	0.169978
548.531116	0.170222
548.745574	0.170504
548.960013	0.171020
549.174435	0.171538
549.388838	0.171152
549.603222	0.171185
549.817589	0.171808
550.031937	0.172392
550.246267	0.172811
550.460579	0.173111
550.674873	0.173337
550.889148	0.173115
551.103405	0.173421
551.317644	0.174042
551.531865	0.174017
551.746068	0.174649
551.960252	0.174904
552.174418	0.174616
552.388566	0.174884
552.602696	0.174862
552.816807	0.175528
553.030900	0.175911
553.244975	0.175705
553.459032	0.175925
553.673070	0.176113
553.887091	0.175712
554.101093	0.176072
554.315077	0.176131
554.529042	0.176659
554.742990	0.176542
554.956919	0.176353
555.170830	0.176934
555.384722	0.177275
555.598597	0.177142
555.812453	0.177419
556.026291	0.177640
556.240111	0.178074
556.453913	0.177708
556.667696	0.177711
556.881461	0.177854
557.095208	0.177965
557.308937	0.178026
557.522647	0.178421
557.736339	0.178767
557.950013	0.178949
558.163669	0.178754
558.377307	0.179006
558.590926	0.179069
558.804527	0.179314
559.018110	0.179385
559.231675	0.179825
559.445221	0.179367
559.658749	0.179360
559.872259	0.179611
560.085751	0.179860
560.299225	0.180514
560.512680	0.180965
560.726117	0.181080
560.939536	0.181374
561.152937	0.181365
561.366319	0.182125
561.579683	0.182596
561.793029	0.182831
562.006357	0.182976
562.219667	0.183003
562.432958	0.183255
562.646231	0.183397
562.859486	0.183569
563.072723	0.184056
563.285941	0.183834
563.499141	0.184429
563.712323	0.184650
563.925487	0.185368
564.138632	0.185644
564.351760	0.185543
564.564869	0.185809
564.777960	0.185654
564.991032	0.185796
565.204087	0.186070
565.417123	0.185901
565.630141	0.186012
565.843140	0.186142
566.056122	0.185760
566.269085	0.186177
566.482030	0.186192
566.694957	0.186143
566.907866	0.186545
567.120756	0.186956
567.333628	0.186920
567.546482	0.186936
567.759318	0.186521
567.972135	0.187208
568.184935	0.187096
568.397716	0.187203
568.610478	0.187704
568.823223	0.187236
569.035949	0.187019
569.248657	0.186979
569.461347	0.187105
569.674019	0.187407
569.886672	0.186893
570.099308	0.186940
570.311925	0.186969
570.524523	0.186941
570.737104	0.187352
570.949666	0.187675
571.162210	0.188077
571.374736	0.188000
571.587244	0.188297
571.799733	0.188749
572.012205	0.188624
572.224658	0.188634
572.437092	0.188759
572.649509	0.188809
572.861907	0.188741
573.074287	0.188746
573.286649	0.189133
573.498993	0.188879
573.711318	0.188844
573.923625	0.189859
574.135914	0.190597
574.348185	0.191031
574.560438	0.191195
574.772672	0.191715
574.984888	0.191910
575.197086	0.192287
575.409266	0.192553
575.621427	0.193203
575.833570	0.192850
576.045695	0.192910
576.257802	0.192830
576.469890	0.192815
576.681961	0.193084
576.894013	0.193192
577.106046	0.193507
577.318062	0.193690
577.530059	0.193612
577.742039	0.193807
577.954000	0.193937
578.165942	0.194290
578.377867	0.194473
578.589773	0.194070
578.801661	0.194233
579.013531	0.194151
579.225382	0.194499
579.437216	0.194270
579.649031	0.194308
579.860828	0.194422
580.072606	0.194092
580.284367	0.194263
580.496109	0.194812
580.707833	0.194909
580.919539	0.194977
581.131227	0.195087
581.342896	0.195526
581.554547	0.195513
581.766180	0.195320
581.977795	0.196222
582.189391	0.196439
582.400969	0.196319
582.612529	0.196581
582.824071	0.196638
583.035595	0.196635
583.247100	0.196853
583.458587	0.197287
583.670056	0.197885
583.881506	0.197477
584.092939	0.197649
584.304353	0.198046
584.515749	0.198267
584.727127	0.198362
584.938486	0.198993
585.149828	0.199343
585.361151	0.199399
585.572456	0.199293
585.783742	0.199518
585.995011	0.199695
586.206261	0.200043
586.417493	0.199672
586.628706	0.200230
586.839902	0.199911
587.051079	0.199782
587.262238	0.200075
587.473379	0.200376
587.684502	0.200773
587.895606	0.200816
588.106692	0.200580
588.317760	0.201145
588.528810	0.201345
588.739841	0.201433
588.950855	0.201632
589.161850	0.201793
589.372827	0.201568
589.583785	0.201630
589.794726	0.202003
590.005648	0.202300
590.216552	0.202600
590.427437	0.202436
590.638305	0.203121
590.849154	0.203095
591.059985	0.203468
591.270798	0.203783
591.481592	0.203955
591.692369	0.204097
591.903127	0.204469
592.113867	0.204693
592.324588	0.204753
592.535292	0.204618
592.745977	0.204956
592.956644	0.205156
593.167293	0.205369
593.377923	0.205524
593.588536	0.205469
593.799130	0.205288
594.009706	0.205515
594.220263	0.205603
594.430803	0.205869
594.641324	0.205792
594.851827	0.205679
595.062312	0.205834
595.272778	0.205656
595.483227	0.205541
595.693657	0.205794
595.904069	0.205408
596.114462	0.206116
596.324838	0.205928
596.535195	0.206465
596.745534	0.206600
596.955855	0.206858
597.166157	0.206817
597.376441	0.207283
597.586707	0.207693
597.796955	0.208045
598.007185	0.207966
598.217396	0.208269
598.427589	0.208587
598.637764	0.208799
598.847921	0.208813
599.058060	0.209562
599.268180	0.209656
599.478282	0.209658
599.688366	0.209716
599.898431	0.209373
600.108479	0.209806
600.318508	0.209808
600.528519	0.209575
600.738511	0.209844
600.948486	0.209991
601.158442	0.210196
601.368380	0.210434
601.578300	0.210609
601.788202	0.210965
601.998085	0.211050
602.207950	0.211233
602.417797	0.211576
602.627626	0.211816
602.837436	0.211955
603.047228	0.212114
603.257002	0.211969
603.466758	0.212329
603.676496	0.212491
603.886215	0.212323
604.095916	0.212334
604.305599	0.212672
604.515264	0.212800
604.724910	0.213036
604.934538	0.213170
605.144148	0.213467
605.353740	0.213348
605.563314	0.213636
605.772869	0.213877
605.982406	0.213908
606.191925	0.213691
606.401425	0.213912
606.610908	0.213962
606.820372	0.213936
607.029818	0.214048
607.239246	0.214307
607.448655	0.214267
607.658047	0.214242
607.867420	0.214182
608.076775	0.214623
608.286111	0.214503
608.495430	0.214216
608.704730	0.214671
608.914012	0.214674
609.123275	0.214719
609.332521	0.214837
609.541748	0.215149
609.750957	0.215507
609.960148	0.215862
610.169321	0.216066
610.378475	0.216717
610.587611	0.216716
610.796729	0.217141
611.005829	0.217436
611.214910	0.217654
611.423974	0.217898
611.633019	0.217716
611.842045	0.217513
612.051054	0.217573
612.260044	0.217516
612.469017	0.217405
612.677970	0.217304
612.886906	0.217700
613.095824	0.217727
613.304723	0.217660
613.513604	0.218165
613.722467	0.218395
613.931311	0.218343
614.140138	0.218451
614.348946	0.218812
614.557736	0.219006
614.766507	0.218706
614.975261	0.218884
615.183996	0.218985
615.392713	0.218935
615.601412	0.218860
615.810092	0.219344
616.018754	0.219541
616.227399	0.219768
616.436024	0.219639
616.644632	0.220099
616.853222	0.220126
617.061793	0.220396
617.270346	0.220477
617.478880	0.220587
617.687397	0.220572
617.895895	0.220375
618.104375	0.220139
618.312837	0.220356
618.521281	0.220221
618.729706	0.220343
618.938113	0.220637
619.146502	0.221090
619.354873	0.221252
619.563226	0.221411
619.771560	0.221703
619.979876	0.222019
620.188174	0.222160
620.396453	0.222030
620.604715	0.222390
620.812958	0.222236
621.021183	0.222270
621.229390	0.222529
621.437578	0.222781
621.645748	0.222960
621.853900	0.222669
622.062034	0.223070
622.270150	0.223389
622.478247	0.223485
622.686326	0.223744
622.894387	0.223632
623.102430	0.223866
623.310454	0.223803
623.518461	0.223992
623.726449	0.224888
623.934418	0.225012
624.142370	0.225327
624.350303	0.225452
624.558218	0.225513
624.766115	0.225590
624.973994	0.225648
625.181855	0.225827
625.389697	0.225888
625.597521	0.225837
625.805327	0.226006
626.013114	0.225894
626.220883	0.226203
626.428634	0.226522
626.636367	0.226896
626.844082	0.227167
627.051778	0.227471
627.259457	0.227886
627.467117	0.227972
627.674758	0.227822
627.882382	0.228389
628.089987	0.228227
628.297574	0.228448
628.505143	0.228434
628.712694	0.228831
628.920226	0.228754
629.127740	0.228689
629.335236	0.228701
629.542714	0.229248
629.750174	0.229143
629.957615	0.229490
630.165038	0.229331
630.372443	0.229557
630.579829	0.229308
630.787198	0.229831
630.994548	0.229784
631.201880	0.230066
631.409194	0.229853
631.616489	0.230081
631.823766	0.230308
632.031025	0.230439
632.238266	0.230577
632.445489	0.230892
632.652693	0.230705
632.859879	0.231120
633.067047	0.231272
633.274197	0.231699
633.481329	0.231453
633.688442	0.231722
633.895537	0.231860
634.102614	0.231811
634.309672	0.231919
634.516713	0.232044
634.723735	0.232438
634.930739	0.232519
635.137724	0.232514
635.344692	0.232781
635.551641	0.232720
635.758572	0.232800
635.965485	0.233024
636.172379	0.232996
636.379256	0.233276
636.586114	0.233253
636.792954	0.233395
636.999775	0.233404
637.206579	0.233964
637.413364	0.233966
637.620131	0.234129
637.826880	0.234454
638.033610	0.234683
638.240323	0.234739
638.447017	0.235039
638.653692	0.235084
638.860350	0.235243
639.066990	0.235286
639.273611	0.235666
639.480214	0.235972
639.686798	0.235962
639.893365	0.236109
640.099913	0.236191
640.306443	0.235991
640.512955	0.236211
640.719449	0.236537
640.925924	0.236605
641.132381	0.236864
641.338820	0.237224
641.545241	0.237535
641.751644	0.237818
641.958028	0.238036
642.164394	0.238217
642.370742	0.238162
642.577071	0.238386
642.783383	0.238574
642.989676	0.238605
643.195951	0.238717
643.402207	0.238947
643.608446	0.238983
643.814666	0.239065
644.020868	0.239255
644.227052	0.239747
644.433218	0.239968
644.639365	0.240197
644.845494	0.240461
645.051605	0.240345
645.257698	0.240718
645.463772	0.241030
645.669828	0.241460
645.875866	0.242005
646.081886	0.242093
646.287888	0.242168
646.493871	0.242306
646.699836	0.242210
646.905783	0.242681
647.111712	0.242534
647.317622	0.242629
647.523514	0.242781
647.729388	0.242714
647.935244	0.242774
648.141082	0.242996
648.346901	0.243344
648.552702	0.243600
648.758485	0.243609
648.964250	0.243918
649.169996	0.244111
649.375724	0.244288
649.581434	0.244525
649.787126	0.244881
649.992800	0.244991
650.198455	0.245092
650.404092	0.245437
650.609711	0.245663
650.815311	0.245685
651.020894	0.246145
651.226458	0.246157
651.432004	0.246422
651.637532	0.246550
651.843041	0.246854
652.048532	0.247166
652.254006	0.247344
652.459460	0.247682
652.664897	0.247857
652.870315	0.248002
653.075716	0.248341
653.281097	0.248438
653.486461	0.248639
653.691807	0.248756
653.897134	0.248857
654.102443	0.249035
654.307734	0.249094
654.513006	0.249372
654.718261	0.249226
654.923497	0.249389
655.128715	0.249468
655.333915	0.249762
655.539096	0.250003
655.744259	0.250051
655.949404	0.250282
656.154531	0.250477
656.359640	0.250649
656.564730	0.251119
656.769802	0.251334
656.974856	0.251745
657.179892	0.251818
657.384909	0.252025
657.589908	0.252149
657.794889	0.252214
657.999852	0.252454
658.204797	0.252803
658.409723	0.253083
658.614631	0.253249
658.819521	0.253385
659.024393	0.253815
659.229246	0.253865
659.434081	0.254438
659.638898	0.254767
659.843697	0.254819
660.048478	0.254921
660.253240	0.254677
660.457984	0.254936
660.662710	0.254896
660.867417	0.254880
661.072107	0.255290
661.276778	0.255094
661.481431	0.255104
661.686066	0.255181
661.890682	0.255525
662.095281	0.255854
662.299861	0.256136
662.504422	0.256534
662.708966	0.256694
662.913491	0.256514
663.117999	0.257034
663.322488	0.257292
663.526958	0.257527
663.731411	0.257517
663.935845	0.257891
664.140261	0.257915
664.344659	0.258009
664.549038	0.258544
664.753400	0.259016
664.957743	0.259126
665.162068	0.259713
665.366375	0.260508
665.570663	0.260928
665.774933	0.261088
665.979185	0.261255
666.183419	0.261747
666.387635	0.261869
666.591832	0.262036
666.796011	0.262188
667.000172	0.262175
667.204315	0.262293
667.408439	0.262550
667.612545	0.262859
667.816634	0.263175
668.020703	0.263144
668.224755	0.263271
668.428788	0.263512
668.632803	0.263886
668.836800	0.264027
669.040779	0.263989
669.244739	0.264130
669.448681	0.264460
669.652605	0.264696
669.856511	0.264934
670.060399	0.265199
670.264268	0.265356
670.468119	0.265554
670.671952	0.265724
670.875767	0.266218
671.079563	0.266350
671.283341	0.266202
671.487101	0.266741
671.690843	0.267145
671.894567	0.267110
672.098272	0.267469
672.301959	0.267779
672.505628	0.268102
672.709278	0.268162
672.912911	0.268722
673.116525	0.269099
673.320121	0.269238
673.523699	0.269372
673.727258	0.269917
673.930799	0.270292
674.134322	0.270428
674.337827	0.270362
674.541314	0.270479
674.744782	0.270505
674.948232	0.270815
675.151664	0.271056
675.355078	0.271151
675.558474	0.271342
675.761851	0.271505
675.965210	0.271830
676.168551	0.272405
676.371873	0.272747
676.575178	0.272855
676.778464	0.273017
676.981732	0.272996
677.184981	0.273573
677.388213	0.273955
677.591426	0.274073
677.794621	0.274153
677.997798	0.274329
678.200956	0.274635
678.404097	0.274986
678.607219	0.275299
678.810323	0.275618
679.013408	0.275532
679.216476	0.275707
679.419525	0.275801
679.622556	0.276007
679.825569	0.276143
680.028563	0.276039
680.231540	0.276244
680.434498	0.276305
680.637438	0.276380
680.840359	0.276528
681.043263	0.276669
681.246148	0.277232
681.449015	0.277453
681.651864	0.277638
681.854694	0.278004
682.057506	0.278266
682.260301	0.278557
682.463076	0.278806
682.665834	0.279002
682.868573	0.278968
683.071295	0.279052
683.273998	0.279116
683.476682	0.279328
683.679349	0.279465
683.881997	0.279564
684.084627	0.279688
684.287239	0.279913
684.489833	0.280300
684.692408	0.280698
684.894965	0.280475
685.097504	0.281041
685.300025	0.281101
685.502527	0.281225
685.705012	0.281384
685.907478	0.281551
686.109925	0.281526
686.312355	0.281615
686.514766	0.281789
686.717159	0.282076
686.919534	0.281868
687.121891	0.282139
687.324230	0.282266
687.526550	0.282417
687.728852	0.282470
687.931136	0.282757
688.133401	0.282992
688.335649	0.283144
688.537878	0.283655
688.740089	0.283988
688.942281	0.284079
689.144456	0.284501
689.346612	0.284744
689.548750	0.285124
689.750870	0.285515
689.952971	0.285699
690.155055	0.285994
690.357120	0.286098
690.559167	0.286409
690.761195	0.286982
690.963206	0.287310
691.165198	0.287507
691.367172	0.287705
691.569128	0.287758
691.771065	0.288307
691.972984	0.288491
692.174885	0.288647
692.376768	0.288630
692.578633	0.288644
692.780479	0.288608
692.982308	0.288765
693.184118	0.289039
693.385909	0.289428
