sample name	sample
index	1512
start time	 05-18-2021  03:05:43 PM


Wavelength (nm)	Absorbance
494.344910	0.072692
494.563924	0.072692
494.782919	0.072692
495.001897	-0.275149
495.220856	-0.120930
495.439797	-0.027892
495.658719	-0.053979
495.877624	-0.069157
496.096510	0.029447
496.315378	0.065860
496.534227	0.194601
496.753059	0.160156
496.971872	0.381184
497.190667	0.193026
497.409444	0.180665
497.628203	0.185643
497.846943	0.187589
498.065665	0.185018
498.284369	0.184917
498.503055	0.184115
498.721723	0.185505
498.940372	0.185375
499.159003	0.184774
499.377616	0.186644
499.596210	0.185136
499.814787	0.184627
500.033345	0.183142
500.251885	0.183298
500.470406	0.183212
500.688910	0.181819
500.907395	0.182475
501.125862	0.184196
501.344311	0.183188
501.562742	0.183068
501.781154	0.182666
501.999548	0.185186
502.217924	0.185315
502.436282	0.185952
502.654621	0.187298
502.872942	0.187353
503.091245	0.186353
503.309530	0.185181
503.527797	0.185790
503.746045	0.186178
503.964275	0.186303
504.182487	0.186073
504.400681	0.185808
504.618856	0.185503
504.837013	0.184878
505.055152	0.186049
505.273273	0.187530
505.491376	0.187560
505.709460	0.187034
505.927526	0.187446
506.145574	0.187675
506.363604	0.187650
506.581615	0.187635
506.799608	0.188143
507.017583	0.189213
507.235540	0.189090
507.453478	0.189579
507.671399	0.190713
507.889301	0.191521
508.107185	0.191383
508.325050	0.192461
508.542898	0.192043
508.760727	0.191872
508.978538	0.189067
509.196330	0.189111
509.414105	0.189648
509.631861	0.190044
509.849599	0.188230
510.067319	0.188499
510.285021	0.188762
510.502704	0.188641
510.720369	0.188941
510.938016	0.190104
511.155645	0.189879
511.373255	0.189978
511.590848	0.190428
511.808422	0.191793
512.025977	0.192085
512.243515	0.192137
512.461034	0.193440
512.678536	0.194273
512.896018	0.193982
513.113483	0.194850
513.330930	0.194225
513.548358	0.194490
513.765768	0.194472
513.983160	0.193788
514.200533	0.193300
514.417889	0.192915
514.635226	0.192143
514.852545	0.194064
515.069845	0.194411
515.287128	0.194099
515.504392	0.193401
515.721638	0.192905
515.938866	0.194264
516.156075	0.195194
516.373267	0.196286
516.590440	0.196857
516.807594	0.196343
517.024731	0.196760
517.241850	0.198787
517.458950	0.198473
517.676032	0.199142
517.893095	0.198933
518.110141	0.198377
518.327168	0.197489
518.544177	0.197325
518.761168	0.196823
518.978141	0.196385
519.195095	0.195374
519.412031	0.196253
519.628949	0.196755
519.845849	0.196858
520.062731	0.197737
520.279594	0.199075
520.496439	0.199700
520.713266	0.200782
520.930074	0.200997
521.146865	0.201286
521.363637	0.201077
521.580391	0.200861
521.797127	0.201015
522.013844	0.201008
522.230543	0.200833
522.447224	0.201145
522.663887	0.201045
522.880532	0.201865
523.097158	0.202445
523.313766	0.203139
523.530356	0.203282
523.746928	0.203321
523.963481	0.202963
524.180017	0.202773
524.396534	0.203147
524.613032	0.203053
524.829513	0.202975
525.045975	0.203586
525.262420	0.202866
525.478845	0.203584
525.695253	0.204236
525.911643	0.204963
526.128014	0.205640
526.344367	0.205685
526.560702	0.206390
526.777018	0.206371
526.993316	0.206725
527.209597	0.207986
527.425858	0.208045
527.642102	0.208159
527.858328	0.209392
528.074535	0.209640
528.290724	0.210529
528.506894	0.210599
528.723047	0.211198
528.939181	0.211148
529.155297	0.211129
529.371395	0.211844
529.587475	0.211961
529.803536	0.210799
530.019579	0.210935
530.235604	0.210705
530.451611	0.210260
530.667600	0.210295
530.883570	0.210486
531.099522	0.210814
531.315456	0.210634
531.531372	0.210599
531.747269	0.211359
531.963148	0.211493
532.179009	0.211701
532.394852	0.212563
532.610676	0.212531
532.826482	0.212889
533.042271	0.213249
533.258040	0.213187
533.473792	0.214275
533.689525	0.214867
533.905240	0.215299
534.120937	0.215152
534.336616	0.216126
534.552277	0.216580
534.767919	0.216451
534.983543	0.217082
535.199149	0.217878
535.414736	0.218611
535.630306	0.218627
535.845857	0.218644
536.061390	0.219853
536.276904	0.219964
536.492401	0.220778
536.707879	0.221145
536.923339	0.221924
537.138781	0.222423
537.354204	0.222178
537.569610	0.222940
537.784997	0.224076
538.000366	0.224419
538.215716	0.224757
538.431049	0.224503
538.646363	0.224543
538.861659	0.224549
539.076937	0.224743
539.292196	0.225028
539.507438	0.224833
539.722661	0.224405
539.937866	0.223848
540.153052	0.223136
540.368221	0.223449
540.583371	0.224085
540.798503	0.224754
541.013617	0.224805
541.228712	0.224864
541.443789	0.224829
541.658848	0.225919
541.873889	0.226858
542.088912	0.227901
542.303916	0.228613
542.518902	0.229248
542.733870	0.228496
542.948820	0.228891
543.163752	0.228485
543.378665	0.228765
543.593560	0.228267
543.808437	0.228386
544.023295	0.228731
544.238136	0.228963
544.452958	0.228688
544.667762	0.228692
544.882548	0.228329
545.097315	0.229028
545.312064	0.229382
545.526795	0.229663
545.741508	0.229488
545.956203	0.229553
546.170879	0.229629
546.385537	0.230116
546.600177	0.230752
546.814799	0.231145
547.029402	0.230785
547.243988	0.231160
547.458555	0.231137
547.673103	0.231749
547.887634	0.231789
548.102146	0.232190
548.316640	0.232315
548.531116	0.231953
548.745574	0.232902
548.960013	0.233689
549.174435	0.234096
549.388838	0.234496
549.603222	0.234853
549.817589	0.235336
550.031937	0.235032
550.246267	0.235003
550.460579	0.235692
550.674873	0.234910
550.889148	0.234625
551.103405	0.234180
551.317644	0.234297
551.531865	0.234178
551.746068	0.234144
551.960252	0.234288
552.174418	0.234338
552.388566	0.234618
552.602696	0.235127
552.816807	0.236028
553.030900	0.236484
553.244975	0.236305
553.459032	0.236021
553.673070	0.235785
553.887091	0.236450
554.101093	0.237194
554.315077	0.236995
554.529042	0.237055
554.742990	0.236503
554.956919	0.236526
555.170830	0.237422
555.384722	0.237837
555.598597	0.238339
555.812453	0.238227
556.026291	0.238272
556.240111	0.238713
556.453913	0.239319
556.667696	0.239867
556.881461	0.240358
557.095208	0.240070
557.308937	0.240085
557.522647	0.239939
557.736339	0.239917
557.950013	0.239879
558.163669	0.239904
558.377307	0.239990
558.590926	0.240559
558.804527	0.240496
559.018110	0.240514
559.231675	0.241076
559.445221	0.241525
559.658749	0.242197
559.872259	0.242785
560.085751	0.243066
560.299225	0.242942
560.512680	0.242787
560.726117	0.243297
560.939536	0.244035
561.152937	0.243788
561.366319	0.243934
561.579683	0.243313
561.793029	0.243213
562.006357	0.243161
562.219667	0.243388
562.432958	0.243537
562.646231	0.242770
562.859486	0.241956
563.072723	0.242480
563.285941	0.242446
563.499141	0.242914
563.712323	0.242925
563.925487	0.243207
564.138632	0.242866
564.351760	0.242913
564.564869	0.243124
564.777960	0.243917
564.991032	0.243789
565.204087	0.243768
565.417123	0.244002
565.630141	0.243977
565.843140	0.244065
566.056122	0.244249
566.269085	0.243982
566.482030	0.244268
566.694957	0.244640
566.907866	0.244766
567.120756	0.245063
567.333628	0.244742
567.546482	0.244579
567.759318	0.244510
567.972135	0.245097
568.184935	0.245367
568.397716	0.245494
568.610478	0.245258
568.823223	0.245085
569.035949	0.245413
569.248657	0.245722
569.461347	0.246161
569.674019	0.246571
569.886672	0.246625
570.099308	0.247100
570.311925	0.247331
570.524523	0.247451
570.737104	0.248098
570.949666	0.247809
571.162210	0.248261
571.374736	0.248514
571.587244	0.248404
571.799733	0.248543
572.012205	0.248199
572.224658	0.248344
572.437092	0.248760
572.649509	0.248688
572.861907	0.249140
573.074287	0.249110
573.286649	0.249367
573.498993	0.249684
573.711318	0.249545
573.923625	0.250110
574.135914	0.250318
574.348185	0.250222
574.560438	0.250380
574.772672	0.250884
574.984888	0.250852
575.197086	0.250531
575.409266	0.250521
575.621427	0.250653
575.833570	0.250740
576.045695	0.250655
576.257802	0.250539
576.469890	0.250276
576.681961	0.250059
576.894013	0.250282
577.106046	0.250533
577.318062	0.250928
577.530059	0.251370
577.742039	0.251244
577.954000	0.251429
578.165942	0.251786
578.377867	0.252430
578.589773	0.252773
578.801661	0.252936
579.013531	0.253510
579.225382	0.253202
579.437216	0.253131
579.649031	0.253443
579.860828	0.253738
580.072606	0.253947
580.284367	0.253882
580.496109	0.253634
580.707833	0.253895
580.919539	0.253810
581.131227	0.254446
581.342896	0.254719
581.554547	0.254797
581.766180	0.255510
581.977795	0.255769
582.189391	0.256009
582.400969	0.256322
582.612529	0.256120
582.824071	0.256045
583.035595	0.255810
583.247100	0.255676
583.458587	0.256025
583.670056	0.255552
583.881506	0.255659
584.092939	0.256005
584.304353	0.256450
584.515749	0.256807
584.727127	0.256742
584.938486	0.256679
585.149828	0.256908
585.361151	0.257071
585.572456	0.257285
585.783742	0.256912
585.995011	0.256669
586.206261	0.256702
586.417493	0.256771
586.628706	0.257303
586.839902	0.257697
587.051079	0.257670
587.262238	0.257777
587.473379	0.257886
587.684502	0.258104
587.895606	0.258265
588.106692	0.257975
588.317760	0.258090
588.528810	0.257676
588.739841	0.257543
588.950855	0.257466
589.161850	0.257444
589.372827	0.257481
589.583785	0.257370
589.794726	0.257796
590.005648	0.258113
590.216552	0.258158
590.427437	0.258664
590.638305	0.258857
590.849154	0.259589
591.059985	0.259599
591.270798	0.259867
591.481592	0.260562
591.692369	0.260223
591.903127	0.260225
592.113867	0.260500
592.324588	0.260517
592.535292	0.260622
592.745977	0.260683
592.956644	0.261189
593.167293	0.261127
593.377923	0.261065
593.588536	0.261729
593.799130	0.261966
594.009706	0.261791
594.220263	0.261970
594.430803	0.262422
594.641324	0.262344
594.851827	0.262146
595.062312	0.262602
595.272778	0.262633
595.483227	0.262701
595.693657	0.263034
595.904069	0.263723
596.114462	0.263910
596.324838	0.264547
596.535195	0.265060
596.745534	0.265255
596.955855	0.265023
597.166157	0.265451
597.376441	0.265427
597.586707	0.265765
597.796955	0.265892
598.007185	0.266072
598.217396	0.265640
598.427589	0.265788
598.637764	0.266182
598.847921	0.266218
599.058060	0.266301
599.268180	0.266265
599.478282	0.265980
599.688366	0.265929
599.898431	0.266277
600.108479	0.266419
600.318508	0.266330
600.528519	0.266541
600.738511	0.267118
600.948486	0.267323
601.158442	0.267715
601.368380	0.267930
601.578300	0.267836
601.788202	0.267755
601.998085	0.268024
602.207950	0.268276
602.417797	0.268571
602.627626	0.268344
602.837436	0.268537
603.047228	0.268677
603.257002	0.268661
603.466758	0.269355
603.676496	0.269519
603.886215	0.269669
604.095916	0.269638
604.305599	0.269287
604.515264	0.269673
604.724910	0.269804
604.934538	0.270115
605.144148	0.270504
605.353740	0.270478
605.563314	0.270874
605.772869	0.270672
605.982406	0.270854
606.191925	0.271280
606.401425	0.271323
606.610908	0.271544
606.820372	0.271643
607.029818	0.271615
607.239246	0.271875
607.448655	0.272274
607.658047	0.273032
607.867420	0.273226
608.076775	0.273374
608.286111	0.273655
608.495430	0.273451
608.704730	0.273304
608.914012	0.273700
609.123275	0.273829
609.332521	0.273543
609.541748	0.273231
609.750957	0.273628
609.960148	0.273724
610.169321	0.273936
610.378475	0.274395
610.587611	0.274519
610.796729	0.274589
611.005829	0.274492
611.214910	0.274658
611.423974	0.274854
611.633019	0.274629
611.842045	0.274777
612.051054	0.275050
612.260044	0.274736
612.469017	0.274891
612.677970	0.275039
612.886906	0.275334
613.095824	0.275183
613.304723	0.275551
613.513604	0.275860
613.722467	0.275876
613.931311	0.276026
614.140138	0.276484
614.348946	0.276659
614.557736	0.276660
614.766507	0.276778
614.975261	0.277301
615.183996	0.277378
615.392713	0.277731
615.601412	0.278043
615.810092	0.278101
616.018754	0.278368
616.227399	0.278564
616.436024	0.278713
616.644632	0.279043
616.853222	0.279001
617.061793	0.279214
617.270346	0.279386
617.478880	0.279487
617.687397	0.279288
617.895895	0.279367
618.104375	0.279600
618.312837	0.279765
618.521281	0.279645
618.729706	0.280040
618.938113	0.280297
619.146502	0.280137
619.354873	0.280056
619.563226	0.280387
619.771560	0.280338
619.979876	0.280238
620.188174	0.280130
620.396453	0.280391
620.604715	0.280373
620.812958	0.280287
621.021183	0.280341
621.229390	0.280746
621.437578	0.280955
621.645748	0.281275
621.853900	0.281625
622.062034	0.282236
622.270150	0.282467
622.478247	0.282675
622.686326	0.283171
622.894387	0.283752
623.102430	0.284104
623.310454	0.284559
623.518461	0.284697
623.726449	0.284839
623.934418	0.284540
624.142370	0.284489
624.350303	0.284689
624.558218	0.284404
624.766115	0.284128
624.973994	0.284200
625.181855	0.284036
625.389697	0.284090
625.597521	0.284271
625.805327	0.284655
626.013114	0.285018
626.220883	0.285081
626.428634	0.285051
626.636367	0.285371
626.844082	0.285274
627.051778	0.285367
627.259457	0.285406
627.467117	0.285505
627.674758	0.285906
627.882382	0.285984
628.089987	0.286045
628.297574	0.286525
628.505143	0.286651
628.712694	0.287024
628.920226	0.287330
629.127740	0.287566
629.335236	0.287743
629.542714	0.287568
629.750174	0.287763
629.957615	0.287998
630.165038	0.287767
630.372443	0.287699
630.579829	0.287552
630.787198	0.287735
630.994548	0.287610
631.201880	0.287972
631.409194	0.288235
631.616489	0.288219
631.823766	0.288532
632.031025	0.288858
632.238266	0.289668
632.445489	0.290415
632.652693	0.290272
632.859879	0.290980
633.067047	0.291195
633.274197	0.291298
633.481329	0.291363
633.688442	0.291275
633.895537	0.291918
634.102614	0.291765
634.309672	0.291536
634.516713	0.291755
634.723735	0.291658
634.930739	0.291640
635.137724	0.291820
635.344692	0.291962
635.551641	0.292162
635.758572	0.292073
635.965485	0.292034
636.172379	0.291916
636.379256	0.292244
636.586114	0.292354
636.792954	0.292330
636.999775	0.292371
637.206579	0.292585
637.413364	0.292678
637.620131	0.293022
637.826880	0.293524
638.033610	0.294056
638.240323	0.294318
638.447017	0.294597
638.653692	0.294584
638.860350	0.294891
639.066990	0.295265
639.273611	0.295421
639.480214	0.295450
639.686798	0.295614
639.893365	0.295380
640.099913	0.295338
640.306443	0.295798
640.512955	0.296163
640.719449	0.296340
640.925924	0.296252
641.132381	0.296393
641.338820	0.296293
641.545241	0.296093
641.751644	0.296314
641.958028	0.296205
642.164394	0.296216
642.370742	0.296729
642.577071	0.297128
642.783383	0.297338
642.989676	0.297551
643.195951	0.297689
643.402207	0.297907
643.608446	0.298048
643.814666	0.298552
644.020868	0.298700
644.227052	0.298503
644.433218	0.298365
644.639365	0.298724
644.845494	0.299069
645.051605	0.299201
645.257698	0.299273
645.463772	0.299624
645.669828	0.299782
645.875866	0.299566
646.081886	0.299810
646.287888	0.299985
646.493871	0.299805
646.699836	0.299648
646.905783	0.299857
647.111712	0.300460
647.317622	0.300658
647.523514	0.300671
647.729388	0.300899
647.935244	0.300876
648.141082	0.301187
648.346901	0.301467
648.552702	0.301950
648.758485	0.302176
648.964250	0.301907
649.169996	0.301644
649.375724	0.301846
649.581434	0.302140
649.787126	0.302253
649.992800	0.302229
650.198455	0.302481
650.404092	0.302527
650.609711	0.302931
650.815311	0.303054
651.020894	0.303405
651.226458	0.303643
651.432004	0.303758
651.637532	0.303965
651.843041	0.304218
652.048532	0.304236
652.254006	0.304298
652.459460	0.304358
652.664897	0.304653
652.870315	0.304957
653.075716	0.305212
653.281097	0.305392
653.486461	0.305866
653.691807	0.305909
653.897134	0.306046
654.102443	0.306197
654.307734	0.306287
654.513006	0.306294
654.718261	0.306546
654.923497	0.306723
655.128715	0.306813
655.333915	0.307119
655.539096	0.307190
655.744259	0.307476
655.949404	0.307839
656.154531	0.308131
656.359640	0.308560
656.564730	0.308708
656.769802	0.308824
656.974856	0.309093
657.179892	0.308935
657.384909	0.309444
657.589908	0.309706
657.794889	0.309802
657.999852	0.309848
658.204797	0.310079
658.409723	0.310057
658.614631	0.310176
658.819521	0.310270
659.024393	0.310562
659.229246	0.310401
659.434081	0.310465
659.638898	0.310276
659.843697	0.310657
660.048478	0.310666
660.253240	0.311012
660.457984	0.311365
660.662710	0.311691
660.867417	0.311848
661.072107	0.312257
661.276778	0.312527
661.481431	0.313155
661.686066	0.313164
661.890682	0.313349
662.095281	0.313616
662.299861	0.313619
662.504422	0.313890
662.708966	0.314071
662.913491	0.314408
663.117999	0.314580
663.322488	0.314539
663.526958	0.314632
663.731411	0.314707
663.935845	0.314690
664.140261	0.314817
664.344659	0.314666
664.549038	0.314636
664.753400	0.314505
664.957743	0.314564
665.162068	0.314958
665.366375	0.314873
665.570663	0.315134
665.774933	0.315323
665.979185	0.315462
666.183419	0.315889
666.387635	0.316401
666.591832	0.316806
666.796011	0.317140
667.000172	0.317179
667.204315	0.317687
667.408439	0.317912
667.612545	0.318433
667.816634	0.318803
668.020703	0.319159
668.224755	0.319288
668.428788	0.319355
668.632803	0.319410
668.836800	0.319567
669.040779	0.319864
669.244739	0.320064
669.448681	0.320088
669.652605	0.320490
669.856511	0.320546
670.060399	0.320737
670.264268	0.321118
670.468119	0.321447
670.671952	0.321784
670.875767	0.321952
671.079563	0.322389
671.283341	0.322595
671.487101	0.322812
671.690843	0.322935
671.894567	0.322995
672.098272	0.323127
672.301959	0.323226
672.505628	0.323297
672.709278	0.323901
672.912911	0.323995
673.116525	0.324339
673.320121	0.324455
673.523699	0.324666
673.727258	0.325096
673.930799	0.325273
674.134322	0.325527
674.337827	0.325771
674.541314	0.325472
674.744782	0.325897
674.948232	0.325817
675.151664	0.325835
675.355078	0.326101
675.558474	0.326163
675.761851	0.326174
675.965210	0.326416
676.168551	0.326562
676.371873	0.326723
676.575178	0.326477
676.778464	0.326791
676.981732	0.326651
677.184981	0.326654
677.388213	0.326912
677.591426	0.327231
677.794621	0.327325
677.997798	0.327648
678.200956	0.327759
678.404097	0.328012
678.607219	0.328214
678.810323	0.328782
679.013408	0.328743
679.216476	0.328738
679.419525	0.328907
679.622556	0.329290
679.825569	0.329635
680.028563	0.330083
680.231540	0.330294
680.434498	0.330375
680.637438	0.330378
680.840359	0.330882
681.043263	0.331202
681.246148	0.331450
681.449015	0.331558
681.651864	0.331083
681.854694	0.331014
682.057506	0.331106
682.260301	0.331437
682.463076	0.331671
682.665834	0.331862
682.868573	0.331991
683.071295	0.332414
683.273998	0.332478
683.476682	0.333184
683.679349	0.333491
683.881997	0.333487
684.084627	0.333632
684.287239	0.333806
684.489833	0.333983
684.692408	0.334099
684.894965	0.333947
685.097504	0.334181
685.300025	0.334228
685.502527	0.334209
685.705012	0.334617
685.907478	0.334639
686.109925	0.334770
686.312355	0.334870
686.514766	0.334843
686.717159	0.335062
686.919534	0.335013
687.121891	0.335166
687.324230	0.335214
687.526550	0.335411
687.728852	0.335428
687.931136	0.335546
688.133401	0.335434
688.335649	0.335645
688.537878	0.335634
688.740089	0.336014
688.942281	0.336216
689.144456	0.336685
689.346612	0.336979
689.548750	0.337467
689.750870	0.337635
689.952971	0.337976
690.155055	0.338368
690.357120	0.338607
690.559167	0.338733
690.761195	0.338927
690.963206	0.339052
691.165198	0.339028
691.367172	0.338903
691.569128	0.339088
691.771065	0.339354
691.972984	0.339559
692.174885	0.339898
692.376768	0.339771
692.578633	0.339648
692.780479	0.339727
692.982308	0.339961
693.184118	0.340199
693.385909	0.340142
