sample name	sample
index	456
start time	 03-11-2021  11:30:07 AM


Wavelength (nm)	Absorbance
494.344910	-0.135327
494.563924	-0.135327
494.782919	-0.135327
495.001897	0.120344
495.220856	-0.154215
495.439797	-0.128324
495.658719	-0.115065
495.877624	-0.071712
496.096510	-0.113676
496.315378	-0.115769
496.534227	-0.072763
496.753059	-0.072456
496.971872	-0.055097
497.190667	0.108714
497.409444	0.127261
497.628203	0.134782
497.846943	0.138662
498.065665	0.142580
498.284369	0.146140
498.503055	0.148296
498.721723	0.148673
498.940372	0.148852
499.159003	0.149508
499.377616	0.149902
499.596210	0.150378
499.814787	0.150172
500.033345	0.151085
500.251885	0.150528
500.470406	0.150424
500.688910	0.150636
500.907395	0.151665
501.125862	0.151209
501.344311	0.151720
501.562742	0.151734
501.781154	0.151488
501.999548	0.151073
502.217924	0.151072
502.436282	0.151451
502.654621	0.152354
502.872942	0.151712
503.091245	0.152316
503.309530	0.152051
503.527797	0.151554
503.746045	0.152527
503.964275	0.152405
504.182487	0.153267
504.400681	0.153196
504.618856	0.152274
504.837013	0.152497
505.055152	0.152776
505.273273	0.153654
505.491376	0.154448
505.709460	0.153811
505.927526	0.154108
506.145574	0.153056
506.363604	0.152551
506.581615	0.152988
506.799608	0.153779
507.017583	0.153720
507.235540	0.152971
507.453478	0.152806
507.671399	0.153236
507.889301	0.154498
508.107185	0.155385
508.325050	0.155969
508.542898	0.156821
508.760727	0.157270
508.978538	0.156711
509.196330	0.157505
509.414105	0.158039
509.631861	0.158069
509.849599	0.157682
510.067319	0.157231
510.285021	0.156761
510.502704	0.156355
510.720369	0.156036
510.938016	0.157479
511.155645	0.157868
511.373255	0.158871
511.590848	0.158457
511.808422	0.158042
512.025977	0.158354
512.243515	0.158054
512.461034	0.157691
512.678536	0.158057
512.896018	0.157268
513.113483	0.157126
513.330930	0.157542
513.548358	0.158675
513.765768	0.158843
513.983160	0.158850
514.200533	0.160284
514.417889	0.160983
514.635226	0.160860
514.852545	0.161633
515.069845	0.162707
515.287128	0.161685
515.504392	0.161551
515.721638	0.162332
515.938866	0.162432
516.156075	0.162569
516.373267	0.163282
516.590440	0.163642
516.807594	0.163809
517.024731	0.163480
517.241850	0.163424
517.458950	0.164046
517.676032	0.164406
517.893095	0.164693
518.110141	0.164518
518.327168	0.164216
518.544177	0.163952
518.761168	0.163625
518.978141	0.163578
519.195095	0.164740
519.412031	0.164808
519.628949	0.164432
519.845849	0.164824
520.062731	0.165729
520.279594	0.166601
520.496439	0.167196
520.713266	0.168221
520.930074	0.168647
521.146865	0.168322
521.363637	0.168882
521.580391	0.169170
521.797127	0.169435
522.013844	0.169314
522.230543	0.169445
522.447224	0.169452
522.663887	0.168603
522.880532	0.168421
523.097158	0.168605
523.313766	0.168677
523.530356	0.168727
523.746928	0.168951
523.963481	0.168685
524.180017	0.168520
524.396534	0.169169
524.613032	0.170125
524.829513	0.171076
525.045975	0.171383
525.262420	0.171766
525.478845	0.172172
525.695253	0.173312
525.911643	0.173824
526.128014	0.174055
526.344367	0.173707
526.560702	0.173904
526.777018	0.173800
526.993316	0.174453
527.209597	0.174299
527.425858	0.174642
527.642102	0.174190
527.858328	0.174132
528.074535	0.175395
528.290724	0.176428
528.506894	0.176514
528.723047	0.176710
528.939181	0.176589
529.155297	0.177152
529.371395	0.177265
529.587475	0.177617
529.803536	0.178319
530.019579	0.177706
530.235604	0.177860
530.451611	0.178043
530.667600	0.178638
530.883570	0.179094
531.099522	0.178819
531.315456	0.179150
531.531372	0.179518
531.747269	0.179913
531.963148	0.180065
532.179009	0.180454
532.394852	0.180985
532.610676	0.181431
532.826482	0.181725
533.042271	0.182884
533.258040	0.184008
533.473792	0.184801
533.689525	0.185430
533.905240	0.185662
534.120937	0.185682
534.336616	0.186467
534.552277	0.186305
534.767919	0.187040
534.983543	0.187335
535.199149	0.186715
535.414736	0.187058
535.630306	0.187156
535.845857	0.187722
536.061390	0.188349
536.276904	0.188619
536.492401	0.189042
536.707879	0.188784
536.923339	0.188822
537.138781	0.189474
537.354204	0.188915
537.569610	0.188818
537.784997	0.189459
538.000366	0.189579
538.215716	0.189797
538.431049	0.190400
538.646363	0.190888
538.861659	0.190673
539.076937	0.190697
539.292196	0.191137
539.507438	0.191453
539.722661	0.191376
539.937866	0.191662
540.153052	0.191594
540.368221	0.191477
540.583371	0.191538
540.798503	0.191779
541.013617	0.192663
541.228712	0.192949
541.443789	0.193985
541.658848	0.193862
541.873889	0.193978
542.088912	0.194062
542.303916	0.193761
542.518902	0.193941
542.733870	0.194392
542.948820	0.193863
543.163752	0.194592
543.378665	0.194589
543.593560	0.194970
543.808437	0.195543
544.023295	0.195758
544.238136	0.196748
544.452958	0.197568
544.667762	0.198246
544.882548	0.199009
545.097315	0.199096
545.312064	0.199517
545.526795	0.199781
545.741508	0.200220
545.956203	0.200838
546.170879	0.200965
546.385537	0.200919
546.600177	0.200794
546.814799	0.201328
547.029402	0.201547
547.243988	0.201668
547.458555	0.202642
547.673103	0.202501
547.887634	0.202780
548.102146	0.202760
548.316640	0.203140
548.531116	0.203277
548.745574	0.203044
548.960013	0.203472
549.174435	0.203321
549.388838	0.202993
549.603222	0.203319
549.817589	0.203171
550.031937	0.203714
550.246267	0.203566
550.460579	0.203765
550.674873	0.203891
550.889148	0.204447
551.103405	0.204945
551.317644	0.205098
551.531865	0.205041
551.746068	0.205768
551.960252	0.206121
552.174418	0.206201
552.388566	0.206537
552.602696	0.206796
552.816807	0.206473
553.030900	0.207021
553.244975	0.207222
553.459032	0.207713
553.673070	0.207871
553.887091	0.207739
554.101093	0.208469
554.315077	0.209044
554.529042	0.209565
554.742990	0.209553
554.956919	0.209492
555.170830	0.209459
555.384722	0.209491
555.598597	0.209646
555.812453	0.210130
556.026291	0.209918
556.240111	0.209875
556.453913	0.210299
556.667696	0.211028
556.881461	0.211081
557.095208	0.211661
557.308937	0.211962
557.522647	0.212296
557.736339	0.212880
557.950013	0.213056
558.163669	0.213453
558.377307	0.213420
558.590926	0.213270
558.804527	0.213649
559.018110	0.213877
559.231675	0.214025
559.445221	0.214008
559.658749	0.213859
559.872259	0.214210
560.085751	0.214273
560.299225	0.214372
560.512680	0.214746
560.726117	0.215209
560.939536	0.214918
561.152937	0.214780
561.366319	0.215268
561.579683	0.215295
561.793029	0.215611
562.006357	0.215755
562.219667	0.215933
562.432958	0.215874
562.646231	0.215685
562.859486	0.216280
563.072723	0.216798
563.285941	0.216643
563.499141	0.216861
563.712323	0.216877
563.925487	0.216791
564.138632	0.217062
564.351760	0.217100
564.564869	0.217085
564.777960	0.217239
564.991032	0.217460
565.204087	0.217342
565.417123	0.217606
565.630141	0.217908
565.843140	0.218364
566.056122	0.218218
566.269085	0.218540
566.482030	0.218740
566.694957	0.218885
566.907866	0.219131
567.120756	0.219581
567.333628	0.219851
567.546482	0.219938
567.759318	0.220498
567.972135	0.220222
568.184935	0.220339
568.397716	0.220370
568.610478	0.220678
568.823223	0.220850
569.035949	0.221060
569.248657	0.220827
569.461347	0.220875
569.674019	0.220716
569.886672	0.221142
570.099308	0.221223
570.311925	0.221565
570.524523	0.221729
570.737104	0.221966
570.949666	0.221951
571.162210	0.222373
571.374736	0.222730
571.587244	0.222882
571.799733	0.223373
572.012205	0.223322
572.224658	0.223350
572.437092	0.223592
572.649509	0.223521
572.861907	0.223811
573.074287	0.223875
573.286649	0.224264
573.498993	0.224318
573.711318	0.223976
573.923625	0.224185
574.135914	0.224434
574.348185	0.224169
574.560438	0.224173
574.772672	0.224269
574.984888	0.224398
575.197086	0.224276
575.409266	0.224606
575.621427	0.225397
575.833570	0.225548
576.045695	0.225506
576.257802	0.226327
576.469890	0.226750
576.681961	0.227043
576.894013	0.227508
577.106046	0.227552
577.318062	0.227734
577.530059	0.227708
577.742039	0.227940
577.954000	0.228477
578.165942	0.228116
578.377867	0.227899
578.589773	0.227985
578.801661	0.227634
579.013531	0.227792
579.225382	0.227641
579.437216	0.228053
579.649031	0.228391
579.860828	0.228365
580.072606	0.228559
580.284367	0.229097
580.496109	0.229509
580.707833	0.229854
580.919539	0.230009
581.131227	0.229960
581.342896	0.229944
581.554547	0.230101
581.766180	0.230261
581.977795	0.230334
582.189391	0.230838
582.400969	0.230793
582.612529	0.231241
582.824071	0.231408
583.035595	0.232089
583.247100	0.232139
583.458587	0.232501
583.670056	0.232644
583.881506	0.232699
584.092939	0.232382
584.304353	0.232392
584.515749	0.232737
584.727127	0.233271
584.938486	0.233162
585.149828	0.233379
585.361151	0.233520
585.572456	0.233804
585.783742	0.234197
585.995011	0.234140
586.206261	0.234285
586.417493	0.233919
586.628706	0.234058
586.839902	0.234198
587.051079	0.234411
587.262238	0.234441
587.473379	0.234676
587.684502	0.234840
587.895606	0.235308
588.106692	0.235620
588.317760	0.235336
588.528810	0.235382
588.739841	0.235374
588.950855	0.235324
589.161850	0.235437
589.372827	0.235520
589.583785	0.235455
589.794726	0.235548
590.005648	0.236181
590.216552	0.237172
590.427437	0.237115
590.638305	0.237351
590.849154	0.237928
591.059985	0.238126
591.270798	0.238009
591.481592	0.238678
591.692369	0.239052
591.903127	0.238703
592.113867	0.238363
592.324588	0.238465
592.535292	0.238788
592.745977	0.238770
592.956644	0.238936
593.167293	0.239538
593.377923	0.239428
593.588536	0.239361
593.799130	0.239695
594.009706	0.240290
594.220263	0.240564
594.430803	0.240486
594.641324	0.240823
594.851827	0.240942
595.062312	0.240996
595.272778	0.241241
595.483227	0.241381
595.693657	0.241655
595.904069	0.241713
596.114462	0.242022
596.324838	0.242682
596.535195	0.242588
596.745534	0.243175
596.955855	0.243614
597.166157	0.243781
597.376441	0.244162
597.586707	0.244030
597.796955	0.244289
598.007185	0.244365
598.217396	0.244184
598.427589	0.244476
598.637764	0.244377
598.847921	0.244391
599.058060	0.244715
599.268180	0.244844
599.478282	0.245136
599.688366	0.245179
599.898431	0.245267
600.108479	0.245685
600.318508	0.246004
600.528519	0.246042
600.738511	0.246095
600.948486	0.246253
601.158442	0.246478
601.368380	0.246540
601.578300	0.246290
601.788202	0.246569
601.998085	0.246586
602.207950	0.246652
602.417797	0.246827
602.627626	0.246969
602.837436	0.246849
603.047228	0.246832
603.257002	0.247039
603.466758	0.247984
603.676496	0.247928
603.886215	0.248166
604.095916	0.248227
604.305599	0.248314
604.515264	0.248583
604.724910	0.248845
604.934538	0.249004
605.144148	0.249160
605.353740	0.248821
605.563314	0.249238
605.772869	0.249292
605.982406	0.249364
606.191925	0.249337
606.401425	0.249284
606.610908	0.249400
606.820372	0.249648
607.029818	0.249865
607.239246	0.250138
607.448655	0.250133
607.658047	0.250244
607.867420	0.250442
608.076775	0.250859
608.286111	0.251050
608.495430	0.251185
608.704730	0.251284
608.914012	0.251543
609.123275	0.251622
609.332521	0.251919
609.541748	0.252006
609.750957	0.251912
609.960148	0.252098
610.169321	0.252216
610.378475	0.252339
610.587611	0.252486
610.796729	0.252593
611.005829	0.252468
611.214910	0.252575
611.423974	0.252502
611.633019	0.252921
611.842045	0.252774
612.051054	0.252751
612.260044	0.253073
612.469017	0.253101
612.677970	0.253008
612.886906	0.253403
613.095824	0.253687
613.304723	0.253835
613.513604	0.253907
613.722467	0.254299
613.931311	0.254684
614.140138	0.254556
614.348946	0.254626
614.557736	0.254994
614.766507	0.255304
614.975261	0.254943
615.183996	0.255295
615.392713	0.255345
615.601412	0.255525
615.810092	0.255564
616.018754	0.255877
616.227399	0.256146
616.436024	0.256263
616.644632	0.256238
616.853222	0.256404
617.061793	0.256638
617.270346	0.256828
617.478880	0.256841
617.687397	0.256734
617.895895	0.256860
618.104375	0.257260
618.312837	0.257298
618.521281	0.257718
618.729706	0.258190
618.938113	0.258184
619.146502	0.258457
619.354873	0.258732
619.563226	0.259011
619.771560	0.259313
619.979876	0.259390
620.188174	0.259482
620.396453	0.259441
620.604715	0.259477
620.812958	0.259766
621.021183	0.259762
621.229390	0.259728
621.437578	0.260129
621.645748	0.260033
621.853900	0.260215
622.062034	0.260375
622.270150	0.260417
622.478247	0.260747
622.686326	0.260839
622.894387	0.261011
623.102430	0.261278
623.310454	0.260941
623.518461	0.261012
623.726449	0.261101
623.934418	0.261229
624.142370	0.261507
624.350303	0.261850
624.558218	0.261970
624.766115	0.262098
624.973994	0.262290
625.181855	0.262835
625.389697	0.263283
625.597521	0.263110
625.805327	0.263409
626.013114	0.263383
626.220883	0.263419
626.428634	0.263496
626.636367	0.263524
626.844082	0.263430
627.051778	0.263460
627.259457	0.263234
627.467117	0.263326
627.674758	0.263486
627.882382	0.263866
628.089987	0.263912
628.297574	0.264182
628.505143	0.264732
628.712694	0.265358
628.920226	0.265729
629.127740	0.266200
629.335236	0.266510
629.542714	0.266498
629.750174	0.266644
629.957615	0.266570
630.165038	0.266861
630.372443	0.266756
630.579829	0.266323
630.787198	0.266449
630.994548	0.266549
631.201880	0.266482
631.409194	0.266632
631.616489	0.266682
631.823766	0.266989
632.031025	0.266914
632.238266	0.267017
632.445489	0.267268
632.652693	0.267397
632.859879	0.267621
633.067047	0.268090
633.274197	0.268395
633.481329	0.268715
633.688442	0.268857
633.895537	0.269175
634.102614	0.269691
634.309672	0.269879
634.516713	0.270166
634.723735	0.270261
634.930739	0.270288
635.137724	0.270349
635.344692	0.270553
635.551641	0.270856
635.758572	0.270818
635.965485	0.270675
636.172379	0.271143
636.379256	0.270859
636.586114	0.271108
636.792954	0.271461
636.999775	0.271428
637.206579	0.271425
637.413364	0.271318
637.620131	0.271691
637.826880	0.271860
638.033610	0.271883
638.240323	0.272229
638.447017	0.272232
638.653692	0.272232
638.860350	0.272629
639.066990	0.272654
639.273611	0.273052
639.480214	0.273167
639.686798	0.273426
639.893365	0.273597
640.099913	0.273891
640.306443	0.273994
640.512955	0.274157
640.719449	0.274141
640.925924	0.274282
641.132381	0.274448
641.338820	0.274433
641.545241	0.274739
641.751644	0.274730
641.958028	0.274712
642.164394	0.274812
642.370742	0.275100
642.577071	0.275559
642.783383	0.275828
642.989676	0.276115
643.195951	0.276553
643.402207	0.276854
643.608446	0.277423
643.814666	0.277865
644.020868	0.278369
644.227052	0.278412
644.433218	0.278442
644.639365	0.278702
644.845494	0.278737
645.051605	0.278973
645.257698	0.278717
645.463772	0.278769
645.669828	0.278746
645.875866	0.278677
646.081886	0.278885
646.287888	0.279173
646.493871	0.279183
646.699836	0.279107
646.905783	0.279184
647.111712	0.279371
647.317622	0.279558
647.523514	0.279580
647.729388	0.279905
647.935244	0.280221
648.141082	0.280287
648.346901	0.280471
648.552702	0.280720
648.758485	0.280928
648.964250	0.280971
649.169996	0.281151
649.375724	0.281560
649.581434	0.281629
649.787126	0.281979
649.992800	0.282279
650.198455	0.282788
650.404092	0.282976
650.609711	0.282935
650.815311	0.283094
651.020894	0.283079
651.226458	0.283190
651.432004	0.283225
651.637532	0.283197
651.843041	0.283163
652.048532	0.283213
652.254006	0.283315
652.459460	0.283383
652.664897	0.283740
652.870315	0.283909
653.075716	0.284025
653.281097	0.284285
653.486461	0.284488
653.691807	0.284761
653.897134	0.284579
654.102443	0.284662
654.307734	0.285281
654.513006	0.285492
654.718261	0.285936
654.923497	0.286279
655.128715	0.286560
655.333915	0.286727
655.539096	0.286870
655.744259	0.287114
655.949404	0.287680
656.154531	0.287775
656.359640	0.288003
656.564730	0.287983
656.769802	0.288173
656.974856	0.288421
657.179892	0.288692
657.384909	0.288632
657.589908	0.288980
657.794889	0.288870
657.999852	0.288726
658.204797	0.288780
658.409723	0.289071
658.614631	0.289230
658.819521	0.289348
659.024393	0.289361
659.229246	0.289955
659.434081	0.289977
659.638898	0.290566
659.843697	0.290935
660.048478	0.291424
660.253240	0.291734
660.457984	0.291814
660.662710	0.292242
660.867417	0.292551
661.072107	0.292876
661.276778	0.293282
661.481431	0.293365
661.686066	0.293706
661.890682	0.293668
662.095281	0.293900
662.299861	0.294099
662.504422	0.294187
662.708966	0.294523
662.913491	0.294624
663.117999	0.294700
663.322488	0.294715
663.526958	0.294687
663.731411	0.294926
663.935845	0.294844
664.140261	0.295184
664.344659	0.295132
664.549038	0.295202
664.753400	0.295196
664.957743	0.295356
665.162068	0.295696
665.366375	0.296049
665.570663	0.296214
665.774933	0.296432
665.979185	0.296545
666.183419	0.296872
666.387635	0.297099
666.591832	0.297163
666.796011	0.297616
667.000172	0.297515
667.204315	0.297853
667.408439	0.298024
667.612545	0.298122
667.816634	0.298461
668.020703	0.298445
668.224755	0.298570
668.428788	0.298915
668.632803	0.299274
668.836800	0.299458
669.040779	0.299741
669.244739	0.299872
669.448681	0.300292
669.652605	0.300497
669.856511	0.300755
670.060399	0.300867
670.264268	0.301105
670.468119	0.300822
670.671952	0.300961
670.875767	0.300992
671.079563	0.301196
671.283341	0.300988
671.487101	0.301138
671.690843	0.301366
671.894567	0.301597
672.098272	0.301653
672.301959	0.302098
672.505628	0.302576
672.709278	0.302640
672.912911	0.302999
673.116525	0.303372
673.320121	0.303509
673.523699	0.303787
673.727258	0.303930
673.930799	0.304169
674.134322	0.304242
674.337827	0.304488
674.541314	0.304700
674.744782	0.304917
674.948232	0.305285
675.151664	0.305528
675.355078	0.305928
675.558474	0.306112
675.761851	0.306624
675.965210	0.307281
676.168551	0.307602
676.371873	0.308016
676.575178	0.308067
676.778464	0.308301
676.981732	0.308607
677.184981	0.308890
677.388213	0.309221
677.591426	0.309317
677.794621	0.309309
677.997798	0.309467
678.200956	0.309477
678.404097	0.309805
678.607219	0.309961
678.810323	0.309905
679.013408	0.309745
679.216476	0.310082
679.419525	0.310123
679.622556	0.310229
679.825569	0.310338
680.028563	0.310655
680.231540	0.311063
680.434498	0.311290
680.637438	0.311692
680.840359	0.311953
681.043263	0.312057
681.246148	0.312420
681.449015	0.312569
681.651864	0.312799
681.854694	0.312826
682.057506	0.312884
682.260301	0.313138
682.463076	0.313207
682.665834	0.313405
682.868573	0.313620
683.071295	0.313488
683.273998	0.313790
683.476682	0.314093
683.679349	0.314192
683.881997	0.314240
684.084627	0.314497
684.287239	0.314806
684.489833	0.315130
684.692408	0.315271
684.894965	0.315643
685.097504	0.315826
685.300025	0.316043
685.502527	0.316432
685.705012	0.316677
685.907478	0.316683
686.109925	0.316732
686.312355	0.316757
686.514766	0.317024
686.717159	0.317370
686.919534	0.317534
687.121891	0.317659
687.324230	0.317704
687.526550	0.317928
687.728852	0.318120
687.931136	0.318363
688.133401	0.318625
688.335649	0.318550
688.537878	0.318466
688.740089	0.318401
688.942281	0.318463
689.144456	0.318521
689.346612	0.318632
689.548750	0.318602
689.750870	0.318994
689.952971	0.318954
690.155055	0.319431
690.357120	0.319641
690.559167	0.319704
690.761195	0.319867
690.963206	0.320257
691.165198	0.320413
691.367172	0.320607
691.569128	0.320415
691.771065	0.320806
691.972984	0.320770
692.174885	0.321046
692.376768	0.321430
692.578633	0.321684
692.780479	0.321733
692.982308	0.322012
693.184118	0.322428
693.385909	0.322683
