sample name	sample
index	839
start time	 04-05-2021  10:55:45 AM
880	0.433188
Peak Time (s)	92.535
Peak Height 	0.4332
calc peak height	90,93
Baseline Time (s)	8.537
Baseline Value 	-0.006589
subtract baseline	10,4
Abs	0.306044
Peak Time (s)	92.535
Peak Height 	0.306
calc peak height	90,93
Baseline Time (s)	9.543
Baseline Value 	0.003752
subtract baseline	10,3
PK_550	0.161714
Peak Time (s)	91.535
Peak Height 	0.1617
calc peak height	90,93
Baseline Time (s)	10.034
Baseline Value 	8.1206E-4
subtract baseline	10,2
PK_880	0.279816
Peak Time (s)	91.535
Peak Height 	0.2798
calc peak height	90,93
Baseline Time (s)	8.537
Baseline Value 	0.003351
subtract baseline	10,1


Time (s)	A880-A510	A880-A775	A880-A975	A880	I510	I775	I975	I880	
0.034000	-0.003179	-0.001441	-0.002534	0.002785	6588.668018	40253.490345	3837.482181	21810.474901
0.537000	-0.000144	-0.000347	-0.000018	0.005921	6587.780741	40077.797097	3835.908154	21673.379284
1.035000	-0.005074	-0.001546	-0.004395	0.007459	6531.362267	39843.622948	3820.991028	21606.512487
1.535000	-0.001309	-0.001687	-0.002625	0.001834	6613.539096	40314.301244	3839.671618	21852.219088
2.035500	-0.000647	-0.000535	-0.001341	0.002600	6612.625336	40347.701002	3840.993429	21818.597874
2.536000	-0.002099	-0.000347	-0.003804	0.002035	6604.781151	40412.814543	3836.159854	21843.390299
3.036000	-0.003930	-0.000123	-0.002808	0.006242	6551.862871	40069.503550	3828.038019	21659.411315
3.536000	-0.001666	-0.000454	0.002424	0.000885	6618.776491	40503.233918	3855.059299	21894.006070
4.037000	-0.003449	-0.000510	0.003370	0.001202	6600.218626	40470.907331	3856.686001	21880.049260
4.536500	0.001024	0.000176	-0.004408	0.001009	6641.581159	40547.296149	3837.234544	21888.570620
5.039500	-0.000825	-0.000682	0.001018	0.000631	6628.495084	40505.620404	3852.087807	21905.224820
5.537500	0.000728	-0.000259	-0.001759	0.000865	6640.226627	40522.038454	3844.357636	21894.917393
6.035000	0.001424	0.000282	-0.000400	0.000890	6646.205148	40566.773547	3847.774742	21893.792225
6.535000	-0.000520	-0.000642	0.001422	0.000924	6628.595679	40483.584619	3852.373830	21892.292767
7.035500	0.000801	0.001192	-0.004907	0.001425	6635.890689	40599.443441	3834.909498	21870.227694
7.536000	0.000298	0.000028	-0.002547	0.000679	6638.051864	40563.050345	3842.818019	21903.102513
8.036500	0.000670	-0.000568	-0.001051	0.000175	6645.864131	40555.104921	3847.940407	21925.339348
8.536500	0.000000	-0.000443	0.000562	0.000000	6641.446175	40581.199871	3852.539048	21933.054335
9.039500	0.000444	0.000544	-0.001959	0.000052	6644.944343	40662.585747	3845.926706	21930.755003
9.543500	-0.000819	-0.000555	0.000000	-0.000525	6638.831875	40617.075800	3852.443477	21956.257958
10.034500	-0.000389	0.000000	-0.002800	-0.000151	6639.325367	40632.886009	3844.294083	21939.732566
10.534500	0.003381	0.000795	0.001948	0.000659	6665.777664	40631.511500	3854.413456	21903.958729
11.035000	-0.000080	-0.000133	0.002537	-0.000343	6643.788877	40637.983574	3858.529595	21948.199660
11.535000	0.000240	0.000444	-0.000425	0.000784	6636.602764	40590.171719	3847.984664	21898.477584
12.035500	-0.000384	-0.001126	-0.000577	-0.000599	6643.360605	40573.855147	3851.145490	21959.508533
12.536500	-0.003020	-0.000551	-0.000259	0.004800	6572.386697	40156.591151	3838.144997	21722.265750
13.036500	0.002251	0.000657	0.000139	0.001136	6651.395061	40578.057429	3848.526363	21882.955769
13.536500	0.000297	0.000298	0.002161	0.001565	6630.163706	40509.576499	3852.625599	21864.084570
14.037000	-0.001030	-0.000857	-0.001574	0.002963	6606.022934	40288.537387	3839.472300	21802.661374
14.537500	-0.002588	-0.000414	-0.006256	0.004455	6579.190834	40198.024554	3823.855159	21737.322761
15.034500	0.000901	-0.000107	0.000910	0.000500	6645.017023	40566.858490	3852.146557	21910.966402
15.535000	0.000116	0.000474	-0.004733	0.001269	6631.181174	40550.473271	3835.747223	21877.078619
16.035500	0.000142	-0.000286	0.000955	0.000376	6639.355704	40562.041463	3852.580671	21916.437223
16.535500	-0.004805	-0.000928	-0.005469	0.005280	6552.619117	40083.025180	3823.761998	21701.334354
17.036000	-0.002155	0.000943	0.001536	0.004486	6582.713657	40312.382651	3843.522613	21735.966059
17.536500	-0.001640	-0.000820	-0.001163	0.001020	6617.819054	40459.851673	3845.486361	21888.085752
18.036500	-0.001044	-0.000103	0.002356	0.002006	6614.366045	40436.552671	3851.992907	21844.691225
18.539500	-0.001097	-0.000008	0.002363	0.002301	6611.283995	40419.210976	3851.250976	21831.712130
19.037000	-0.000606	0.000204	-0.000175	0.002174	6616.754796	40448.601794	3845.062230	21837.313203
19.534500	0.000007	0.000490	-0.001276	0.002166	6622.248373	40474.030126	3842.264597	21837.630280
20.035000	-0.001208	-0.000453	-0.004532	0.001649	6616.075084	40437.136251	3835.294329	21860.394700
20.535000	-0.002997	-0.001436	0.002061	0.002151	6595.845929	40308.673054	3850.860138	21838.312450
21.035000	-0.000087	0.000113	0.000658	0.001710	6625.460664	40480.894872	3848.386691	21857.680194
21.535500	-0.002362	-0.000868	-0.003501	0.001273	6609.187743	40433.732497	3838.868079	21876.916456
22.036000	0.000474	0.000615	-0.001359	0.002449	6623.884139	40460.331248	3841.330630	21825.208336
22.536000	-0.001236	-0.000159	-0.000631	0.001525	6616.921994	40473.387878	3845.555629	21865.850903
23.039500	-0.000563	-0.000521	-0.001264	0.001749	6620.897299	40422.476502	3843.361906	21855.959039
23.542000	-0.000118	0.000037	-0.001658	0.002003	6622.589143	40448.859718	3841.706957	21844.805262
24.037500	-0.001118	0.000133	-0.006127	0.001952	6614.185803	40461.678712	3830.488468	21847.055263
24.534500	-0.001424	0.000373	-0.000287	0.002417	6607.370797	40442.115602	3844.152379	21826.617792
25.035000	0.000508	-0.000459	0.000971	0.001825	6629.732123	40421.341331	3848.895720	21852.646682
25.535000	-0.000339	0.000570	-0.001111	0.002504	6616.193022	40451.699448	3841.824320	21822.804804
26.034500	-0.000843	-0.000136	-0.001353	0.002024	6615.976761	40432.079190	3842.430865	21843.871860
26.535500	-0.001505	0.000013	-0.001391	0.001972	6610.593018	40449.539648	3842.468356	21846.192852
27.036000	-0.001552	0.000290	0.000261	0.002287	6607.391202	40446.247846	3845.889972	21832.348246
27.539000	0.000382	-0.000229	0.002996	0.000112	6643.854343	40590.053597	3858.538684	21928.102132
28.037000	0.002791	0.000205	-0.002183	0.000965	6657.755856	40553.561166	3843.016442	21890.490667
28.533000	-0.003051	-0.000016	0.002371	0.000227	6612.340990	40598.509651	3856.622809	21923.011857
29.034000	-0.001446	0.000047	-0.004443	0.003149	6600.715775	40350.489425	3831.715982	21794.486419
29.534500	0.001070	0.000306	0.002328	0.000521	6646.342405	40600.942774	3855.750294	21910.050925
30.034500	0.000833	0.000357	-0.002171	0.000614	6643.400428	40597.351226	3843.944557	21905.956803
30.535000	-0.003243	0.000659	-0.003416	0.007039	6550.902124	40068.243281	3824.500555	21624.743301
31.035000	-0.000884	-0.000046	-0.001278	0.003425	6603.233580	40318.618133	3839.049375	21782.389403
31.536000	0.000966	0.000453	0.002316	0.000923	6641.822025	40578.757923	3854.681681	21892.322668
32.036500	0.000451	-0.000138	0.000563	0.000096	6644.609552	40599.379299	3852.293219	21928.818321
32.539000	-0.002738	-0.000394	-0.002787	0.005770	6566.367513	40086.716815	3829.281318	21679.958913
33.036500	-0.000879	-0.000235	-0.002467	0.001880	6616.938941	40436.029700	3839.958175	21850.234305
33.537000	-0.000938	0.000504	0.001235	0.000186	6631.438988	40647.395116	3853.792710	21924.822862
34.037000	-0.001278	-0.000093	-0.002676	0.001658	6615.369679	40467.490229	3839.988833	21859.973240
34.538000	-0.002446	0.000207	0.003071	0.003481	6588.994706	40335.731000	3850.036080	21779.972245
35.035000	-0.000493	-0.000882	-0.002024	0.001998	6619.319588	40369.770111	3840.786588	21845.050300
35.535500	-0.000851	0.000524	0.003059	0.003123	6606.192998	40394.066807	3850.925275	21795.634928
36.035000	-0.002175	-0.000085	0.001709	0.002754	6597.773353	40373.288216	3848.403458	21811.819567
36.536500	-0.002042	-0.000158	-0.002880	0.002697	6599.446372	40371.887961	3836.825820	21814.311749
37.036000	-0.001764	-0.000156	-0.000464	0.002685	6602.003013	40373.075427	3843.013740	21814.843336
37.536500	-0.000700	0.000645	-0.002316	0.002698	6611.285082	40441.320589	3838.257851	21814.270269
38.037500	-0.002233	-0.000129	-0.003976	0.002273	6601.495736	40411.137743	3835.120693	21832.934183
38.537000	-0.000626	0.000361	-0.000861	0.004026	6600.209733	40301.875672	3838.581969	21756.101010
39.034500	-0.002031	0.000062	-0.002362	0.002489	6601.372462	40408.899811	3838.672359	21823.446754
39.535000	-0.001685	-0.000233	0.001472	0.002370	6605.480083	40393.713210	3848.782126	21828.674286
40.035500	-0.000922	-0.000194	-0.002233	0.002544	6610.684819	40382.073056	3838.861693	21821.048064
40.536000	-0.000340	0.000503	-0.004638	0.004155	6601.592923	40302.999435	3828.684086	21750.449071
41.036000	-0.000282	0.000314	-0.001709	0.002836	6613.761780	40400.764285	3839.453812	21808.244666
41.536000	-0.001017	-0.000518	0.001085	0.002216	6612.743669	40382.392669	3848.184137	21835.444833
42.039500	-0.002501	-0.000250	-0.001795	0.002379	6598.204195	40391.490128	3840.398676	21828.297674
42.536000	-0.002410	0.000041	-0.001759	0.002846	6594.894520	40376.211259	3839.300317	21807.800377
43.037500	-0.000240	0.000111	0.000868	0.002530	6616.834590	40409.629162	3846.820789	21821.644052
43.535000	-0.000388	0.000182	0.000660	0.002478	6615.990397	40420.267612	3846.419725	21823.930721
44.034500	0.001251	-0.000257	0.003067	-0.002641	6676.276318	40827.858132	3865.880495	22050.011127
44.535500	-0.002915	-0.000920	-0.002189	0.004268	6577.967580	40170.618632	3834.593711	21745.525715
45.035500	-0.000195	-0.000288	0.001968	0.000199	6637.938719	40577.351535	3855.653226	21924.269950
45.535500	-0.001882	-0.000377	-0.002868	0.000121	6623.642037	40576.385463	3843.423961	21927.733403
46.036500	0.000152	0.000198	-0.000538	0.000493	6638.412842	40594.046698	3848.441397	21911.301892
46.537000	-0.002279	0.000206	-0.010706	0.006312	6565.643283	40091.742583	3808.132394	21656.352956
47.036000	-0.000161	0.000180	0.001629	0.001956	6622.627534	40465.407023	3850.250736	21846.891267
47.537000	-0.002093	0.000110	-0.000344	0.003183	6594.718280	40353.101370	3842.049183	21793.025195
48.035000	-0.002142	-0.000416	0.002300	0.002216	6602.802145	40391.238192	3851.305974	21835.448384
48.535000	-0.004154	0.000056	-0.000479	0.005633	6555.210244	40137.157112	3835.467207	21685.913639
49.035000	-0.000520	0.000560	0.001313	0.001601	6622.599025	40529.244072	3850.350885	21862.507804
49.535000	0.000106	0.000392	0.005009	0.000610	6636.963939	40600.721215	3862.473373	21906.149409
50.035500	0.002318	0.000331	0.000668	-0.001779	6678.130617	40803.951801	3857.408841	22011.788873
50.535500	-0.003980	-0.000332	-0.004155	0.003028	6579.498204	40328.219392	3832.752887	21799.792550
51.036500	-0.004573	-0.002370	0.001423	-0.002232	6620.640424	40607.705622	3860.538270	22031.868024
51.539500	-0.051922	-0.013551	0.023204	0.144771	5231.903674	29066.374656	3578.148720	16496.705772
52.036000	-0.055744	-0.012963	0.004531	0.085530	5566.789319	32945.867139	3660.882159	18504.920369
52.536500	-0.044043	-0.018792	-0.020404	-0.126136	7446.690600	51223.981279	4159.243152	28396.054369
53.034500	-0.036269	-0.059729	-0.026210	-0.271258	9419.619498	64352.326684	4698.594674	38569.142935
53.535000	-0.013352	-0.072647	-0.015088	-0.290708	10100.845793	65284.896238	4841.937487	40209.476177
54.034500	-0.011029	-0.061136	-0.007774	-0.274482	9869.929612	64610.232242	4799.102089	38835.960844
54.535500	-0.014400	-0.023372	-0.009120	-0.199891	8703.478523	59585.080584	4467.692284	33142.080259
55.035000	-0.000580	-0.017348	-0.002325	-0.194477	8819.410317	59664.935265	4473.214754	32765.625052
55.536500	0.013167	-0.006461	0.006493	-0.161956	8563.526859	56901.550997	4380.792062	30600.468481
56.039000	0.025322	0.000649	0.012974	-0.145735	8509.572088	55778.501022	4344.257574	29579.703309
56.536500	0.042067	0.010874	0.025198	-0.120002	8392.022809	53920.086237	4294.913960	28036.468230
57.037000	0.052657	0.018017	0.040857	-0.089314	8137.854763	51222.567566	4241.795296	26311.769287
57.537000	0.066094	0.026964	0.052788	-0.057957	7920.922607	48787.257023	4175.797118	24670.884249
58.037500	0.078903	0.035092	0.069237	-0.026333	7702.593921	46365.432752	4126.261225	23131.815093
58.535000	0.091436	0.043787	0.084358	0.013273	7404.582593	43372.530978	4049.896932	21355.837652
59.035000	0.102764	0.051850	0.102597	0.053244	7108.862187	40498.554917	3985.629495	19720.355239
59.535500	0.112142	0.058893	0.112657	0.084344	6897.262734	38467.156278	3926.400081	18547.999768
60.036500	0.122363	0.065007	0.125506	0.112770	6727.881618	36680.963643	3884.358977	17547.435666
60.535500	0.137887	0.074177	0.139739	0.152460	6513.740545	34381.837690	3818.823006	16255.582736
61.037000	0.138915	0.077195	0.156398	0.172765	6351.259269	33149.443155	3809.745565	15638.923307
61.536500	0.140995	0.079073	0.151690	0.161379	6463.999722	34090.601790	3826.426724	15981.152926
62.036500	0.154599	0.088274	0.161820	0.180432	6417.958456	33388.819149	3804.194916	15413.490662
62.535000	0.162046	0.091584	0.168027	0.205538	6272.654770	31891.517255	3758.586517	14702.495586
63.035000	0.165167	0.094053	0.166465	0.205261	6300.156601	32076.080488	3755.556790	14710.126412
63.535000	0.173765	0.097497	0.173260	0.203822	6382.663182	32407.073064	3775.125972	14749.792561
64.036000	0.180679	0.100246	0.181565	0.205414	6427.192352	32486.056670	3791.357765	14705.918880
64.535500	0.179128	0.101987	0.177374	0.214854	6335.826638	31964.459563	3758.660743	14448.962008
65.036000	0.188037	0.103348	0.182457	0.214065	6416.320813	32109.182130	3772.620146	14470.223358
65.539000	0.191490	0.107322	0.182786	0.219817	6397.075974	31989.483742	3759.721697	14316.105407
66.036500	0.194669	0.109826	0.191379	0.225742	6374.221995	31760.405326	3766.046724	14159.456208
66.537000	0.192482	0.109396	0.196585	0.233831	6289.979300	31197.924082	3759.213718	13949.024529
67.037500	0.198046	0.112762	0.194031	0.235227	6323.909023	31326.984317	3749.923877	13913.095206
67.537500	0.202221	0.113386	0.199585	0.239832	6320.397120	31066.723402	3752.148774	13795.424723
68.035000	0.204017	0.114811	0.199735	0.245576	6288.279699	30787.042639	3739.108844	13650.383425
68.534500	0.204513	0.116113	0.207938	0.256654	6203.624937	30164.083586	3732.469304	13375.989894
69.036000	0.208425	0.117371	0.209982	0.259466	6212.327346	30066.374345	3730.703688	13307.448295
69.536000	0.212045	0.119722	0.212575	0.266607	6184.546802	29767.272398	3720.312475	13135.371254
70.036500	0.212286	0.120430	0.207143	0.272358	6141.510953	29455.950416	3695.218345	12998.818887
70.536500	0.211267	0.121748	0.216813	0.285023	6036.981197	28768.505329	3688.606536	12704.423092
71.037000	0.218844	0.122959	0.220217	0.286014	6086.879485	28781.730729	3693.930273	12681.759145
71.537500	0.222729	0.125026	0.220144	0.291596	6073.944352	28572.267665	3681.500417	12554.981840
72.034500	0.223279	0.126292	0.226263	0.297246	6035.390344	28313.421725	3682.525152	12428.331028
72.534500	0.221504	0.127030	0.224164	0.309033	5935.042815	27672.542323	3652.651309	12169.338476
73.035000	0.223494	0.127527	0.228631	0.308192	5955.727071	27749.250259	3663.959138	12187.581235
73.535500	0.225680	0.129160	0.232745	0.313571	5932.408850	27534.994209	3661.252255	12071.494285
74.035500	0.230411	0.132335	0.242458	0.320738	5914.724479	27308.715570	3666.708159	11919.020005
74.536000	0.228928	0.130822	0.239160	0.329155	5843.879577	26754.654454	3641.861822	11743.129549
75.039000	0.233758	0.131682	0.246644	0.328490	5883.009490	26838.949713	3659.075144	11756.917307
75.536500	0.233776	0.134221	0.243021	0.334189	5842.563928	26664.661150	3639.412199	11639.555842
76.034000	0.234714	0.135419	0.246082	0.338998	5815.318280	26467.128207	3635.773828	11541.745463
76.537500	0.240969	0.136159	0.250616	0.344585	5820.000669	26204.461433	3633.586044	11429.437842
77.034500	0.241804	0.137896	0.256340	0.348869	5795.884256	26067.575855	3636.576540	11344.292039
77.534500	0.244873	0.138816	0.251483	0.352780	5790.030293	25907.906025	3618.520983	11267.306327
78.035500	0.243785	0.138495	0.253890	0.356059	5759.826709	25717.119449	3616.746277	11203.281937
78.535500	0.245201	0.139376	0.257872	0.362628	5724.578126	25418.962370	3611.497369	11076.464778
79.035000	0.248779	0.140001	0.256355	0.364851	5733.805797	25335.872924	3603.967050	11033.990241
79.536500	0.247817	0.141532	0.265880	0.369435	5696.217082	25178.021198	3613.932032	10947.075936
80.036500	0.253256	0.142708	0.266627	0.373440	5705.884142	25032.711646	3607.347043	10871.871298
80.536500	0.251094	0.144795	0.265338	0.383965	5621.403891	24604.968064	3583.888995	10677.551013
81.037000	0.257356	0.147251	0.268188	0.383314	5667.132747	24761.499205	3590.773470	10689.433221
81.534500	0.254218	0.147271	0.273211	0.385867	5629.436124	24633.778598	3595.666330	10642.936272
82.037500	0.255482	0.146560	0.273688	0.388407	5621.047853	24470.977001	3591.577543	10596.934059
82.535500	0.257305	0.148546	0.272489	0.398003	5570.498956	24094.521410	3570.504652	10425.578919
83.035500	0.262342	0.150311	0.280741	0.395894	5616.939195	24285.368740	3590.720056	10462.918966
83.535500	0.262814	0.150874	0.277065	0.398224	5604.788767	24198.101292	3578.943393	10421.676081
84.036000	0.262577	0.150002	0.280309	0.399490	5594.998532	24093.034033	3582.802428	10399.359173
84.539000	0.261391	0.150553	0.284191	0.408167	5531.598594	23698.338315	3573.475250	10248.170896
85.037000	0.264738	0.152259	0.284387	0.405295	5571.412715	23919.782807	3579.431989	10297.879828
85.537000	0.265904	0.154083	0.286059	0.408046	5561.206905	23874.741266	3577.331427	10250.250943
86.034000	0.263443	0.151633	0.286913	0.407228	5550.670356	23795.686395	3580.587446	10264.375483
86.534500	0.267419	0.153822	0.279479	0.414546	5529.371459	23549.240521	3552.287785	10138.923322
87.035000	0.268747	0.154540	0.284077	0.413381	5545.246543	23639.392524	3563.230320	10158.754877
87.535500	0.272041	0.155652	0.284984	0.415260	5554.298517	23602.590642	3561.373867	10126.794151
88.035500	0.270129	0.156418	0.293200	0.416692	5532.953226	23570.771297	3574.411920	10102.535207
88.535500	0.268842	0.156067	0.288799	0.421535	5494.251437	23323.792875	3556.695216	10021.057827
89.038500	0.276480	0.158140	0.290684	0.420347	5550.150282	23478.463889	3562.543164	10040.950536
89.536500	0.276667	0.158077	0.297434	0.420525	5550.207003	23466.996735	3575.188124	10037.969485
90.036500	0.276240	0.159038	0.289240	0.422317	5536.048220	23427.520048	3556.049304	10007.991343
90.537000	0.273054	0.157635	0.290160	0.428091	5479.590368	23089.426225	3546.902956	9912.200575
91.037000	0.276247	0.160432	0.297207	0.425120	5518.306041	23360.705554	3565.891138	9961.329101
91.534500	0.279816	0.161714	0.296595	0.425457	5538.823642	23405.465696	3564.073984	9955.737591
92.035500	0.278027	0.161139	0.296458	0.425936	5524.409961	23355.559283	3562.898008	9947.810744
92.535500	0.276339	0.161518	0.306044	0.433188	5468.317632	23032.796406	3567.367116	9828.708755
93.035500	0.280413	0.161913	0.298548	0.427003	5532.782865	23341.709855	3564.854077	9930.162743
93.538500	0.281241	0.162173	0.296506	0.427559	5534.512952	23327.675031	3559.892553	9920.977291
94.133000	0.282898	0.162632	0.302942	0.429023	5535.740702	23280.250246	3569.411320	9896.863698
94.536500	0.278520	0.162609	0.295773	0.435719	5466.148255	22965.868459	3543.137014	9787.614193
95.036500	0.281983	0.162973	0.303000	0.429472	5527.072780	23275.191573	3568.659474	9889.491749
95.537000	0.281020	0.164383	0.301189	0.430319	5515.606561	23301.670719	3563.561874	9875.579245
96.034500	0.284291	0.163895	0.298607	0.430133	5537.544160	23287.432482	3558.993667	9878.634778
96.537500	0.278301	0.162751	0.304052	0.436210	5461.738007	22949.624800	3557.791096	9779.654230
