sample name	sample
index	958
start time	 04-12-2021  04:01:12 PM


Wavelength (nm)	Absorbance
494.344910	-0.193606
494.563924	-0.193606
494.782919	-0.193606
495.001897	-0.323012
495.220856	-0.139099
495.439797	-0.116534
495.658719	-0.106894
495.877624	-0.062872
496.096510	0.009325
496.315378	0.028793
496.534227	0.087309
496.753059	0.081230
496.971872	0.060167
497.190667	0.077019
497.409444	0.081842
497.628203	0.083739
497.846943	0.082816
498.065665	0.083373
498.284369	0.083122
498.503055	0.082739
498.721723	0.083319
498.940372	0.084386
499.159003	0.084871
499.377616	0.084845
499.596210	0.084812
499.814787	0.085231
500.033345	0.084350
500.251885	0.084811
500.470406	0.086012
500.688910	0.085278
500.907395	0.085490
501.125862	0.085026
501.344311	0.085205
501.562742	0.085386
501.781154	0.086459
501.999548	0.087721
502.217924	0.088125
502.436282	0.087246
502.654621	0.088507
502.872942	0.088312
503.091245	0.089030
503.309530	0.090176
503.527797	0.090224
503.746045	0.089480
503.964275	0.088193
504.182487	0.087943
504.400681	0.088640
504.618856	0.087686
504.837013	0.088499
505.055152	0.087853
505.273273	0.087369
505.491376	0.087239
505.709460	0.087665
505.927526	0.088626
506.145574	0.087926
506.363604	0.088295
506.581615	0.088556
506.799608	0.087976
507.017583	0.088612
507.235540	0.088407
507.453478	0.089599
507.671399	0.089548
507.889301	0.089530
508.107185	0.091179
508.325050	0.090545
508.542898	0.091235
508.760727	0.091812
508.978538	0.091890
509.196330	0.092307
509.414105	0.092126
509.631861	0.092592
509.849599	0.092952
510.067319	0.092363
510.285021	0.092294
510.502704	0.092411
510.720369	0.091554
510.938016	0.091852
511.155645	0.092444
511.373255	0.092267
511.590848	0.091861
511.808422	0.091551
512.025977	0.091867
512.243515	0.092904
512.461034	0.092899
512.678536	0.093804
512.896018	0.093998
513.113483	0.093250
513.330930	0.092919
513.548358	0.093711
513.765768	0.094413
513.983160	0.094185
514.200533	0.093721
514.417889	0.092611
514.635226	0.092879
514.852545	0.092931
515.069845	0.093949
515.287128	0.094613
515.504392	0.094211
515.721638	0.093988
515.938866	0.094705
516.156075	0.094664
516.373267	0.095650
516.590440	0.096278
516.807594	0.095788
517.024731	0.095210
517.241850	0.095858
517.458950	0.096292
517.676032	0.096865
517.893095	0.096913
518.110141	0.097128
518.327168	0.097219
518.544177	0.096949
518.761168	0.097459
518.978141	0.097821
519.195095	0.096982
519.412031	0.097088
519.628949	0.097361
519.845849	0.097391
520.062731	0.097371
520.279594	0.098230
520.496439	0.097991
520.713266	0.098143
520.930074	0.097897
521.146865	0.098046
521.363637	0.097741
521.580391	0.097384
521.797127	0.097042
522.013844	0.097327
522.230543	0.096957
522.447224	0.097064
522.663887	0.097532
522.880532	0.098240
523.097158	0.099279
523.313766	0.099260
523.530356	0.099053
523.746928	0.099773
523.963481	0.100006
524.180017	0.100738
524.396534	0.100907
524.613032	0.100667
524.829513	0.100131
525.045975	0.099698
525.262420	0.100102
525.478845	0.100526
525.695253	0.100749
525.911643	0.100746
526.128014	0.100240
526.344367	0.100300
526.560702	0.101008
526.777018	0.101467
526.993316	0.101805
527.209597	0.102338
527.425858	0.102114
527.642102	0.102146
527.858328	0.102223
528.074535	0.102680
528.290724	0.103447
528.506894	0.103297
528.723047	0.103531
528.939181	0.103691
529.155297	0.104006
529.371395	0.104378
529.587475	0.104663
529.803536	0.104985
530.019579	0.105104
530.235604	0.105265
530.451611	0.105364
530.667600	0.105904
530.883570	0.105800
531.099522	0.105637
531.315456	0.106292
531.531372	0.106403
531.747269	0.106521
531.963148	0.106468
532.179009	0.106485
532.394852	0.106834
532.610676	0.107042
532.826482	0.107767
533.042271	0.107931
533.258040	0.108055
533.473792	0.108579
533.689525	0.108760
533.905240	0.109160
534.120937	0.109242
534.336616	0.109127
534.552277	0.109046
534.767919	0.108545
534.983543	0.108358
535.199149	0.108422
535.414736	0.108278
535.630306	0.108989
535.845857	0.109236
536.061390	0.108978
536.276904	0.109385
536.492401	0.109824
536.707879	0.110397
536.923339	0.110966
537.138781	0.111269
537.354204	0.111366
537.569610	0.111565
537.784997	0.112080
538.000366	0.112362
538.215716	0.112423
538.431049	0.112252
538.646363	0.112148
538.861659	0.112796
539.076937	0.112751
539.292196	0.112898
539.507438	0.112471
539.722661	0.112329
539.937866	0.112883
540.153052	0.113081
540.368221	0.113020
540.583371	0.113358
540.798503	0.112846
541.013617	0.113338
541.228712	0.113640
541.443789	0.114089
541.658848	0.113930
541.873889	0.113701
542.088912	0.113639
542.303916	0.114054
542.518902	0.114262
542.733870	0.114647
542.948820	0.114968
543.163752	0.115603
543.378665	0.115678
543.593560	0.116381
543.808437	0.116611
544.023295	0.116819
544.238136	0.117134
544.452958	0.117226
544.667762	0.117367
544.882548	0.117024
545.097315	0.117018
545.312064	0.117254
545.526795	0.117329
545.741508	0.117012
545.956203	0.117413
546.170879	0.117366
546.385537	0.117791
546.600177	0.117751
546.814799	0.117528
547.029402	0.117207
547.243988	0.117234
547.458555	0.117355
547.673103	0.117845
547.887634	0.118186
548.102146	0.118530
548.316640	0.118535
548.531116	0.118720
548.745574	0.119037
548.960013	0.118827
549.174435	0.119174
549.388838	0.119517
549.603222	0.119664
549.817589	0.119882
550.031937	0.119803
550.246267	0.120024
550.460579	0.120059
550.674873	0.120501
550.889148	0.121424
551.103405	0.121171
551.317644	0.121418
551.531865	0.121515
551.746068	0.121323
551.960252	0.121607
552.174418	0.121617
552.388566	0.121885
552.602696	0.121631
552.816807	0.121634
553.030900	0.121803
553.244975	0.121327
553.459032	0.121510
553.673070	0.121679
553.887091	0.121387
554.101093	0.121463
554.315077	0.121465
554.529042	0.121789
554.742990	0.121571
554.956919	0.121964
555.170830	0.121897
555.384722	0.122091
555.598597	0.122278
555.812453	0.122814
556.026291	0.122859
556.240111	0.122581
556.453913	0.122775
556.667696	0.123359
556.881461	0.123355
557.095208	0.124108
557.308937	0.123979
557.522647	0.123959
557.736339	0.123977
557.950013	0.124027
558.163669	0.124797
558.377307	0.124879
558.590926	0.124467
558.804527	0.124423
559.018110	0.124109
559.231675	0.124427
559.445221	0.124285
559.658749	0.124417
559.872259	0.124725
560.085751	0.124731
560.299225	0.125006
560.512680	0.125490
560.726117	0.125589
560.939536	0.125826
561.152937	0.125540
561.366319	0.125805
561.579683	0.125588
561.793029	0.125614
562.006357	0.125464
562.219667	0.125103
562.432958	0.124701
562.646231	0.125142
562.859486	0.125036
563.072723	0.125546
563.285941	0.125303
563.499141	0.125433
563.712323	0.126027
563.925487	0.126268
564.138632	0.126659
564.351760	0.127035
564.564869	0.126752
564.777960	0.127045
564.991032	0.126970
565.204087	0.127475
565.417123	0.127544
565.630141	0.126856
565.843140	0.127231
566.056122	0.127404
566.269085	0.127056
566.482030	0.127269
566.694957	0.127062
566.907866	0.127215
567.120756	0.127241
567.333628	0.127721
567.546482	0.128122
567.759318	0.127806
567.972135	0.127855
568.184935	0.128304
568.397716	0.128368
568.610478	0.128371
568.823223	0.128602
569.035949	0.128430
569.248657	0.128060
569.461347	0.128019
569.674019	0.128166
569.886672	0.128273
570.099308	0.128589
570.311925	0.128749
570.524523	0.129338
570.737104	0.129499
570.949666	0.130003
571.162210	0.130019
571.374736	0.130102
571.587244	0.130360
571.799733	0.130274
572.012205	0.130251
572.224658	0.130318
572.437092	0.130162
572.649509	0.130232
572.861907	0.130041
573.074287	0.130515
573.286649	0.130822
573.498993	0.131024
573.711318	0.131232
573.923625	0.131386
574.135914	0.131326
574.348185	0.131166
574.560438	0.131120
574.772672	0.131096
574.984888	0.130805
575.197086	0.130585
575.409266	0.130412
575.621427	0.130166
575.833570	0.130254
576.045695	0.130144
576.257802	0.130317
576.469890	0.130457
576.681961	0.130340
576.894013	0.130750
577.106046	0.130825
577.318062	0.130894
577.530059	0.131303
577.742039	0.131486
577.954000	0.131831
578.165942	0.132183
578.377867	0.132209
578.589773	0.132819
578.801661	0.133190
579.013531	0.133389
579.225382	0.133464
579.437216	0.133531
579.649031	0.133408
579.860828	0.133325
580.072606	0.133406
580.284367	0.133592
580.496109	0.133434
580.707833	0.133173
580.919539	0.133475
581.131227	0.133549
581.342896	0.133559
581.554547	0.133569
581.766180	0.133575
581.977795	0.133588
582.189391	0.133968
582.400969	0.134211
582.612529	0.134276
582.824071	0.133980
583.035595	0.134166
583.247100	0.134466
583.458587	0.134537
583.670056	0.134988
583.881506	0.135106
584.092939	0.134611
584.304353	0.134797
584.515749	0.134882
584.727127	0.135402
584.938486	0.135402
585.149828	0.135385
585.361151	0.135560
585.572456	0.135720
585.783742	0.135820
585.995011	0.136166
586.206261	0.136108
586.417493	0.136379
586.628706	0.136098
586.839902	0.136157
587.051079	0.136298
587.262238	0.136442
587.473379	0.136290
587.684502	0.136466
587.895606	0.136446
588.106692	0.136712
588.317760	0.136771
588.528810	0.137004
588.739841	0.137343
588.950855	0.137432
589.161850	0.137290
589.372827	0.137443
589.583785	0.137594
589.794726	0.137791
590.005648	0.137662
590.216552	0.137537
590.427437	0.137082
590.638305	0.137255
590.849154	0.137416
591.059985	0.137831
591.270798	0.138136
591.481592	0.138173
591.692369	0.138183
591.903127	0.138307
592.113867	0.138596
592.324588	0.139231
592.535292	0.139038
592.745977	0.138804
592.956644	0.138690
593.167293	0.138733
593.377923	0.138802
593.588536	0.138736
593.799130	0.138832
594.009706	0.138857
594.220263	0.139152
594.430803	0.139449
594.641324	0.139872
594.851827	0.139892
595.062312	0.139710
595.272778	0.139447
595.483227	0.139666
595.693657	0.139762
595.904069	0.139730
596.114462	0.139588
596.324838	0.139554
596.535195	0.139334
596.745534	0.139577
596.955855	0.139958
597.166157	0.140226
597.376441	0.140501
597.586707	0.140394
597.796955	0.140405
598.007185	0.140557
598.217396	0.140810
598.427589	0.140858
598.637764	0.141042
598.847921	0.140836
599.058060	0.140993
599.268180	0.140880
599.478282	0.141062
599.688366	0.141242
599.898431	0.141214
600.108479	0.140852
600.318508	0.140935
600.528519	0.140853
600.738511	0.140975
600.948486	0.140665
601.158442	0.140770
601.368380	0.140662
601.578300	0.140702
601.788202	0.140628
601.998085	0.140798
602.207950	0.141001
602.417797	0.140942
602.627626	0.140829
602.837436	0.141213
603.047228	0.140900
603.257002	0.141342
603.466758	0.141394
603.676496	0.141775
603.886215	0.142013
604.095916	0.141973
604.305599	0.141833
604.515264	0.142028
604.724910	0.141866
604.934538	0.142336
605.144148	0.142202
605.353740	0.142432
605.563314	0.142366
605.772869	0.142459
605.982406	0.142800
606.191925	0.143291
606.401425	0.143599
606.610908	0.143683
606.820372	0.143681
607.029818	0.143902
607.239246	0.143838
607.448655	0.143698
607.658047	0.143725
607.867420	0.143611
608.076775	0.143121
608.286111	0.143048
608.495430	0.143318
608.704730	0.143413
608.914012	0.143470
609.123275	0.143814
609.332521	0.144254
609.541748	0.144394
609.750957	0.144467
609.960148	0.144808
610.169321	0.144712
610.378475	0.144778
610.587611	0.144690
610.796729	0.144681
611.005829	0.144503
611.214910	0.144209
611.423974	0.144061
611.633019	0.144213
611.842045	0.144440
612.051054	0.144831
612.260044	0.144924
612.469017	0.145135
612.677970	0.145164
612.886906	0.145213
613.095824	0.145603
613.304723	0.145649
613.513604	0.145766
613.722467	0.146021
613.931311	0.146128
614.140138	0.146040
614.348946	0.146162
614.557736	0.146398
614.766507	0.146348
614.975261	0.146180
615.183996	0.146431
615.392713	0.146607
615.601412	0.146380
615.810092	0.146503
616.018754	0.146746
616.227399	0.146734
616.436024	0.146846
616.644632	0.147017
616.853222	0.147128
617.061793	0.147201
617.270346	0.147038
617.478880	0.147439
617.687397	0.147256
617.895895	0.147617
618.104375	0.147779
618.312837	0.147730
618.521281	0.147874
618.729706	0.147944
618.938113	0.147737
619.146502	0.147937
619.354873	0.147562
619.563226	0.147721
619.771560	0.147510
619.979876	0.147709
620.188174	0.148000
620.396453	0.148278
620.604715	0.148538
620.812958	0.148857
621.021183	0.148748
621.229390	0.148944
621.437578	0.148741
621.645748	0.148726
621.853900	0.148625
622.062034	0.148496
622.270150	0.148195
622.478247	0.148352
622.686326	0.148250
622.894387	0.148382
623.102430	0.148797
623.310454	0.149385
623.518461	0.149569
623.726449	0.149669
623.934418	0.149815
624.142370	0.149996
624.350303	0.149869
624.558218	0.150141
624.766115	0.150305
624.973994	0.150152
625.181855	0.149911
625.389697	0.149993
625.597521	0.150193
625.805327	0.150025
626.013114	0.150293
626.220883	0.150344
626.428634	0.150492
626.636367	0.150442
626.844082	0.150333
627.051778	0.150176
627.259457	0.150017
627.467117	0.149806
627.674758	0.149710
627.882382	0.149733
628.089987	0.149682
628.297574	0.149395
628.505143	0.149415
628.712694	0.149645
628.920226	0.150121
629.127740	0.150494
629.335236	0.150529
629.542714	0.150830
629.750174	0.150923
629.957615	0.151144
630.165038	0.151439
630.372443	0.151331
630.579829	0.151307
630.787198	0.151236
630.994548	0.151352
631.201880	0.151550
631.409194	0.151660
631.616489	0.151574
631.823766	0.151835
632.031025	0.151828
632.238266	0.152002
632.445489	0.152152
632.652693	0.152072
632.859879	0.151979
633.067047	0.152203
633.274197	0.152143
633.481329	0.152435
633.688442	0.152575
633.895537	0.152646
634.102614	0.152867
634.309672	0.153071
634.516713	0.153153
634.723735	0.153251
634.930739	0.153298
635.137724	0.153642
635.344692	0.153356
635.551641	0.153220
635.758572	0.153638
635.965485	0.153862
636.172379	0.153814
636.379256	0.154158
636.586114	0.154326
636.792954	0.154360
636.999775	0.154355
637.206579	0.154634
637.413364	0.154705
637.620131	0.154538
637.826880	0.154559
638.033610	0.154859
638.240323	0.154861
638.447017	0.154758
638.653692	0.154675
638.860350	0.154646
639.066990	0.154946
639.273611	0.155167
639.480214	0.155379
639.686798	0.155359
639.893365	0.155414
640.099913	0.155441
640.306443	0.155691
640.512955	0.155822
640.719449	0.155870
640.925924	0.155683
641.132381	0.155942
641.338820	0.155928
641.545241	0.156097
641.751644	0.156141
641.958028	0.156351
642.164394	0.156326
642.370742	0.156600
642.577071	0.156676
642.783383	0.156897
642.989676	0.156604
643.195951	0.156548
643.402207	0.156591
643.608446	0.156556
643.814666	0.156508
644.020868	0.156443
644.227052	0.156427
644.433218	0.156448
644.639365	0.156540
644.845494	0.156439
645.051605	0.156613
645.257698	0.156502
645.463772	0.156562
645.669828	0.156623
645.875866	0.156916
646.081886	0.156996
646.287888	0.157389
646.493871	0.157413
646.699836	0.157695
646.905783	0.157902
647.111712	0.158196
647.317622	0.158210
647.523514	0.158291
647.729388	0.158223
647.935244	0.158127
648.141082	0.158113
648.346901	0.158074
648.552702	0.158071
648.758485	0.158137
648.964250	0.158215
649.169996	0.158452
649.375724	0.158596
649.581434	0.158718
649.787126	0.159019
649.992800	0.159029
650.198455	0.159132
650.404092	0.159413
650.609711	0.159490
650.815311	0.159687
651.020894	0.159711
651.226458	0.159765
651.432004	0.159993
651.637532	0.160145
651.843041	0.160474
652.048532	0.160644
652.254006	0.160878
652.459460	0.161198
652.664897	0.161322
652.870315	0.161510
653.075716	0.161621
653.281097	0.161686
653.486461	0.161670
653.691807	0.161609
653.897134	0.161866
654.102443	0.161879
654.307734	0.161869
654.513006	0.161981
654.718261	0.162334
654.923497	0.162458
655.128715	0.162649
655.333915	0.162842
655.539096	0.162988
655.744259	0.162982
655.949404	0.162997
656.154531	0.163107
656.359640	0.163206
656.564730	0.163026
656.769802	0.163002
656.974856	0.163115
657.179892	0.163386
657.384909	0.163588
657.589908	0.163681
657.794889	0.163757
657.999852	0.163727
658.204797	0.163870
658.409723	0.163945
658.614631	0.164343
658.819521	0.164332
659.024393	0.164127
659.229246	0.164015
659.434081	0.163855
659.638898	0.164166
659.843697	0.164328
660.048478	0.164261
660.253240	0.164424
660.457984	0.164320
660.662710	0.164652
660.867417	0.164683
661.072107	0.164976
661.276778	0.165545
661.481431	0.165540
661.686066	0.165547
661.890682	0.165520
662.095281	0.165689
662.299861	0.166106
662.504422	0.166129
662.708966	0.166512
662.913491	0.166555
663.117999	0.166523
663.322488	0.166603
663.526958	0.166917
663.731411	0.167467
663.935845	0.167694
664.140261	0.167829
664.344659	0.167940
664.549038	0.167877
664.753400	0.167979
664.957743	0.168313
665.162068	0.168554
665.366375	0.168572
665.570663	0.168597
665.774933	0.168716
665.979185	0.168661
666.183419	0.168832
666.387635	0.168887
666.591832	0.168940
666.796011	0.168704
667.000172	0.168566
667.204315	0.168706
667.408439	0.168540
667.612545	0.168573
667.816634	0.168565
668.020703	0.168448
668.224755	0.168799
668.428788	0.169106
668.632803	0.169581
668.836800	0.169804
669.040779	0.169784
669.244739	0.169990
669.448681	0.169833
669.652605	0.169885
669.856511	0.170081
670.060399	0.170163
670.264268	0.170030
670.468119	0.169762
670.671952	0.169782
670.875767	0.169651
671.079563	0.169801
671.283341	0.170132
671.487101	0.170176
671.690843	0.170185
671.894567	0.170080
672.098272	0.170224
672.301959	0.170367
672.505628	0.170500
672.709278	0.170804
672.912911	0.170707
673.116525	0.170485
673.320121	0.170686
673.523699	0.170869
673.727258	0.171066
673.930799	0.171124
674.134322	0.171171
674.337827	0.171236
674.541314	0.171411
674.744782	0.171707
674.948232	0.171840
675.151664	0.172076
675.355078	0.172141
675.558474	0.172428
675.761851	0.172603
675.965210	0.172744
676.168551	0.173030
676.371873	0.173320
676.575178	0.173343
676.778464	0.173687
676.981732	0.173719
677.184981	0.173910
677.388213	0.173724
677.591426	0.173928
677.794621	0.174179
677.997798	0.174075
678.200956	0.173933
678.404097	0.174087
678.607219	0.174024
678.810323	0.174029
679.013408	0.173992
679.216476	0.174387
679.419525	0.174467
679.622556	0.174515
679.825569	0.174783
680.028563	0.174853
680.231540	0.175009
680.434498	0.175176
680.637438	0.175514
680.840359	0.175593
681.043263	0.175567
681.246148	0.175615
681.449015	0.175740
681.651864	0.175774
681.854694	0.175870
682.057506	0.175747
682.260301	0.175935
682.463076	0.175729
682.665834	0.175872
682.868573	0.175897
683.071295	0.175994
683.273998	0.175945
683.476682	0.176166
683.679349	0.176511
683.881997	0.176746
684.084627	0.176957
684.287239	0.177297
684.489833	0.177305
684.692408	0.177539
684.894965	0.177799
685.097504	0.178109
685.300025	0.178322
685.502527	0.178301
685.705012	0.178208
685.907478	0.178258
686.109925	0.178129
686.312355	0.178254
686.514766	0.178216
686.717159	0.178132
686.919534	0.177986
687.121891	0.177669
687.324230	0.177617
687.526550	0.177762
687.728852	0.177860
687.931136	0.178004
688.133401	0.178141
688.335649	0.178408
688.537878	0.178483
688.740089	0.178793
688.942281	0.178983
689.144456	0.179281
689.346612	0.179512
689.548750	0.179538
689.750870	0.179716
689.952971	0.179689
690.155055	0.179578
690.357120	0.179692
690.559167	0.179633
690.761195	0.179658
690.963206	0.179596
691.165198	0.179602
691.367172	0.179583
691.569128	0.179552
691.771065	0.179916
691.972984	0.180036
692.174885	0.180113
692.376768	0.180126
692.578633	0.180175
692.780479	0.180023
692.982308	0.180168
693.184118	0.180334
693.385909	0.180105
