sample name	sample
index	1491
start time	 05-18-2021  01:04:50 PM


Wavelength (nm)	Absorbance
494.344910	-0.298520
494.563924	-0.298520
494.782919	-0.298520
495.001897	-0.046941
495.220856	-0.125895
495.439797	-0.082650
495.658719	-0.016757
495.877624	0.051323
496.096510	0.051329
496.315378	0.106834
496.534227	0.187229
496.753059	0.136510
496.971872	0.134267
497.190667	0.079961
497.409444	0.068121
497.628203	0.063834
497.846943	0.063930
498.065665	0.064026
498.284369	0.065707
498.503055	0.065732
498.721723	0.065608
498.940372	0.065019
499.159003	0.064576
499.377616	0.065314
499.596210	0.065704
499.814787	0.066103
500.033345	0.066585
500.251885	0.064754
500.470406	0.064450
500.688910	0.063899
500.907395	0.064278
501.125862	0.064190
501.344311	0.063208
501.562742	0.063323
501.781154	0.062615
501.999548	0.062188
502.217924	0.061991
502.436282	0.061866
502.654621	0.062577
502.872942	0.063473
503.091245	0.064026
503.309530	0.065255
503.527797	0.064396
503.746045	0.064270
503.964275	0.064694
504.182487	0.065287
504.400681	0.065627
504.618856	0.065825
504.837013	0.065358
505.055152	0.065601
505.273273	0.065007
505.491376	0.065557
505.709460	0.067241
505.927526	0.066183
506.145574	0.067102
506.363604	0.067144
506.581615	0.067311
506.799608	0.067052
507.017583	0.066172
507.235540	0.067290
507.453478	0.067797
507.671399	0.066984
507.889301	0.068572
508.107185	0.068103
508.325050	0.068367
508.542898	0.068389
508.760727	0.068546
508.978538	0.068411
509.196330	0.067983
509.414105	0.068919
509.631861	0.069634
509.849599	0.069363
510.067319	0.070126
510.285021	0.069907
510.502704	0.070174
510.720369	0.071361
510.938016	0.072534
511.155645	0.072004
511.373255	0.071312
511.590848	0.071182
511.808422	0.071767
512.025977	0.071245
512.243515	0.072000
512.461034	0.072186
512.678536	0.071749
512.896018	0.071980
513.113483	0.072451
513.330930	0.072166
513.548358	0.072344
513.765768	0.072000
513.983160	0.072497
514.200533	0.072740
514.417889	0.073167
514.635226	0.073127
514.852545	0.072883
515.069845	0.073332
515.287128	0.073824
515.504392	0.074473
515.721638	0.074463
515.938866	0.074332
516.156075	0.074288
516.373267	0.074625
516.590440	0.075099
516.807594	0.075302
517.024731	0.075679
517.241850	0.076226
517.458950	0.076084
517.676032	0.076103
517.893095	0.076528
518.110141	0.076827
518.327168	0.076842
518.544177	0.076083
518.761168	0.076603
518.978141	0.075769
519.195095	0.076140
519.412031	0.075666
519.628949	0.076390
519.845849	0.076516
520.062731	0.075610
520.279594	0.075838
520.496439	0.076547
520.713266	0.076359
520.930074	0.077570
521.146865	0.077710
521.363637	0.077541
521.580391	0.077608
521.797127	0.077497
522.013844	0.078769
522.230543	0.078846
522.447224	0.079622
522.663887	0.080255
522.880532	0.079747
523.097158	0.079143
523.313766	0.079820
523.530356	0.080251
523.746928	0.080377
523.963481	0.080387
524.180017	0.081002
524.396534	0.080514
524.613032	0.080302
524.829513	0.080380
525.045975	0.080701
525.262420	0.080785
525.478845	0.080492
525.695253	0.080895
525.911643	0.080660
526.128014	0.080553
526.344367	0.080791
526.560702	0.081371
526.777018	0.081656
526.993316	0.082083
527.209597	0.081907
527.425858	0.082363
527.642102	0.082635
527.858328	0.083076
528.074535	0.082718
528.290724	0.082703
528.506894	0.082790
528.723047	0.083118
528.939181	0.083385
529.155297	0.083789
529.371395	0.083966
529.587475	0.084382
529.803536	0.084402
530.019579	0.084215
530.235604	0.084829
530.451611	0.085033
530.667600	0.085473
530.883570	0.084996
531.099522	0.085988
531.315456	0.086294
531.531372	0.086133
531.747269	0.086025
531.963148	0.086624
532.179009	0.086876
532.394852	0.087142
532.610676	0.087522
532.826482	0.088112
533.042271	0.088401
533.258040	0.088981
533.473792	0.089879
533.689525	0.090474
533.905240	0.091027
534.120937	0.091231
534.336616	0.091419
534.552277	0.091104
534.767919	0.091547
534.983543	0.091418
535.199149	0.091467
535.414736	0.091471
535.630306	0.092371
535.845857	0.092453
536.061390	0.092371
536.276904	0.092391
536.492401	0.092831
536.707879	0.093415
536.923339	0.093535
537.138781	0.093681
537.354204	0.093493
537.569610	0.093088
537.784997	0.093448
538.000366	0.093867
538.215716	0.093784
538.431049	0.093864
538.646363	0.093520
538.861659	0.093735
539.076937	0.093689
539.292196	0.093631
539.507438	0.093810
539.722661	0.093996
539.937866	0.094241
540.153052	0.095077
540.368221	0.095579
540.583371	0.096240
540.798503	0.096746
541.013617	0.097001
541.228712	0.097914
541.443789	0.098386
541.658848	0.098475
541.873889	0.098587
542.088912	0.098973
542.303916	0.098769
542.518902	0.098600
542.733870	0.098395
542.948820	0.098866
543.163752	0.098723
543.378665	0.099011
543.593560	0.099586
543.808437	0.099782
544.023295	0.099419
544.238136	0.099924
544.452958	0.100432
544.667762	0.100610
544.882548	0.100364
545.097315	0.100815
545.312064	0.100950
545.526795	0.100878
545.741508	0.101154
545.956203	0.101447
546.170879	0.101532
546.385537	0.101322
546.600177	0.101894
546.814799	0.102388
547.029402	0.102369
547.243988	0.102414
547.458555	0.102774
547.673103	0.103156
547.887634	0.103453
548.102146	0.104046
548.316640	0.104559
548.531116	0.104259
548.745574	0.104279
548.960013	0.104680
549.174435	0.104828
549.388838	0.104775
549.603222	0.105187
549.817589	0.105440
550.031937	0.105835
550.246267	0.105990
550.460579	0.106800
550.674873	0.107515
550.889148	0.107134
551.103405	0.107437
551.317644	0.107603
551.531865	0.107107
551.746068	0.107347
551.960252	0.107342
552.174418	0.107612
552.388566	0.107167
552.602696	0.106900
552.816807	0.107582
553.030900	0.107705
553.244975	0.108205
553.459032	0.108618
553.673070	0.108865
553.887091	0.108554
554.101093	0.108827
554.315077	0.109421
554.529042	0.109780
554.742990	0.109590
554.956919	0.109848
555.170830	0.109983
555.384722	0.110096
555.598597	0.109910
555.812453	0.110157
556.026291	0.110250
556.240111	0.110285
556.453913	0.109930
556.667696	0.110585
556.881461	0.110530
557.095208	0.110254
557.308937	0.110668
557.522647	0.110897
557.736339	0.111317
557.950013	0.111224
558.163669	0.111754
558.377307	0.112245
558.590926	0.112293
558.804527	0.112563
559.018110	0.113356
559.231675	0.113397
559.445221	0.114222
559.658749	0.114407
559.872259	0.114680
560.085751	0.114390
560.299225	0.114636
560.512680	0.114674
560.726117	0.115229
560.939536	0.115132
561.152937	0.115384
561.366319	0.114937
561.579683	0.115105
561.793029	0.115478
562.006357	0.115729
562.219667	0.115954
562.432958	0.116059
562.646231	0.115771
562.859486	0.116128
563.072723	0.116208
563.285941	0.116493
563.499141	0.116501
563.712323	0.116857
563.925487	0.117011
564.138632	0.117124
564.351760	0.117575
564.564869	0.118040
564.777960	0.118223
564.991032	0.118602
565.204087	0.118696
565.417123	0.119316
565.630141	0.119578
565.843140	0.119884
566.056122	0.120270
566.269085	0.120474
566.482030	0.121107
566.694957	0.121321
566.907866	0.121443
567.120756	0.121619
567.333628	0.121592
567.546482	0.121190
567.759318	0.121392
567.972135	0.121742
568.184935	0.121658
568.397716	0.121658
568.610478	0.121545
568.823223	0.121953
569.035949	0.122391
569.248657	0.122638
569.461347	0.122904
569.674019	0.122877
569.886672	0.122612
570.099308	0.123036
570.311925	0.122811
570.524523	0.122890
570.737104	0.122816
570.949666	0.123100
571.162210	0.123144
571.374736	0.123222
571.587244	0.123690
571.799733	0.123783
572.012205	0.123960
572.224658	0.124280
572.437092	0.124655
572.649509	0.125140
572.861907	0.125170
573.074287	0.125405
573.286649	0.125970
573.498993	0.125880
573.711318	0.126254
573.923625	0.126584
574.135914	0.126856
574.348185	0.127068
574.560438	0.126791
574.772672	0.126725
574.984888	0.126912
575.197086	0.127382
575.409266	0.127845
575.621427	0.128265
575.833570	0.128139
576.045695	0.128398
576.257802	0.128301
576.469890	0.128512
576.681961	0.128850
576.894013	0.129015
577.106046	0.128964
577.318062	0.128912
577.530059	0.129226
577.742039	0.129477
577.954000	0.129349
578.165942	0.129701
578.377867	0.129902
578.589773	0.129566
578.801661	0.129639
579.013531	0.129858
579.225382	0.130230
579.437216	0.130309
579.649031	0.130450
579.860828	0.130381
580.072606	0.130731
580.284367	0.130948
580.496109	0.131579
580.707833	0.131378
580.919539	0.131011
581.131227	0.130878
581.342896	0.130645
581.554547	0.130898
581.766180	0.131304
581.977795	0.131201
582.189391	0.131345
582.400969	0.131307
582.612529	0.131687
582.824071	0.132023
583.035595	0.132258
583.247100	0.132590
583.458587	0.132860
583.670056	0.133005
583.881506	0.133245
584.092939	0.133432
584.304353	0.133932
584.515749	0.134317
584.727127	0.134957
584.938486	0.135035
585.149828	0.135182
585.361151	0.135414
585.572456	0.135737
585.783742	0.135926
585.995011	0.136265
586.206261	0.136301
586.417493	0.136214
586.628706	0.136125
586.839902	0.136635
587.051079	0.136731
587.262238	0.136343
587.473379	0.136739
587.684502	0.136718
587.895606	0.136728
588.106692	0.136650
588.317760	0.136955
588.528810	0.136770
588.739841	0.136520
588.950855	0.136616
589.161850	0.137241
589.372827	0.137349
589.583785	0.137927
589.794726	0.138365
590.005648	0.138790
590.216552	0.138985
590.427437	0.139343
590.638305	0.139850
590.849154	0.140367
591.059985	0.140188
591.270798	0.140046
591.481592	0.140287
591.692369	0.140339
591.903127	0.140962
592.113867	0.140970
592.324588	0.141397
592.535292	0.141251
592.745977	0.141464
592.956644	0.141679
593.167293	0.142159
593.377923	0.142226
593.588536	0.142290
593.799130	0.142165
594.009706	0.142224
594.220263	0.142160
594.430803	0.142438
594.641324	0.142270
594.851827	0.142637
595.062312	0.142541
595.272778	0.142433
595.483227	0.142562
595.693657	0.142676
595.904069	0.142847
596.114462	0.142841
596.324838	0.143274
596.535195	0.143368
596.745534	0.143267
596.955855	0.143284
597.166157	0.143739
597.376441	0.143864
597.586707	0.143827
597.796955	0.144320
598.007185	0.144727
598.217396	0.144631
598.427589	0.144878
598.637764	0.145307
598.847921	0.145615
599.058060	0.145449
599.268180	0.145295
599.478282	0.145390
599.688366	0.145339
599.898431	0.145397
600.108479	0.145323
600.318508	0.145571
600.528519	0.145503
600.738511	0.145541
600.948486	0.145479
601.158442	0.145881
601.368380	0.146126
601.578300	0.146307
601.788202	0.146431
601.998085	0.147048
602.207950	0.147168
602.417797	0.147457
602.627626	0.147642
602.837436	0.148187
603.047228	0.148373
603.257002	0.148731
603.466758	0.148803
603.676496	0.149011
603.886215	0.148669
604.095916	0.148646
604.305599	0.148724
604.515264	0.148888
604.724910	0.148524
604.934538	0.148593
605.144148	0.148519
605.353740	0.148785
605.563314	0.148806
605.772869	0.149030
605.982406	0.149311
606.191925	0.149440
606.401425	0.149550
606.610908	0.150084
606.820372	0.150285
607.029818	0.150397
607.239246	0.150545
607.448655	0.150808
607.658047	0.151100
607.867420	0.151166
608.076775	0.151156
608.286111	0.151287
608.495430	0.151455
608.704730	0.151784
608.914012	0.151961
609.123275	0.152052
609.332521	0.152258
609.541748	0.152312
609.750957	0.152497
609.960148	0.153054
610.169321	0.153292
610.378475	0.153263
610.587611	0.153226
610.796729	0.153242
611.005829	0.153542
611.214910	0.153224
611.423974	0.153492
611.633019	0.153496
611.842045	0.153474
612.051054	0.153679
612.260044	0.153937
612.469017	0.154229
612.677970	0.154270
612.886906	0.154168
613.095824	0.154697
613.304723	0.154792
613.513604	0.154812
613.722467	0.154830
613.931311	0.154860
614.140138	0.155000
614.348946	0.154950
614.557736	0.155008
614.766507	0.155247
614.975261	0.155176
615.183996	0.155445
615.392713	0.155565
615.601412	0.155614
615.810092	0.155755
616.018754	0.155775
616.227399	0.155878
616.436024	0.156083
616.644632	0.156046
616.853222	0.156270
617.061793	0.156112
617.270346	0.156095
617.478880	0.156228
617.687397	0.156295
617.895895	0.156315
618.104375	0.156270
618.312837	0.156581
618.521281	0.156932
618.729706	0.156926
618.938113	0.157133
619.146502	0.157596
619.354873	0.157626
619.563226	0.157713
619.771560	0.158022
619.979876	0.158415
620.188174	0.158369
620.396453	0.158491
620.604715	0.158673
620.812958	0.158902
621.021183	0.159134
621.229390	0.159582
621.437578	0.159782
621.645748	0.159840
621.853900	0.159994
622.062034	0.160179
622.270150	0.160233
622.478247	0.160389
622.686326	0.160551
622.894387	0.160503
623.102430	0.160517
623.310454	0.160560
623.518461	0.160625
623.726449	0.160513
623.934418	0.160777
624.142370	0.160789
624.350303	0.160908
624.558218	0.160720
624.766115	0.160769
624.973994	0.160708
625.181855	0.160960
625.389697	0.161003
625.597521	0.161278
625.805327	0.161203
626.013114	0.161443
626.220883	0.161619
626.428634	0.162037
626.636367	0.162252
626.844082	0.162730
627.051778	0.162741
627.259457	0.162854
627.467117	0.163142
627.674758	0.163662
627.882382	0.163848
628.089987	0.163973
628.297574	0.164231
628.505143	0.164630
628.712694	0.164833
628.920226	0.165175
629.127740	0.165580
629.335236	0.165653
629.542714	0.165749
629.750174	0.165942
629.957615	0.166167
630.165038	0.166413
630.372443	0.166412
630.579829	0.166448
630.787198	0.166522
630.994548	0.166679
631.201880	0.166784
631.409194	0.166991
631.616489	0.167042
631.823766	0.167201
632.031025	0.167261
632.238266	0.167484
632.445489	0.167205
632.652693	0.167283
632.859879	0.167335
633.067047	0.167582
633.274197	0.167484
633.481329	0.167706
633.688442	0.167971
633.895537	0.168015
634.102614	0.168146
634.309672	0.168533
634.516713	0.168781
634.723735	0.169115
634.930739	0.169269
635.137724	0.169522
635.344692	0.169611
635.551641	0.169857
635.758572	0.169901
635.965485	0.170001
636.172379	0.170192
636.379256	0.170209
636.586114	0.170258
636.792954	0.170008
636.999775	0.170021
637.206579	0.170012
637.413364	0.169929
637.620131	0.169988
637.826880	0.169872
638.033610	0.170075
638.240323	0.170248
638.447017	0.170271
638.653692	0.170836
638.860350	0.170991
639.066990	0.171356
639.273611	0.171359
639.480214	0.171521
639.686798	0.171816
639.893365	0.172085
640.099913	0.172154
640.306443	0.172442
640.512955	0.172279
640.719449	0.172207
640.925924	0.172141
641.132381	0.172442
641.338820	0.172524
641.545241	0.172851
641.751644	0.172868
641.958028	0.173059
642.164394	0.173133
642.370742	0.173339
642.577071	0.173624
642.783383	0.173810
642.989676	0.173908
643.195951	0.174135
643.402207	0.174226
643.608446	0.174188
643.814666	0.174161
644.020868	0.174141
644.227052	0.174317
644.433218	0.174406
644.639365	0.174622
644.845494	0.174639
645.051605	0.174736
645.257698	0.174667
645.463772	0.175129
645.669828	0.175339
645.875866	0.175600
646.081886	0.175582
646.287888	0.175742
646.493871	0.175808
646.699836	0.175905
646.905783	0.175814
647.111712	0.176319
647.317622	0.176411
647.523514	0.176604
647.729388	0.176785
647.935244	0.176964
648.141082	0.177264
648.346901	0.177455
648.552702	0.177900
648.758485	0.178481
648.964250	0.178344
649.169996	0.178316
649.375724	0.178649
649.581434	0.178848
649.787126	0.179312
649.992800	0.179329
650.198455	0.179666
650.404092	0.180099
650.609711	0.180270
650.815311	0.180755
651.020894	0.180988
651.226458	0.180980
651.432004	0.181052
651.637532	0.181122
651.843041	0.181428
652.048532	0.181420
652.254006	0.181003
652.459460	0.181137
652.664897	0.181136
652.870315	0.181397
653.075716	0.181676
653.281097	0.181929
653.486461	0.182239
653.691807	0.182369
653.897134	0.182683
654.102443	0.183442
654.307734	0.183744
654.513006	0.184029
654.718261	0.184139
654.923497	0.184198
655.128715	0.184560
655.333915	0.184771
655.539096	0.185082
655.744259	0.185156
655.949404	0.184907
656.154531	0.184784
656.359640	0.184800
656.564730	0.185340
656.769802	0.185433
656.974856	0.185422
657.179892	0.185457
657.384909	0.185487
657.589908	0.185656
657.794889	0.186105
657.999852	0.186436
658.204797	0.186465
658.409723	0.186329
658.614631	0.186804
658.819521	0.187049
659.024393	0.187127
659.229246	0.187271
659.434081	0.187642
659.638898	0.187705
659.843697	0.187992
660.048478	0.188591
660.253240	0.188626
660.457984	0.188701
660.662710	0.188896
660.867417	0.189276
661.072107	0.189647
661.276778	0.189748
661.481431	0.190056
661.686066	0.190256
661.890682	0.190175
662.095281	0.190644
662.299861	0.190806
662.504422	0.190793
662.708966	0.191069
662.913491	0.191027
663.117999	0.191130
663.322488	0.191167
663.526958	0.191247
663.731411	0.191563
663.935845	0.191562
664.140261	0.191866
664.344659	0.191996
664.549038	0.191836
664.753400	0.192260
664.957743	0.192685
665.162068	0.192764
665.366375	0.193042
665.570663	0.193082
665.774933	0.193199
665.979185	0.193293
666.183419	0.193644
666.387635	0.194006
666.591832	0.194256
666.796011	0.194478
667.000172	0.194880
667.204315	0.195088
667.408439	0.195219
667.612545	0.195434
667.816634	0.195690
668.020703	0.195919
668.224755	0.196065
668.428788	0.196049
668.632803	0.196099
668.836800	0.196061
669.040779	0.196273
669.244739	0.196212
669.448681	0.196473
669.652605	0.196604
669.856511	0.196709
670.060399	0.196877
670.264268	0.196984
670.468119	0.197021
670.671952	0.197286
670.875767	0.197462
671.079563	0.197936
671.283341	0.198154
671.487101	0.198292
671.690843	0.198725
671.894567	0.199027
672.098272	0.199442
672.301959	0.199634
672.505628	0.199907
672.709278	0.200224
672.912911	0.200674
673.116525	0.200937
673.320121	0.201259
673.523699	0.201345
673.727258	0.201529
673.930799	0.201694
674.134322	0.202030
674.337827	0.202221
674.541314	0.202309
674.744782	0.202335
674.948232	0.202613
675.151664	0.202770
675.355078	0.202807
675.558474	0.202947
675.761851	0.203073
675.965210	0.203069
676.168551	0.203137
676.371873	0.203370
676.575178	0.203517
676.778464	0.203564
676.981732	0.204014
677.184981	0.204462
677.388213	0.204786
677.591426	0.204840
677.794621	0.204985
677.997798	0.205257
678.200956	0.205291
678.404097	0.205481
678.607219	0.205566
678.810323	0.205399
679.013408	0.205564
679.216476	0.205893
679.419525	0.205994
679.622556	0.206265
679.825569	0.206532
680.028563	0.206767
680.231540	0.207128
680.434498	0.207735
680.637438	0.207980
680.840359	0.208262
681.043263	0.208213
681.246148	0.208670
681.449015	0.209020
681.651864	0.209296
681.854694	0.209120
682.057506	0.209068
682.260301	0.208991
682.463076	0.209195
682.665834	0.209002
682.868573	0.209262
683.071295	0.209254
683.273998	0.209317
683.476682	0.209400
683.679349	0.209953
683.881997	0.210311
684.084627	0.210272
684.287239	0.210399
684.489833	0.210675
684.692408	0.210555
684.894965	0.210877
685.097504	0.211013
685.300025	0.211053
685.502527	0.211032
685.705012	0.210939
685.907478	0.211265
686.109925	0.211413
686.312355	0.211563
686.514766	0.211868
686.717159	0.212125
686.919534	0.212314
687.121891	0.212295
687.324230	0.212561
687.526550	0.212581
687.728852	0.212404
687.931136	0.212541
688.133401	0.212637
688.335649	0.212820
688.537878	0.212944
688.740089	0.213023
688.942281	0.213148
689.144456	0.213251
689.346612	0.213481
689.548750	0.213952
689.750870	0.214198
689.952971	0.214444
690.155055	0.214617
690.357120	0.214459
690.559167	0.214704
690.761195	0.214985
690.963206	0.215310
691.165198	0.215620
691.367172	0.215742
691.569128	0.215786
691.771065	0.215932
691.972984	0.216044
692.174885	0.216527
692.376768	0.216644
692.578633	0.216959
692.780479	0.216852
692.982308	0.217087
693.184118	0.217166
693.385909	0.217398
