sample name	sample
index	59
start time	 02-11-2021  03:02:44 PM


Wavelength (nm)	Absorbance
494.344910	-1.406540
494.563924	-1.406540
494.782919	-1.406540
495.001897	-0.876619
495.220856	-0.362921
495.439797	-0.316832
495.658719	-0.082886
495.877624	0.090904
496.096510	-0.082850
496.315378	-0.032587
496.534227	0.043466
496.753059	0.207953
496.971872	0.203398
497.190667	0.143447
497.409444	0.138376
497.628203	0.139506
497.846943	0.135211
498.065665	0.131359
498.284369	0.127303
498.503055	0.125604
498.721723	0.126441
498.940372	0.126201
499.159003	0.125176
499.377616	0.124887
499.596210	0.125065
499.814787	0.126131
500.033345	0.126849
500.251885	0.131031
500.470406	0.133234
500.688910	0.132538
500.907395	0.135560
501.125862	0.136246
501.344311	0.137935
501.562742	0.137867
501.781154	0.139107
501.999548	0.139865
502.217924	0.136346
502.436282	0.135460
502.654621	0.137084
502.872942	0.137310
503.091245	0.137189
503.309530	0.135984
503.527797	0.135071
503.746045	0.135123
503.964275	0.135148
504.182487	0.136148
504.400681	0.138187
504.618856	0.137771
504.837013	0.136073
505.055152	0.135067
505.273273	0.134936
505.491376	0.136321
505.709460	0.135548
505.927526	0.135260
506.145574	0.136271
506.363604	0.134826
506.581615	0.135043
506.799608	0.135297
507.017583	0.138586
507.235540	0.138968
507.453478	0.138128
507.671399	0.138445
507.889301	0.140506
508.107185	0.140584
508.325050	0.141232
508.542898	0.139209
508.760727	0.139920
508.978538	0.137386
509.196330	0.137793
509.414105	0.138237
509.631861	0.138725
509.849599	0.137408
510.067319	0.136979
510.285021	0.138457
510.502704	0.140779
510.720369	0.142149
510.938016	0.143579
511.155645	0.142885
511.373255	0.141692
511.590848	0.142280
511.808422	0.141328
512.025977	0.142006
512.243515	0.140204
512.461034	0.137900
512.678536	0.136783
512.896018	0.135968
513.113483	0.135740
513.330930	0.138206
513.548358	0.137302
513.765768	0.137251
513.983160	0.137376
514.200533	0.137390
514.417889	0.138322
514.635226	0.138456
514.852545	0.138622
515.069845	0.139285
515.287128	0.138831
515.504392	0.138698
515.721638	0.138836
515.938866	0.138261
516.156075	0.139168
516.373267	0.140171
516.590440	0.141062
516.807594	0.140920
517.024731	0.141421
517.241850	0.141777
517.458950	0.142114
517.676032	0.142874
517.893095	0.143835
518.110141	0.144028
518.327168	0.144300
518.544177	0.142933
518.761168	0.144450
518.978141	0.144725
519.195095	0.144829
519.412031	0.143928
519.628949	0.145457
519.845849	0.144363
520.062731	0.145450
520.279594	0.145939
520.496439	0.146454
520.713266	0.145661
520.930074	0.145130
521.146865	0.144484
521.363637	0.145044
521.580391	0.143762
521.797127	0.144402
522.013844	0.143749
522.230543	0.144301
522.447224	0.144681
522.663887	0.146125
522.880532	0.146492
523.097158	0.145739
523.313766	0.146456
523.530356	0.146532
523.746928	0.147830
523.963481	0.148323
524.180017	0.148528
524.396534	0.148127
524.613032	0.148407
524.829513	0.148591
525.045975	0.151092
525.262420	0.152234
525.478845	0.153551
525.695253	0.153379
525.911643	0.153601
526.128014	0.153540
526.344367	0.155214
526.560702	0.153775
526.777018	0.154803
526.993316	0.154532
527.209597	0.154435
527.425858	0.154473
527.642102	0.155278
527.858328	0.154613
528.074535	0.155057
528.290724	0.154944
528.506894	0.154568
528.723047	0.153692
528.939181	0.153553
529.155297	0.153052
529.371395	0.154172
529.587475	0.153217
529.803536	0.154747
530.019579	0.154486
530.235604	0.154690
530.451611	0.155799
530.667600	0.157323
530.883570	0.157357
531.099522	0.157893
531.315456	0.157515
531.531372	0.158515
531.747269	0.158297
531.963148	0.158513
532.179009	0.159379
532.394852	0.160893
532.610676	0.161480
532.826482	0.161744
533.042271	0.162177
533.258040	0.161591
533.473792	0.162211
533.689525	0.161926
533.905240	0.162392
534.120937	0.161493
534.336616	0.161121
534.552277	0.160826
534.767919	0.160593
534.983543	0.161320
535.199149	0.161758
535.414736	0.160962
535.630306	0.162063
535.845857	0.162654
536.061390	0.164202
536.276904	0.165323
536.492401	0.165813
536.707879	0.165541
536.923339	0.165644
537.138781	0.166550
537.354204	0.167707
537.569610	0.168131
537.784997	0.168673
538.000366	0.168209
538.215716	0.168817
538.431049	0.169174
538.646363	0.170535
538.861659	0.170675
539.076937	0.170676
539.292196	0.170829
539.507438	0.170155
539.722661	0.169958
539.937866	0.169652
540.153052	0.168485
540.368221	0.168170
540.583371	0.168403
540.798503	0.168309
541.013617	0.168901
541.228712	0.168734
541.443789	0.169293
541.658848	0.168940
541.873889	0.169368
542.088912	0.169589
542.303916	0.169857
542.518902	0.169687
542.733870	0.170568
542.948820	0.170028
543.163752	0.170705
543.378665	0.170606
543.593560	0.170945
543.808437	0.172461
544.023295	0.173041
544.238136	0.173106
544.452958	0.174735
544.667762	0.175517
544.882548	0.176491
545.097315	0.176591
545.312064	0.177830
545.526795	0.178381
545.741508	0.177653
545.956203	0.177331
546.170879	0.177391
546.385537	0.176679
546.600177	0.176716
546.814799	0.176625
547.029402	0.176770
547.243988	0.176174
547.458555	0.176687
547.673103	0.176475
547.887634	0.176440
548.102146	0.176712
548.316640	0.176673
548.531116	0.175917
548.745574	0.175436
548.960013	0.175882
549.174435	0.176839
549.388838	0.176745
549.603222	0.176833
549.817589	0.177895
550.031937	0.179032
550.246267	0.178736
550.460579	0.179081
550.674873	0.180376
550.889148	0.180580
551.103405	0.180791
551.317644	0.181314
551.531865	0.181920
551.746068	0.181518
551.960252	0.181668
552.174418	0.181873
552.388566	0.182082
552.602696	0.181756
552.816807	0.181820
553.030900	0.181742
553.244975	0.181740
553.459032	0.181629
553.673070	0.182136
553.887091	0.181993
554.101093	0.182965
554.315077	0.183743
554.529042	0.183817
554.742990	0.184303
554.956919	0.184065
555.170830	0.183871
555.384722	0.184468
555.598597	0.184459
555.812453	0.184300
556.026291	0.183538
556.240111	0.182797
556.453913	0.182777
556.667696	0.182317
556.881461	0.182231
557.095208	0.182381
557.308937	0.182720
557.522647	0.182925
557.736339	0.182987
557.950013	0.183762
558.163669	0.184080
558.377307	0.184873
558.590926	0.185305
558.804527	0.185828
559.018110	0.185864
559.231675	0.185559
559.445221	0.185134
559.658749	0.186092
559.872259	0.186581
560.085751	0.186704
560.299225	0.186542
560.512680	0.186752
560.726117	0.186896
560.939536	0.187392
561.152937	0.187441
561.366319	0.188508
561.579683	0.188120
561.793029	0.187821
562.006357	0.187931
562.219667	0.188040
562.432958	0.188051
562.646231	0.187895
562.859486	0.186753
563.072723	0.187418
563.285941	0.187115
563.499141	0.187454
563.712323	0.187834
563.925487	0.188003
564.138632	0.188792
564.351760	0.189000
564.564869	0.189478
564.777960	0.190083
564.991032	0.190201
565.204087	0.189879
565.417123	0.189030
565.630141	0.189389
565.843140	0.189858
566.056122	0.189223
566.269085	0.189651
566.482030	0.189956
566.694957	0.190751
566.907866	0.190699
567.120756	0.191222
567.333628	0.192054
567.546482	0.192030
567.759318	0.191161
567.972135	0.191733
568.184935	0.191907
568.397716	0.192301
568.610478	0.192532
568.823223	0.192540
569.035949	0.192861
569.248657	0.193187
569.461347	0.193633
569.674019	0.194867
569.886672	0.194744
570.099308	0.194674
570.311925	0.194187
570.524523	0.193945
570.737104	0.194428
570.949666	0.194497
571.162210	0.194173
571.374736	0.194141
571.587244	0.193722
571.799733	0.193365
572.012205	0.193308
572.224658	0.193435
572.437092	0.193708
572.649509	0.194311
572.861907	0.194598
573.074287	0.194894
573.286649	0.194722
573.498993	0.195641
573.711318	0.196352
573.923625	0.197323
574.135914	0.196867
574.348185	0.196814
574.560438	0.196567
574.772672	0.196520
574.984888	0.197034
575.197086	0.197521
575.409266	0.197294
575.621427	0.196873
575.833570	0.195890
576.045695	0.196313
576.257802	0.197057
576.469890	0.196970
576.681961	0.197558
576.894013	0.197137
577.106046	0.196943
577.318062	0.196096
577.530059	0.196352
577.742039	0.196630
577.954000	0.197252
578.165942	0.197308
578.377867	0.197378
578.589773	0.197460
578.801661	0.197602
579.013531	0.197594
579.225382	0.198741
579.437216	0.199110
579.649031	0.199985
579.860828	0.199667
580.072606	0.199566
580.284367	0.199480
580.496109	0.199189
580.707833	0.199219
580.919539	0.199727
581.131227	0.199993
581.342896	0.199955
581.554547	0.199726
581.766180	0.200257
581.977795	0.200508
582.189391	0.200977
582.400969	0.201350
582.612529	0.201704
582.824071	0.201574
583.035595	0.202174
583.247100	0.203297
583.458587	0.203066
583.670056	0.203574
583.881506	0.202897
584.092939	0.203393
584.304353	0.203219
584.515749	0.204201
584.727127	0.204720
584.938486	0.204558
585.149828	0.204655
585.361151	0.204858
585.572456	0.204593
585.783742	0.205632
585.995011	0.204951
586.206261	0.205399
586.417493	0.204879
586.628706	0.204909
586.839902	0.204610
587.051079	0.203688
587.262238	0.203990
587.473379	0.204481
587.684502	0.205062
587.895606	0.205393
588.106692	0.205274
588.317760	0.205678
588.528810	0.205520
588.739841	0.205951
588.950855	0.206814
589.161850	0.206988
589.372827	0.207078
589.583785	0.207090
589.794726	0.207984
590.005648	0.208674
590.216552	0.208810
590.427437	0.209207
590.638305	0.209017
590.849154	0.208304
591.059985	0.208593
591.270798	0.208584
591.481592	0.207865
591.692369	0.207778
591.903127	0.207557
592.113867	0.207183
592.324588	0.207760
592.535292	0.208128
592.745977	0.209197
592.956644	0.209508
593.167293	0.209573
593.377923	0.210517
593.588536	0.209452
593.799130	0.208653
594.009706	0.209171
594.220263	0.208854
594.430803	0.208853
594.641324	0.208530
594.851827	0.208267
595.062312	0.208056
595.272778	0.208129
595.483227	0.209081
595.693657	0.210283
595.904069	0.210496
596.114462	0.211239
596.324838	0.211806
596.535195	0.212591
596.745534	0.212735
596.955855	0.213126
597.166157	0.212650
597.376441	0.212637
597.586707	0.212262
597.796955	0.212099
598.007185	0.211682
598.217396	0.211574
598.427589	0.210795
598.637764	0.211308
598.847921	0.210833
599.058060	0.211338
599.268180	0.211764
599.478282	0.212306
599.688366	0.212428
599.898431	0.212345
600.108479	0.212483
600.318508	0.212998
600.528519	0.212359
600.738511	0.213150
600.948486	0.213276
601.158442	0.213828
601.368380	0.213578
601.578300	0.213653
601.788202	0.213758
601.998085	0.214278
602.207950	0.214726
602.417797	0.215242
602.627626	0.214564
602.837436	0.214584
603.047228	0.214307
603.257002	0.214642
603.466758	0.215164
603.676496	0.215380
603.886215	0.214905
604.095916	0.214698
604.305599	0.214081
604.515264	0.214775
604.724910	0.214379
604.934538	0.214293
605.144148	0.214144
605.353740	0.214048
605.563314	0.214196
605.772869	0.214482
605.982406	0.214823
606.191925	0.215705
606.401425	0.215776
606.610908	0.216589
606.820372	0.216055
607.029818	0.216619
607.239246	0.216773
607.448655	0.216745
607.658047	0.217311
607.867420	0.216911
608.076775	0.216753
608.286111	0.217481
608.495430	0.217386
608.704730	0.217813
608.914012	0.218144
609.123275	0.218553
609.332521	0.218795
609.541748	0.218973
609.750957	0.219815
609.960148	0.220383
610.169321	0.220562
610.378475	0.220845
610.587611	0.221571
610.796729	0.221039
611.005829	0.221145
611.214910	0.221569
611.423974	0.221348
611.633019	0.221412
611.842045	0.221742
612.051054	0.221190
612.260044	0.221790
612.469017	0.221910
612.677970	0.223214
612.886906	0.222693
613.095824	0.222685
613.304723	0.223022
613.513604	0.222569
613.722467	0.222444
613.931311	0.223064
614.140138	0.223038
614.348946	0.223282
614.557736	0.222512
614.766507	0.222982
614.975261	0.223504
615.183996	0.222889
615.392713	0.223151
615.601412	0.223538
615.810092	0.223630
616.018754	0.223632
616.227399	0.223506
616.436024	0.224464
616.644632	0.224858
616.853222	0.224169
617.061793	0.225162
617.270346	0.225764
617.478880	0.225850
617.687397	0.225990
617.895895	0.226149
618.104375	0.226714
618.312837	0.226395
618.521281	0.226196
618.729706	0.226730
618.938113	0.226657
619.146502	0.226935
619.354873	0.226857
619.563226	0.226903
619.771560	0.227427
619.979876	0.227543
620.188174	0.227044
620.396453	0.227496
620.604715	0.227550
620.812958	0.227497
621.021183	0.227282
621.229390	0.227393
621.437578	0.227267
621.645748	0.226709
621.853900	0.226615
622.062034	0.226873
622.270150	0.226856
622.478247	0.226790
622.686326	0.227156
622.894387	0.227323
623.102430	0.227832
623.310454	0.227872
623.518461	0.228489
623.726449	0.228674
623.934418	0.229395
624.142370	0.229180
624.350303	0.229298
624.558218	0.229059
624.766115	0.228857
624.973994	0.229098
625.181855	0.229877
625.389697	0.229684
625.597521	0.229737
625.805327	0.229455
626.013114	0.229755
626.220883	0.230243
626.428634	0.230467
626.636367	0.230728
626.844082	0.230737
627.051778	0.230806
627.259457	0.230762
627.467117	0.230951
627.674758	0.231422
627.882382	0.231811
628.089987	0.231916
628.297574	0.232038
628.505143	0.232016
628.712694	0.231844
628.920226	0.231566
629.127740	0.232289
629.335236	0.232287
629.542714	0.232211
629.750174	0.231651
629.957615	0.231786
630.165038	0.232024
630.372443	0.232129
630.579829	0.232313
630.787198	0.232251
630.994548	0.232270
631.201880	0.232715
631.409194	0.232830
631.616489	0.233393
631.823766	0.233674
632.031025	0.233924
632.238266	0.234608
632.445489	0.234668
632.652693	0.235427
632.859879	0.235307
633.067047	0.235225
633.274197	0.235622
633.481329	0.235878
633.688442	0.235829
633.895537	0.236238
634.102614	0.236258
634.309672	0.236990
634.516713	0.236618
634.723735	0.236583
634.930739	0.237099
635.137724	0.237330
635.344692	0.237746
635.551641	0.238064
635.758572	0.237916
635.965485	0.237877
636.172379	0.237343
636.379256	0.237746
636.586114	0.237854
636.792954	0.237442
636.999775	0.237605
637.206579	0.237847
637.413364	0.237917
637.620131	0.237930
637.826880	0.238107
638.033610	0.238473
638.240323	0.238674
638.447017	0.239300
638.653692	0.239702
638.860350	0.239483
639.066990	0.239117
639.273611	0.238980
639.480214	0.239006
639.686798	0.239543
639.893365	0.239513
640.099913	0.239739
640.306443	0.239467
640.512955	0.239689
640.719449	0.240100
640.925924	0.240573
641.132381	0.240832
641.338820	0.241399
641.545241	0.241402
641.751644	0.241815
641.958028	0.242033
642.164394	0.242465
642.370742	0.242736
642.577071	0.242732
642.783383	0.242808
642.989676	0.242927
643.195951	0.243040
643.402207	0.242948
643.608446	0.242700
643.814666	0.242931
644.020868	0.242890
644.227052	0.243177
644.433218	0.243394
644.639365	0.243490
644.845494	0.243940
645.051605	0.243487
645.257698	0.243918
645.463772	0.244031
645.669828	0.244047
645.875866	0.244407
646.081886	0.244187
646.287888	0.244338
646.493871	0.244568
646.699836	0.244382
646.905783	0.245105
647.111712	0.244685
647.317622	0.245040
647.523514	0.245337
647.729388	0.245341
647.935244	0.245447
648.141082	0.245485
648.346901	0.245717
648.552702	0.246422
648.758485	0.246398
648.964250	0.247135
649.169996	0.247642
649.375724	0.248019
649.581434	0.247846
649.787126	0.248022
649.992800	0.248358
650.198455	0.248092
650.404092	0.247693
650.609711	0.248143
650.815311	0.248157
651.020894	0.248265
651.226458	0.248632
651.432004	0.249222
651.637532	0.249269
651.843041	0.249453
652.048532	0.250155
652.254006	0.250980
652.459460	0.250905
652.664897	0.251082
652.870315	0.250878
653.075716	0.250761
653.281097	0.251003
653.486461	0.251668
653.691807	0.251940
653.897134	0.252364
654.102443	0.252176
654.307734	0.252484
654.513006	0.252302
654.718261	0.252747
654.923497	0.253107
655.128715	0.253091
655.333915	0.253026
655.539096	0.253287
655.744259	0.253606
655.949404	0.253896
656.154531	0.253868
656.359640	0.254369
656.564730	0.254336
656.769802	0.254075
656.974856	0.254464
657.179892	0.254759
657.384909	0.254225
657.589908	0.253780
657.794889	0.253425
657.999852	0.254006
658.204797	0.253996
658.409723	0.254366
658.614631	0.254701
658.819521	0.254840
659.024393	0.254444
659.229246	0.255306
659.434081	0.256100
659.638898	0.256732
659.843697	0.256920
660.048478	0.257515
660.253240	0.257636
660.457984	0.257334
660.662710	0.257614
660.867417	0.258254
661.072107	0.258122
661.276778	0.257902
661.481431	0.258349
661.686066	0.258551
661.890682	0.258310
662.095281	0.258470
662.299861	0.259063
662.504422	0.259100
662.708966	0.259094
662.913491	0.259662
663.117999	0.259880
663.322488	0.259951
663.526958	0.260033
663.731411	0.260277
663.935845	0.260899
664.140261	0.261248
664.344659	0.261741
664.549038	0.262303
664.753400	0.261961
664.957743	0.261981
665.162068	0.262199
665.366375	0.262053
665.570663	0.262319
665.774933	0.262622
665.979185	0.262613
666.183419	0.262805
666.387635	0.262613
666.591832	0.263719
666.796011	0.264224
667.000172	0.264283
667.204315	0.264778
667.408439	0.265352
667.612545	0.265188
667.816634	0.265266
668.020703	0.265222
668.224755	0.265479
668.428788	0.265135
668.632803	0.265081
668.836800	0.265131
669.040779	0.265472
669.244739	0.265658
669.448681	0.265825
669.652605	0.266257
669.856511	0.266636
670.060399	0.266617
670.264268	0.266802
670.468119	0.267192
670.671952	0.267186
670.875767	0.267265
671.079563	0.267206
671.283341	0.267228
671.487101	0.267332
671.690843	0.267292
671.894567	0.267652
672.098272	0.267718
672.301959	0.267973
672.505628	0.268397
672.709278	0.268046
672.912911	0.268330
673.116525	0.268760
673.320121	0.269245
673.523699	0.269249
673.727258	0.269585
673.930799	0.270031
674.134322	0.270189
674.337827	0.270488
674.541314	0.271438
674.744782	0.271769
674.948232	0.271702
675.151664	0.271515
675.355078	0.271732
675.558474	0.271640
675.761851	0.271883
675.965210	0.271440
676.168551	0.271649
676.371873	0.271631
676.575178	0.271739
676.778464	0.272118
676.981732	0.271996
677.184981	0.272357
677.388213	0.272749
677.591426	0.272752
677.794621	0.273465
677.997798	0.273568
678.200956	0.273600
678.404097	0.273713
678.607219	0.274121
678.810323	0.274594
679.013408	0.274994
679.216476	0.275448
679.419525	0.275927
679.622556	0.276092
679.825569	0.276502
680.028563	0.276671
680.231540	0.276855
680.434498	0.276825
680.637438	0.277080
680.840359	0.277067
681.043263	0.277291
681.246148	0.277421
681.449015	0.277645
681.651864	0.277760
681.854694	0.277737
682.057506	0.277851
682.260301	0.277661
682.463076	0.277888
682.665834	0.278046
682.868573	0.278380
683.071295	0.278400
683.273998	0.278557
683.476682	0.278575
683.679349	0.279094
683.881997	0.279413
684.084627	0.280003
684.287239	0.280132
684.489833	0.280504
684.692408	0.280201
684.894965	0.280322
685.097504	0.280584
685.300025	0.280906
685.502527	0.280924
685.705012	0.281208
685.907478	0.281085
686.109925	0.281243
686.312355	0.280876
686.514766	0.280980
686.717159	0.280894
686.919534	0.280710
687.121891	0.280806
687.324230	0.281545
687.526550	0.281550
687.728852	0.281771
687.931136	0.282016
688.133401	0.282760
688.335649	0.283195
688.537878	0.283969
688.740089	0.284002
688.942281	0.284264
689.144456	0.284357
689.346612	0.284696
689.548750	0.284689
689.750870	0.284805
689.952971	0.284715
690.155055	0.284842
690.357120	0.284589
690.559167	0.285089
690.761195	0.284885
690.963206	0.284706
691.165198	0.284617
691.367172	0.285190
691.569128	0.285500
691.771065	0.285520
691.972984	0.285487
692.174885	0.285679
692.376768	0.286068
692.578633	0.286558
692.780479	0.286541
692.982308	0.286644
693.184118	0.286783
693.385909	0.286670
