sample name	sample
index	805
start time	 03-31-2021  02:59:18 PM


Wavelength (nm)	Absorbance
494.344910	NaN
494.563924	NaN
494.782919	NaN
495.001897	0.193734
495.220856	NaN
495.439797	-1.375500
495.658719	-0.471377
495.877624	-0.243631
496.096510	-0.511973
496.315378	-1.467696
496.534227	-0.944595
496.753059	NaN
496.971872	NaN
497.190667	0.159608
497.409444	0.144536
497.628203	0.137394
497.846943	0.135015
498.065665	0.131892
498.284369	0.131819
498.503055	0.132416
498.721723	0.131139
498.940372	0.131481
499.159003	0.130780
499.377616	0.130215
499.596210	0.130441
499.814787	0.129759
500.033345	0.130399
500.251885	0.130364
500.470406	0.129202
500.688910	0.129011
500.907395	0.127919
501.125862	0.129444
501.344311	0.128891
501.562742	0.129170
501.781154	0.128782
501.999548	0.128177
502.217924	0.128922
502.436282	0.129130
502.654621	0.129418
502.872942	0.129284
503.091245	0.129188
503.309530	0.129588
503.527797	0.129911
503.746045	0.132197
503.964275	0.131794
504.182487	0.131438
504.400681	0.131660
504.618856	0.132595
504.837013	0.133091
505.055152	0.133308
505.273273	0.134298
505.491376	0.133732
505.709460	0.132985
505.927526	0.133520
506.145574	0.133742
506.363604	0.133863
506.581615	0.133908
506.799608	0.135198
507.017583	0.135281
507.235540	0.134637
507.453478	0.135948
507.671399	0.135326
507.889301	0.135726
508.107185	0.135007
508.325050	0.135430
508.542898	0.135215
508.760727	0.135084
508.978538	0.134925
509.196330	0.134545
509.414105	0.134785
509.631861	0.135131
509.849599	0.135724
510.067319	0.136555
510.285021	0.135661
510.502704	0.135539
510.720369	0.135458
510.938016	0.134486
511.155645	0.135758
511.373255	0.135810
511.590848	0.136617
511.808422	0.137081
512.025977	0.136963
512.243515	0.138463
512.461034	0.138245
512.678536	0.137652
512.896018	0.138313
513.113483	0.138094
513.330930	0.137345
513.548358	0.137615
513.765768	0.137108
513.983160	0.137994
514.200533	0.137314
514.417889	0.137328
514.635226	0.137639
514.852545	0.138869
515.069845	0.139456
515.287128	0.140682
515.504392	0.140364
515.721638	0.140699
515.938866	0.140208
516.156075	0.140383
516.373267	0.140770
516.590440	0.141181
516.807594	0.140314
517.024731	0.140822
517.241850	0.140059
517.458950	0.140749
517.676032	0.140602
517.893095	0.141065
518.110141	0.141256
518.327168	0.141950
518.544177	0.142014
518.761168	0.142961
518.978141	0.142399
519.195095	0.142486
519.412031	0.141652
519.628949	0.142381
519.845849	0.142451
520.062731	0.142589
520.279594	0.143253
520.496439	0.144729
520.713266	0.144652
520.930074	0.145233
521.146865	0.146263
521.363637	0.147319
521.580391	0.146877
521.797127	0.146663
522.013844	0.147425
522.230543	0.146379
522.447224	0.145066
522.663887	0.145182
522.880532	0.145549
523.097158	0.145348
523.313766	0.145059
523.530356	0.145692
523.746928	0.146226
523.963481	0.145934
524.180017	0.146771
524.396534	0.147097
524.613032	0.147069
524.829513	0.146597
525.045975	0.146672
525.262420	0.147339
525.478845	0.147800
525.695253	0.147712
525.911643	0.147236
526.128014	0.147469
526.344367	0.148017
526.560702	0.148697
526.777018	0.149226
526.993316	0.150280
527.209597	0.150690
527.425858	0.151503
527.642102	0.152799
527.858328	0.153420
528.074535	0.154040
528.290724	0.154011
528.506894	0.154186
528.723047	0.154956
528.939181	0.154869
529.155297	0.155055
529.371395	0.154654
529.587475	0.153882
529.803536	0.153990
530.019579	0.153618
530.235604	0.154028
530.451611	0.154620
530.667600	0.154024
530.883570	0.154395
531.099522	0.154119
531.315456	0.154290
531.531372	0.155214
531.747269	0.155835
531.963148	0.156658
532.179009	0.156779
532.394852	0.156719
532.610676	0.157969
532.826482	0.158368
533.042271	0.158869
533.258040	0.159763
533.473792	0.159257
533.689525	0.159751
533.905240	0.159648
534.120937	0.160341
534.336616	0.160661
534.552277	0.160518
534.767919	0.160340
534.983543	0.160467
535.199149	0.159832
535.414736	0.159891
535.630306	0.160150
535.845857	0.160547
536.061390	0.160414
536.276904	0.160886
536.492401	0.160978
536.707879	0.161250
536.923339	0.161861
537.138781	0.162251
537.354204	0.163268
537.569610	0.163239
537.784997	0.163732
538.000366	0.164452
538.215716	0.164274
538.431049	0.164624
538.646363	0.164863
538.861659	0.165968
539.076937	0.167055
539.292196	0.167160
539.507438	0.167941
539.722661	0.167890
539.937866	0.168518
540.153052	0.169477
540.368221	0.169616
540.583371	0.170234
540.798503	0.169623
541.013617	0.169313
541.228712	0.169956
541.443789	0.170222
541.658848	0.170570
541.873889	0.170405
542.088912	0.169850
542.303916	0.169753
542.518902	0.169999
542.733870	0.170153
542.948820	0.170431
543.163752	0.170788
543.378665	0.170855
543.593560	0.171204
543.808437	0.171811
544.023295	0.172404
544.238136	0.173766
544.452958	0.173663
544.667762	0.174157
544.882548	0.174538
545.097315	0.174559
545.312064	0.175117
545.526795	0.175474
545.741508	0.175426
545.956203	0.175832
546.170879	0.174971
546.385537	0.176060
546.600177	0.176258
546.814799	0.176490
547.029402	0.176572
547.243988	0.176048
547.458555	0.176140
547.673103	0.176473
547.887634	0.176831
548.102146	0.177607
548.316640	0.177448
548.531116	0.177588
548.745574	0.178045
548.960013	0.178592
549.174435	0.179495
549.388838	0.179966
549.603222	0.180524
549.817589	0.180513
550.031937	0.180595
550.246267	0.180082
550.460579	0.180664
550.674873	0.180616
550.889148	0.180646
551.103405	0.180865
551.317644	0.181075
551.531865	0.181227
551.746068	0.181859
551.960252	0.182285
552.174418	0.183046
552.388566	0.183186
552.602696	0.183468
552.816807	0.184439
553.030900	0.184587
553.244975	0.184892
553.459032	0.184475
553.673070	0.184363
553.887091	0.184682
554.101093	0.184836
554.315077	0.184900
554.529042	0.185106
554.742990	0.184557
554.956919	0.184606
555.170830	0.185173
555.384722	0.185834
555.598597	0.185722
555.812453	0.185693
556.026291	0.185905
556.240111	0.186161
556.453913	0.186317
556.667696	0.186560
556.881461	0.186975
557.095208	0.186740
557.308937	0.186721
557.522647	0.187360
557.736339	0.187820
557.950013	0.187955
558.163669	0.188007
558.377307	0.188185
558.590926	0.188446
558.804527	0.188564
559.018110	0.188800
559.231675	0.189087
559.445221	0.189439
559.658749	0.189375
559.872259	0.189143
560.085751	0.189380
560.299225	0.189810
560.512680	0.190112
560.726117	0.190226
560.939536	0.190377
561.152937	0.190781
561.366319	0.190882
561.579683	0.191287
561.793029	0.191640
562.006357	0.191520
562.219667	0.191686
562.432958	0.191591
562.646231	0.192004
562.859486	0.191809
563.072723	0.191714
563.285941	0.191605
563.499141	0.191905
563.712323	0.192427
563.925487	0.192541
564.138632	0.192419
564.351760	0.192757
564.564869	0.192808
564.777960	0.193252
564.991032	0.193232
565.204087	0.192865
565.417123	0.192834
565.630141	0.193003
565.843140	0.193700
566.056122	0.194051
566.269085	0.194257
566.482030	0.194076
566.694957	0.194285
566.907866	0.194683
567.120756	0.195502
567.333628	0.195375
567.546482	0.195642
567.759318	0.195769
567.972135	0.195918
568.184935	0.196033
568.397716	0.196552
568.610478	0.196691
568.823223	0.196854
569.035949	0.197111
569.248657	0.197716
569.461347	0.197664
569.674019	0.197769
569.886672	0.197701
570.099308	0.198272
570.311925	0.197958
570.524523	0.198078
570.737104	0.197844
570.949666	0.197391
571.162210	0.196926
571.374736	0.197098
571.587244	0.197233
571.799733	0.197049
572.012205	0.196900
572.224658	0.197511
572.437092	0.197447
572.649509	0.197828
572.861907	0.198399
573.074287	0.198862
573.286649	0.198486
573.498993	0.198574
573.711318	0.199237
573.923625	0.199357
574.135914	0.199537
574.348185	0.199888
574.560438	0.200098
574.772672	0.200269
574.984888	0.200502
575.197086	0.201115
575.409266	0.201119
575.621427	0.201636
575.833570	0.201834
576.045695	0.201847
576.257802	0.201667
576.469890	0.201531
576.681961	0.201587
576.894013	0.201723
577.106046	0.202220
577.318062	0.202545
577.530059	0.202290
577.742039	0.202216
577.954000	0.202828
578.165942	0.203129
578.377867	0.203454
578.589773	0.204055
578.801661	0.203935
579.013531	0.203459
579.225382	0.203557
579.437216	0.203757
579.649031	0.203644
579.860828	0.203783
580.072606	0.204039
580.284367	0.204277
580.496109	0.203747
580.707833	0.204126
580.919539	0.204593
581.131227	0.205038
581.342896	0.205086
581.554547	0.205776
581.766180	0.205440
581.977795	0.205693
582.189391	0.206156
582.400969	0.206340
582.612529	0.206421
582.824071	0.206469
583.035595	0.206259
583.247100	0.206736
583.458587	0.206701
583.670056	0.206951
583.881506	0.207170
584.092939	0.207115
584.304353	0.207645
584.515749	0.207560
584.727127	0.208320
584.938486	0.208722
585.149828	0.208731
585.361151	0.208911
585.572456	0.209060
585.783742	0.209310
585.995011	0.209278
586.206261	0.209455
586.417493	0.209976
586.628706	0.209427
586.839902	0.209597
587.051079	0.209348
587.262238	0.209340
587.473379	0.209234
587.684502	0.209167
587.895606	0.209345
588.106692	0.209433
588.317760	0.209437
588.528810	0.209741
588.739841	0.209965
588.950855	0.210433
589.161850	0.210998
589.372827	0.211426
589.583785	0.211536
589.794726	0.211394
590.005648	0.211447
590.216552	0.211691
590.427437	0.211641
590.638305	0.211596
590.849154	0.211516
591.059985	0.211294
591.270798	0.211273
591.481592	0.211522
591.692369	0.212185
591.903127	0.212159
592.113867	0.212243
592.324588	0.212517
592.535292	0.212473
592.745977	0.212533
592.956644	0.212652
593.167293	0.213018
593.377923	0.212977
593.588536	0.213023
593.799130	0.213175
594.009706	0.213083
594.220263	0.213135
594.430803	0.213126
594.641324	0.213401
594.851827	0.213327
595.062312	0.213063
595.272778	0.213316
595.483227	0.213344
595.693657	0.213415
595.904069	0.213804
596.114462	0.213977
596.324838	0.214471
596.535195	0.214837
596.745534	0.215097
596.955855	0.215547
597.166157	0.215937
597.376441	0.216331
597.586707	0.216726
597.796955	0.216732
598.007185	0.216629
598.217396	0.216845
598.427589	0.217025
598.637764	0.217375
598.847921	0.216999
599.058060	0.216580
599.268180	0.216587
599.478282	0.216909
599.688366	0.217086
599.898431	0.217642
600.108479	0.217498
600.318508	0.217646
600.528519	0.217693
600.738511	0.218288
600.948486	0.218888
601.158442	0.219153
601.368380	0.219072
601.578300	0.219347
601.788202	0.219507
601.998085	0.219569
602.207950	0.219597
602.417797	0.219463
602.627626	0.219480
602.837436	0.219264
603.047228	0.219375
603.257002	0.219681
603.466758	0.219456
603.676496	0.219296
603.886215	0.219515
604.095916	0.219801
604.305599	0.220437
604.515264	0.220641
604.724910	0.221031
604.934538	0.220987
605.144148	0.220950
605.353740	0.221497
605.563314	0.221896
605.772869	0.222516
605.982406	0.222523
606.191925	0.222446
606.401425	0.222638
606.610908	0.222644
606.820372	0.222702
607.029818	0.222781
607.239246	0.223001
607.448655	0.223175
607.658047	0.222860
607.867420	0.223036
608.076775	0.222971
608.286111	0.223246
608.495430	0.223499
608.704730	0.223861
608.914012	0.224263
609.123275	0.223983
609.332521	0.224049
609.541748	0.224198
609.750957	0.224066
609.960148	0.224438
610.169321	0.224127
610.378475	0.224124
610.587611	0.224131
610.796729	0.224052
611.005829	0.224261
611.214910	0.223911
611.423974	0.224078
611.633019	0.224236
611.842045	0.224238
612.051054	0.224273
612.260044	0.224346
612.469017	0.224642
612.677970	0.224731
612.886906	0.224648
613.095824	0.225221
613.304723	0.225630
613.513604	0.225851
613.722467	0.226051
613.931311	0.226305
614.140138	0.226471
614.348946	0.226315
614.557736	0.226162
614.766507	0.226308
614.975261	0.226273
615.183996	0.226199
615.392713	0.226125
615.601412	0.226018
615.810092	0.226504
616.018754	0.226793
616.227399	0.226968
616.436024	0.227404
616.644632	0.227662
616.853222	0.227919
617.061793	0.227720
617.270346	0.227910
617.478880	0.228080
617.687397	0.227941
617.895895	0.227989
618.104375	0.228198
618.312837	0.228175
618.521281	0.228178
618.729706	0.228562
618.938113	0.228963
619.146502	0.229066
619.354873	0.229280
619.563226	0.229591
619.771560	0.229597
619.979876	0.229550
620.188174	0.229781
620.396453	0.230161
620.604715	0.229807
620.812958	0.230129
621.021183	0.230286
621.229390	0.230705
621.437578	0.230821
621.645748	0.230933
621.853900	0.231077
622.062034	0.231373
622.270150	0.231617
622.478247	0.232071
622.686326	0.231911
622.894387	0.232077
623.102430	0.232056
623.310454	0.232283
623.518461	0.232455
623.726449	0.232481
623.934418	0.232647
624.142370	0.232542
624.350303	0.232639
624.558218	0.232688
624.766115	0.232875
624.973994	0.232991
625.181855	0.232624
625.389697	0.232753
625.597521	0.233209
625.805327	0.233085
626.013114	0.233379
626.220883	0.233393
626.428634	0.233515
626.636367	0.233599
626.844082	0.233802
627.051778	0.234256
627.259457	0.234640
627.467117	0.234735
627.674758	0.234641
627.882382	0.234553
628.089987	0.234870
628.297574	0.235466
628.505143	0.235672
628.712694	0.235739
628.920226	0.235894
629.127740	0.236039
629.335236	0.236123
629.542714	0.236786
629.750174	0.237183
629.957615	0.237026
630.165038	0.236790
630.372443	0.237272
630.579829	0.237456
630.787198	0.237895
630.994548	0.237939
631.201880	0.238270
631.409194	0.238308
631.616489	0.238508
631.823766	0.239013
632.031025	0.239604
632.238266	0.239305
632.445489	0.239299
632.652693	0.239188
632.859879	0.239370
633.067047	0.239266
633.274197	0.239400
633.481329	0.239545
633.688442	0.239423
633.895537	0.239174
634.102614	0.239319
634.309672	0.239332
634.516713	0.239628
634.723735	0.239509
634.930739	0.239963
635.137724	0.240167
635.344692	0.240264
635.551641	0.240376
635.758572	0.240443
635.965485	0.240825
636.172379	0.241144
636.379256	0.241054
636.586114	0.241289
636.792954	0.241490
636.999775	0.241827
637.206579	0.241906
637.413364	0.241902
637.620131	0.241827
637.826880	0.241745
638.033610	0.242058
638.240323	0.242226
638.447017	0.242478
638.653692	0.242285
638.860350	0.242302
639.066990	0.242472
639.273611	0.242839
639.480214	0.243264
639.686798	0.243517
639.893365	0.243715
640.099913	0.243873
640.306443	0.243986
640.512955	0.244416
640.719449	0.244344
640.925924	0.244440
641.132381	0.244526
641.338820	0.244620
641.545241	0.244768
641.751644	0.244968
641.958028	0.245077
642.164394	0.245170
642.370742	0.245211
642.577071	0.245522
642.783383	0.245620
642.989676	0.245799
643.195951	0.246022
643.402207	0.246149
643.608446	0.245902
643.814666	0.246196
644.020868	0.246261
644.227052	0.246366
644.433218	0.246402
644.639365	0.246643
644.845494	0.246756
645.051605	0.246755
645.257698	0.246872
645.463772	0.247289
645.669828	0.247202
645.875866	0.247396
646.081886	0.247621
646.287888	0.247598
646.493871	0.247776
646.699836	0.248098
646.905783	0.248138
647.111712	0.248318
647.317622	0.248318
647.523514	0.248584
647.729388	0.248774
647.935244	0.248910
648.141082	0.249293
648.346901	0.249416
648.552702	0.249657
648.758485	0.250198
648.964250	0.250258
649.169996	0.250301
649.375724	0.250544
649.581434	0.250595
649.787126	0.250664
649.992800	0.250789
650.198455	0.250951
650.404092	0.250852
650.609711	0.250740
650.815311	0.250960
651.020894	0.251101
651.226458	0.251265
651.432004	0.251848
651.637532	0.252344
651.843041	0.252478
652.048532	0.252603
652.254006	0.253186
652.459460	0.253742
652.664897	0.253967
652.870315	0.254425
653.075716	0.254721
653.281097	0.254834
653.486461	0.254847
653.691807	0.255197
653.897134	0.255512
654.102443	0.255612
654.307734	0.255716
654.513006	0.256008
654.718261	0.256049
654.923497	0.256088
655.128715	0.256254
655.333915	0.256240
655.539096	0.256139
655.744259	0.256052
655.949404	0.256059
656.154531	0.256323
656.359640	0.256283
656.564730	0.256650
656.769802	0.257062
656.974856	0.257139
657.179892	0.257463
657.384909	0.257632
657.589908	0.257996
657.794889	0.258130
657.999852	0.258117
658.204797	0.258544
658.409723	0.258653
658.614631	0.258788
658.819521	0.258956
659.024393	0.258932
659.229246	0.259338
659.434081	0.259565
659.638898	0.259924
659.843697	0.260163
660.048478	0.260215
660.253240	0.260101
660.457984	0.260010
660.662710	0.259911
660.867417	0.260423
661.072107	0.260484
661.276778	0.260526
661.481431	0.260614
661.686066	0.260493
661.890682	0.260818
662.095281	0.261215
662.299861	0.261309
662.504422	0.261756
662.708966	0.261785
662.913491	0.262096
663.117999	0.262551
663.322488	0.262842
663.526958	0.263429
663.731411	0.263549
663.935845	0.263811
664.140261	0.264171
664.344659	0.264563
664.549038	0.264684
664.753400	0.264698
664.957743	0.264507
665.162068	0.264682
665.366375	0.264691
665.570663	0.264987
665.774933	0.265015
665.979185	0.265276
666.183419	0.265490
666.387635	0.265825
666.591832	0.266002
666.796011	0.266384
667.000172	0.266755
667.204315	0.267213
667.408439	0.267419
667.612545	0.267852
667.816634	0.268017
668.020703	0.268115
668.224755	0.267884
668.428788	0.268214
668.632803	0.268468
668.836800	0.268292
669.040779	0.268355
669.244739	0.268402
669.448681	0.268396
669.652605	0.268684
669.856511	0.268746
670.060399	0.269136
670.264268	0.269197
670.468119	0.269364
670.671952	0.269582
670.875767	0.269747
671.079563	0.269967
671.283341	0.270314
671.487101	0.270548
671.690843	0.270688
671.894567	0.270961
672.098272	0.271320
672.301959	0.271404
672.505628	0.271552
672.709278	0.271922
672.912911	0.271973
673.116525	0.272422
673.320121	0.272178
673.523699	0.272622
673.727258	0.272783
673.930799	0.272850
674.134322	0.273141
674.337827	0.273681
674.541314	0.273716
674.744782	0.274069
674.948232	0.273874
675.151664	0.274366
675.355078	0.274123
675.558474	0.274446
675.761851	0.274512
675.965210	0.274532
676.168551	0.274341
676.371873	0.274457
676.575178	0.274605
676.778464	0.274810
676.981732	0.274827
677.184981	0.275186
677.388213	0.275133
677.591426	0.275455
677.794621	0.276016
677.997798	0.276172
678.200956	0.276477
678.404097	0.276507
678.607219	0.276842
678.810323	0.277145
679.013408	0.277506
679.216476	0.278194
679.419525	0.278564
679.622556	0.278659
679.825569	0.279134
680.028563	0.279234
680.231540	0.279720
680.434498	0.279798
680.637438	0.280114
680.840359	0.280278
681.043263	0.280210
681.246148	0.280412
681.449015	0.280651
681.651864	0.280911
681.854694	0.281079
682.057506	0.281306
682.260301	0.281591
682.463076	0.281645
682.665834	0.281536
682.868573	0.281873
683.071295	0.281987
683.273998	0.282354
683.476682	0.282471
683.679349	0.282871
683.881997	0.282838
684.084627	0.282926
684.287239	0.283365
684.489833	0.283895
684.692408	0.283958
684.894965	0.284259
685.097504	0.284151
685.300025	0.283998
685.502527	0.283954
685.705012	0.284379
685.907478	0.284642
686.109925	0.284600
686.312355	0.284412
686.514766	0.284362
686.717159	0.284541
686.919534	0.284395
687.121891	0.285105
687.324230	0.285300
687.526550	0.285520
687.728852	0.285669
687.931136	0.285703
688.133401	0.285878
688.335649	0.286212
688.537878	0.286299
688.740089	0.286977
688.942281	0.287004
689.144456	0.287065
689.346612	0.287201
689.548750	0.287130
689.750870	0.287422
689.952971	0.287987
690.155055	0.288157
690.357120	0.288363
690.559167	0.288497
690.761195	0.288639
690.963206	0.288739
691.165198	0.288684
691.367172	0.289095
691.569128	0.289252
691.771065	0.289242
691.972984	0.289365
692.174885	0.289239
692.376768	0.289119
692.578633	0.289353
692.780479	0.289406
692.982308	0.289546
693.184118	0.289739
693.385909	0.289905
693.587683	0.289990
