sample name	sample
index	907
start time	 04-08-2021  04:14:45 PM


Wavelength (nm)	Absorbance
494.344910	-0.728900
494.563924	-0.728900
494.782919	-0.728900
495.001897	NaN
495.220856	-0.636182
495.439797	-0.504859
495.658719	-0.681216
495.877624	NaN
496.096510	NaN
496.315378	NaN
496.534227	NaN
496.753059	NaN
496.971872	NaN
497.190667	0.181482
497.409444	0.179958
497.628203	0.174982
497.846943	0.172598
498.065665	0.174557
498.284369	0.173840
498.503055	0.173313
498.721723	0.173274
498.940372	0.174042
499.159003	0.175097
499.377616	0.174731
499.596210	0.175276
499.814787	0.175850
500.033345	0.174176
500.251885	0.173591
500.470406	0.174581
500.688910	0.174882
500.907395	0.174605
501.125862	0.173269
501.344311	0.172953
501.562742	0.173291
501.781154	0.174219
501.999548	0.174404
502.217924	0.173752
502.436282	0.174093
502.654621	0.173730
502.872942	0.174512
503.091245	0.176609
503.309530	0.177058
503.527797	0.176635
503.746045	0.176206
503.964275	0.176467
504.182487	0.176714
504.400681	0.176073
504.618856	0.177223
504.837013	0.177767
505.055152	0.176811
505.273273	0.177979
505.491376	0.178704
505.709460	0.178375
505.927526	0.180089
506.145574	0.181390
506.363604	0.180584
506.581615	0.179426
506.799608	0.178882
507.017583	0.179703
507.235540	0.178800
507.453478	0.178081
507.671399	0.179133
507.889301	0.178614
508.107185	0.178164
508.325050	0.179315
508.542898	0.180327
508.760727	0.180408
508.978538	0.180725
509.196330	0.180128
509.414105	0.181346
509.631861	0.180758
509.849599	0.181256
510.067319	0.182052
510.285021	0.182072
510.502704	0.182228
510.720369	0.182375
510.938016	0.181797
511.155645	0.183359
511.373255	0.183172
511.590848	0.183494
511.808422	0.183168
512.025977	0.183290
512.243515	0.183069
512.461034	0.183325
512.678536	0.182961
512.896018	0.183390
513.113483	0.182871
513.330930	0.182908
513.548358	0.182667
513.765768	0.183593
513.983160	0.184385
514.200533	0.185793
514.417889	0.185852
514.635226	0.186800
514.852545	0.187770
515.069845	0.187746
515.287128	0.188987
515.504392	0.190835
515.721638	0.190474
515.938866	0.189898
516.156075	0.188652
516.373267	0.188507
516.590440	0.189376
516.807594	0.189091
517.024731	0.189605
517.241850	0.189481
517.458950	0.189348
517.676032	0.189567
517.893095	0.190148
518.110141	0.192117
518.327168	0.192750
518.544177	0.192385
518.761168	0.192418
518.978141	0.192856
519.195095	0.193104
519.412031	0.192862
519.628949	0.193507
519.845849	0.192725
520.062731	0.192012
520.279594	0.192768
520.496439	0.193229
520.713266	0.193138
520.930074	0.194102
521.146865	0.194140
521.363637	0.194413
521.580391	0.193962
521.797127	0.194970
522.013844	0.195244
522.230543	0.194589
522.447224	0.194390
522.663887	0.195089
522.880532	0.194779
523.097158	0.195320
523.313766	0.195519
523.530356	0.196133
523.746928	0.196415
523.963481	0.196395
524.180017	0.197436
524.396534	0.197787
524.613032	0.197900
524.829513	0.198566
525.045975	0.198202
525.262420	0.199283
525.478845	0.199694
525.695253	0.200812
525.911643	0.201880
526.128014	0.202205
526.344367	0.202636
526.560702	0.203549
526.777018	0.203261
526.993316	0.203718
527.209597	0.203644
527.425858	0.203398
527.642102	0.203079
527.858328	0.203641
528.074535	0.203670
528.290724	0.203909
528.506894	0.203088
528.723047	0.203554
528.939181	0.203906
529.155297	0.204437
529.371395	0.204967
529.587475	0.204902
529.803536	0.204656
530.019579	0.205447
530.235604	0.205739
530.451611	0.206623
530.667600	0.207303
530.883570	0.207844
531.099522	0.207697
531.315456	0.208559
531.531372	0.209360
531.747269	0.209651
531.963148	0.209535
532.179009	0.210125
532.394852	0.210886
532.610676	0.211055
532.826482	0.211902
533.042271	0.212688
533.258040	0.212689
533.473792	0.213037
533.689525	0.213322
533.905240	0.213765
534.120937	0.214207
534.336616	0.214110
534.552277	0.214241
534.767919	0.213812
534.983543	0.214010
535.199149	0.214920
535.414736	0.214634
535.630306	0.215537
535.845857	0.216345
536.061390	0.216232
536.276904	0.216418
536.492401	0.216935
536.707879	0.216972
536.923339	0.217530
537.138781	0.217070
537.354204	0.217406
537.569610	0.217606
537.784997	0.217320
538.000366	0.218399
538.215716	0.219235
538.431049	0.219503
538.646363	0.220777
538.861659	0.221128
539.076937	0.222141
539.292196	0.223000
539.507438	0.223060
539.722661	0.223566
539.937866	0.223388
540.153052	0.224050
540.368221	0.224687
540.583371	0.224771
540.798503	0.224663
541.013617	0.225095
541.228712	0.225743
541.443789	0.225958
541.658848	0.226439
541.873889	0.227387
542.088912	0.227508
542.303916	0.227859
542.518902	0.227870
542.733870	0.228747
542.948820	0.228588
543.163752	0.228607
543.378665	0.229467
543.593560	0.229817
543.808437	0.229599
544.023295	0.229623
544.238136	0.230104
544.452958	0.230981
544.667762	0.230968
544.882548	0.231588
545.097315	0.231993
545.312064	0.231629
545.526795	0.231844
545.741508	0.232090
545.956203	0.232691
546.170879	0.232670
546.385537	0.232676
546.600177	0.232889
546.814799	0.233291
547.029402	0.233804
547.243988	0.234415
547.458555	0.234598
547.673103	0.234925
547.887634	0.235070
548.102146	0.235737
548.316640	0.236354
548.531116	0.236495
548.745574	0.236437
548.960013	0.236528
549.174435	0.237376
549.388838	0.237263
549.603222	0.237452
549.817589	0.237449
550.031937	0.237174
550.246267	0.237327
550.460579	0.237458
550.674873	0.237903
550.889148	0.238158
551.103405	0.238010
551.317644	0.238792
551.531865	0.239112
551.746068	0.239375
551.960252	0.239959
552.174418	0.240425
552.388566	0.241137
552.602696	0.241523
552.816807	0.241552
553.030900	0.241610
553.244975	0.241815
553.459032	0.241831
553.673070	0.242692
553.887091	0.242551
554.101093	0.242316
554.315077	0.242453
554.529042	0.242717
554.742990	0.242832
554.956919	0.243304
555.170830	0.243321
555.384722	0.243895
555.598597	0.244009
555.812453	0.244686
556.026291	0.245147
556.240111	0.245498
556.453913	0.245784
556.667696	0.246288
556.881461	0.247071
557.095208	0.247067
557.308937	0.247204
557.522647	0.247005
557.736339	0.246925
557.950013	0.246728
558.163669	0.246748
558.377307	0.246271
558.590926	0.246376
558.804527	0.245816
559.018110	0.246192
559.231675	0.246411
559.445221	0.246795
559.658749	0.247056
559.872259	0.247220
560.085751	0.247535
560.299225	0.247855
560.512680	0.248117
560.726117	0.248941
560.939536	0.249127
561.152937	0.249415
561.366319	0.249061
561.579683	0.249276
561.793029	0.249636
562.006357	0.249351
562.219667	0.250120
562.432958	0.250056
562.646231	0.249729
562.859486	0.249965
563.072723	0.249890
563.285941	0.250269
563.499141	0.250517
563.712323	0.250708
563.925487	0.251243
564.138632	0.251206
564.351760	0.251778
564.564869	0.251880
564.777960	0.252132
564.991032	0.252660
565.204087	0.253385
565.417123	0.253222
565.630141	0.253480
565.843140	0.254142
566.056122	0.253889
566.269085	0.253961
566.482030	0.254030
566.694957	0.254012
566.907866	0.253936
567.120756	0.254073
567.333628	0.254093
567.546482	0.254370
567.759318	0.254417
567.972135	0.255092
568.184935	0.254976
568.397716	0.255130
568.610478	0.255507
568.823223	0.255897
569.035949	0.255997
569.248657	0.256754
569.461347	0.256627
569.674019	0.256797
569.886672	0.256773
570.099308	0.257214
570.311925	0.257568
570.524523	0.257837
570.737104	0.258115
570.949666	0.258167
571.162210	0.258230
571.374736	0.258798
571.587244	0.258882
571.799733	0.259077
572.012205	0.259643
572.224658	0.259685
572.437092	0.260259
572.649509	0.260267
572.861907	0.260114
573.074287	0.260074
573.286649	0.260169
573.498993	0.259730
573.711318	0.260237
573.923625	0.260027
574.135914	0.260427
574.348185	0.260255
574.560438	0.260420
574.772672	0.260793
574.984888	0.261003
575.197086	0.261259
575.409266	0.261459
575.621427	0.261069
575.833570	0.261222
576.045695	0.261658
576.257802	0.261651
576.469890	0.261763
576.681961	0.262471
576.894013	0.263017
577.106046	0.262965
577.318062	0.262776
577.530059	0.263080
577.742039	0.263122
577.954000	0.263150
578.165942	0.263380
578.377867	0.263250
578.589773	0.262971
578.801661	0.262850
579.013531	0.263596
579.225382	0.264396
579.437216	0.264876
579.649031	0.265899
579.860828	0.265969
580.072606	0.266423
580.284367	0.267156
580.496109	0.267105
580.707833	0.266994
580.919539	0.266485
581.131227	0.266444
581.342896	0.266057
581.554547	0.265545
581.766180	0.265902
581.977795	0.265709
582.189391	0.265828
582.400969	0.265889
582.612529	0.266301
582.824071	0.266623
583.035595	0.267024
583.247100	0.267932
583.458587	0.267841
583.670056	0.267977
583.881506	0.268065
584.092939	0.267953
584.304353	0.268742
584.515749	0.268750
584.727127	0.268942
584.938486	0.269239
585.149828	0.268909
585.361151	0.269766
585.572456	0.269727
585.783742	0.269967
585.995011	0.270060
586.206261	0.270091
586.417493	0.270919
586.628706	0.271469
586.839902	0.272040
587.051079	0.272405
587.262238	0.272002
587.473379	0.272048
587.684502	0.272760
587.895606	0.272830
588.106692	0.272971
588.317760	0.272663
588.528810	0.272852
588.739841	0.272602
588.950855	0.272641
589.161850	0.273318
589.372827	0.273378
589.583785	0.273072
589.794726	0.273549
590.005648	0.273707
590.216552	0.273716
590.427437	0.273533
590.638305	0.273423
590.849154	0.273374
591.059985	0.273237
591.270798	0.273404
591.481592	0.273732
591.692369	0.273734
591.903127	0.273771
592.113867	0.274221
592.324588	0.274249
592.535292	0.274822
592.745977	0.275384
592.956644	0.275438
593.167293	0.275449
593.377923	0.275708
593.588536	0.276085
593.799130	0.276189
594.009706	0.276093
594.220263	0.276242
594.430803	0.276416
594.641324	0.276367
594.851827	0.276862
595.062312	0.277467
595.272778	0.277650
595.483227	0.277931
595.693657	0.278010
595.904069	0.278891
596.114462	0.279411
596.324838	0.279318
596.535195	0.279575
596.745534	0.279254
596.955855	0.279547
597.166157	0.279697
597.376441	0.279917
597.586707	0.279945
597.796955	0.279546
598.007185	0.279571
598.217396	0.279850
598.427589	0.280119
598.637764	0.280484
598.847921	0.280270
599.058060	0.280508
599.268180	0.280761
599.478282	0.281401
599.688366	0.281420
599.898431	0.281966
600.108479	0.282073
600.318508	0.282555
600.528519	0.282530
600.738511	0.282633
600.948486	0.282503
601.158442	0.282514
601.368380	0.282580
601.578300	0.282901
601.788202	0.282717
601.998085	0.282836
602.207950	0.282706
602.417797	0.283027
602.627626	0.283373
602.837436	0.283255
603.047228	0.283157
603.257002	0.283234
603.466758	0.283610
603.676496	0.284100
603.886215	0.284160
604.095916	0.284065
604.305599	0.284274
604.515264	0.284559
604.724910	0.284909
604.934538	0.284846
605.144148	0.284867
605.353740	0.284909
605.563314	0.284746
605.772869	0.285338
605.982406	0.285786
606.191925	0.285977
606.401425	0.286261
606.610908	0.286865
606.820372	0.287803
607.029818	0.287830
607.239246	0.288197
607.448655	0.288024
607.658047	0.288054
607.867420	0.288030
608.076775	0.287983
608.286111	0.287841
608.495430	0.287664
608.704730	0.287381
608.914012	0.287682
609.123275	0.287569
609.332521	0.287940
609.541748	0.287900
609.750957	0.288255
609.960148	0.288595
610.169321	0.288710
610.378475	0.288911
610.587611	0.288994
610.796729	0.289431
611.005829	0.289621
611.214910	0.289734
611.423974	0.290073
611.633019	0.290263
611.842045	0.290195
612.051054	0.290294
612.260044	0.290327
612.469017	0.290684
612.677970	0.290627
612.886906	0.290926
613.095824	0.291104
613.304723	0.291039
613.513604	0.290926
613.722467	0.291510
613.931311	0.291945
614.140138	0.292336
614.348946	0.292619
614.557736	0.292701
614.766507	0.292963
614.975261	0.293008
615.183996	0.293235
615.392713	0.293650
615.601412	0.293656
615.810092	0.293678
616.018754	0.293378
616.227399	0.293258
616.436024	0.293505
616.644632	0.293806
616.853222	0.294320
617.061793	0.294420
617.270346	0.294452
617.478880	0.294650
617.687397	0.294610
617.895895	0.294927
618.104375	0.295098
618.312837	0.295506
618.521281	0.294998
618.729706	0.294796
618.938113	0.295339
619.146502	0.295242
619.354873	0.295216
619.563226	0.295660
619.771560	0.295938
619.979876	0.296306
620.188174	0.296168
620.396453	0.296757
620.604715	0.296894
620.812958	0.296692
621.021183	0.297015
621.229390	0.297170
621.437578	0.297131
621.645748	0.297301
621.853900	0.297218
622.062034	0.297533
622.270150	0.297431
622.478247	0.297844
622.686326	0.298041
622.894387	0.298457
623.102430	0.298637
623.310454	0.298749
623.518461	0.298936
623.726449	0.299197
623.934418	0.299145
624.142370	0.299231
624.350303	0.299552
624.558218	0.299753
624.766115	0.299555
624.973994	0.299771
625.181855	0.300069
625.389697	0.300130
625.597521	0.300161
625.805327	0.300549
626.013114	0.300979
626.220883	0.300620
626.428634	0.300956
626.636367	0.301119
626.844082	0.300973
627.051778	0.301243
627.259457	0.301602
627.467117	0.301906
627.674758	0.302031
627.882382	0.302007
628.089987	0.302364
628.297574	0.302198
628.505143	0.302225
628.712694	0.302506
628.920226	0.302372
629.127740	0.302433
629.335236	0.302413
629.542714	0.302276
629.750174	0.302305
629.957615	0.302342
630.165038	0.302780
630.372443	0.303198
630.579829	0.303535
630.787198	0.303735
630.994548	0.303919
631.201880	0.303808
631.409194	0.304190
631.616489	0.304444
631.823766	0.304833
632.031025	0.304924
632.238266	0.305045
632.445489	0.305278
632.652693	0.305385
632.859879	0.305640
633.067047	0.305983
633.274197	0.306279
633.481329	0.306595
633.688442	0.306660
633.895537	0.306593
634.102614	0.307058
634.309672	0.307118
634.516713	0.307494
634.723735	0.307589
634.930739	0.307766
635.137724	0.307954
635.344692	0.308026
635.551641	0.308186
635.758572	0.308446
635.965485	0.308476
636.172379	0.308530
636.379256	0.308447
636.586114	0.308499
636.792954	0.308855
636.999775	0.308801
637.206579	0.309013
637.413364	0.309133
637.620131	0.309327
637.826880	0.309724
638.033610	0.310127
638.240323	0.310525
638.447017	0.310976
638.653692	0.311346
638.860350	0.311738
639.066990	0.312046
639.273611	0.312114
639.480214	0.312564
639.686798	0.312501
639.893365	0.312667
640.099913	0.312851
640.306443	0.313056
640.512955	0.313188
640.719449	0.313228
640.925924	0.313210
641.132381	0.313619
641.338820	0.313450
641.545241	0.313611
641.751644	0.313820
641.958028	0.313919
642.164394	0.313983
642.370742	0.314131
642.577071	0.314195
642.783383	0.314666
642.989676	0.314754
643.195951	0.315066
643.402207	0.315039
643.608446	0.315008
643.814666	0.315404
644.020868	0.315413
644.227052	0.315356
644.433218	0.315529
644.639365	0.315554
644.845494	0.315894
645.051605	0.316049
645.257698	0.316246
645.463772	0.316430
645.669828	0.316558
645.875866	0.316829
646.081886	0.317142
646.287888	0.317311
646.493871	0.317349
646.699836	0.317570
646.905783	0.317858
647.111712	0.318409
647.317622	0.318716
647.523514	0.318738
647.729388	0.319053
647.935244	0.319369
648.141082	0.319940
648.346901	0.320330
648.552702	0.320421
648.758485	0.320846
648.964250	0.320810
649.169996	0.321049
649.375724	0.321004
649.581434	0.321207
649.787126	0.321085
649.992800	0.321057
650.198455	0.321443
650.404092	0.321811
650.609711	0.321697
650.815311	0.322132
651.020894	0.322482
651.226458	0.323304
651.432004	0.323331
651.637532	0.323703
651.843041	0.323865
652.048532	0.323763
652.254006	0.323800
652.459460	0.324000
652.664897	0.324309
652.870315	0.324191
653.075716	0.324072
653.281097	0.324053
653.486461	0.324136
653.691807	0.324302
653.897134	0.324706
654.102443	0.324717
654.307734	0.324961
654.513006	0.324951
654.718261	0.325303
654.923497	0.325593
655.128715	0.326083
655.333915	0.326520
655.539096	0.326963
655.744259	0.327104
655.949404	0.327465
656.154531	0.327831
656.359640	0.327661
656.564730	0.327939
656.769802	0.327991
656.974856	0.328232
657.179892	0.328529
657.384909	0.328556
657.589908	0.328666
657.794889	0.329052
657.999852	0.328965
658.204797	0.329925
658.409723	0.329941
658.614631	0.330328
658.819521	0.330525
659.024393	0.330931
659.229246	0.331385
659.434081	0.331994
659.638898	0.332233
659.843697	0.332440
660.048478	0.332261
660.253240	0.332658
660.457984	0.333286
660.662710	0.333459
660.867417	0.333541
661.072107	0.333676
661.276778	0.333563
661.481431	0.333905
661.686066	0.334325
661.890682	0.334555
662.095281	0.334845
662.299861	0.334670
662.504422	0.335105
662.708966	0.335260
662.913491	0.335540
663.117999	0.335886
663.322488	0.335981
663.526958	0.336210
663.731411	0.336312
663.935845	0.336485
664.140261	0.336931
664.344659	0.336940
664.549038	0.337083
664.753400	0.337045
664.957743	0.337292
665.162068	0.337693
665.366375	0.337987
665.570663	0.338346
665.774933	0.338446
665.979185	0.338645
666.183419	0.338942
666.387635	0.339263
666.591832	0.339520
666.796011	0.339599
667.000172	0.339802
667.204315	0.339874
667.408439	0.340353
667.612545	0.341080
667.816634	0.341376
668.020703	0.341477
668.224755	0.341496
668.428788	0.342056
668.632803	0.342350
668.836800	0.342309
669.040779	0.342863
669.244739	0.342756
669.448681	0.342869
669.652605	0.343221
669.856511	0.343694
670.060399	0.344305
670.264268	0.344403
670.468119	0.344910
670.671952	0.345281
670.875767	0.345449
671.079563	0.345846
671.283341	0.346057
671.487101	0.346081
671.690843	0.346465
671.894567	0.346547
672.098272	0.347060
672.301959	0.347135
672.505628	0.347462
672.709278	0.347830
672.912911	0.348078
673.116525	0.348112
673.320121	0.348291
673.523699	0.348483
673.727258	0.348646
673.930799	0.348944
674.134322	0.349139
674.337827	0.349378
674.541314	0.349435
674.744782	0.349872
674.948232	0.350161
675.151664	0.350619
675.355078	0.350696
675.558474	0.351171
675.761851	0.351106
675.965210	0.351558
676.168551	0.351791
676.371873	0.352031
676.575178	0.352043
676.778464	0.352208
676.981732	0.352087
677.184981	0.352327
677.388213	0.352505
677.591426	0.352656
677.794621	0.352871
677.997798	0.353113
678.200956	0.353196
678.404097	0.353379
678.607219	0.353845
678.810323	0.354162
679.013408	0.354764
679.216476	0.354729
679.419525	0.355153
679.622556	0.355432
679.825569	0.355800
680.028563	0.356293
680.231540	0.356842
680.434498	0.357001
680.637438	0.357402
680.840359	0.357312
681.043263	0.357949
681.246148	0.358252
681.449015	0.358021
681.651864	0.358172
681.854694	0.358232
682.057506	0.358435
682.260301	0.358790
682.463076	0.359046
682.665834	0.359681
682.868573	0.359506
683.071295	0.359544
683.273998	0.360019
683.476682	0.360229
683.679349	0.360365
683.881997	0.360419
684.084627	0.360765
684.287239	0.361003
684.489833	0.361198
684.692408	0.361809
684.894965	0.362094
685.097504	0.362344
685.300025	0.362559
685.502527	0.362914
685.705012	0.363160
685.907478	0.362975
686.109925	0.363160
686.312355	0.362990
686.514766	0.363160
686.717159	0.363310
686.919534	0.363588
687.121891	0.363690
687.324230	0.363746
687.526550	0.363961
687.728852	0.364308
687.931136	0.364585
688.133401	0.365094
688.335649	0.365140
688.537878	0.365234
688.740089	0.365325
688.942281	0.365628
689.144456	0.365856
689.346612	0.365780
689.548750	0.366277
689.750870	0.366616
689.952971	0.366740
690.155055	0.367014
690.357120	0.367354
690.559167	0.367574
690.761195	0.367734
690.963206	0.368152
691.165198	0.368642
691.367172	0.368421
691.569128	0.368394
691.771065	0.368351
691.972984	0.368515
692.174885	0.368878
692.376768	0.369059
692.578633	0.369266
692.780479	0.369532
692.982308	0.369620
693.184118	0.370013
693.385909	0.370111
693.587683	0.370303
693.789438	0.370638
