sample name	sample
index	836
start time	 04-05-2021  10:48:54 AM
880	0.387663
Peak Time (s)	92.037
Peak Height 	0.3877
calc peak height	90,93
Baseline Time (s)	9.036
Baseline Value 	-0.003599
subtract baseline	10,4
Abs	0.294869
Peak Time (s)	91.537
Peak Height 	0.2949
calc peak height	90,93
Baseline Time (s)	8.536
Baseline Value 	9.7268E-4
subtract baseline	10,3
PK_550	0.160332
Peak Time (s)	92.537
Peak Height 	0.1603
calc peak height	90,93
Baseline Time (s)	11.034
Baseline Value 	3.1051E-4
subtract baseline	10,2
PK_880	0.279037
Peak Time (s)	92.537
Peak Height 	0.279
calc peak height	90,93
Baseline Time (s)	10.536
Baseline Value 	0.001673
subtract baseline	10,1


Time (s)	A880-A510	A880-A775	A880-A975	A880	I510	I775	I975	I880	
0.039000	-0.000889	-0.000031	0.002000	0.003142	6604.930118	40424.562418	3840.026772	21850.766732
0.536500	-0.002945	-0.000870	-0.002090	0.008202	6542.631643	39917.020277	3816.950543	21629.584056
1.036500	-0.004627	-0.001043	-0.000936	0.004274	6562.180443	40239.278897	3829.707083	21801.047007
1.534000	-0.001998	-0.000222	-0.000470	0.001925	6605.885430	40513.523256	3836.837164	21904.339970
2.090000	-0.000281	-0.000210	-0.006002	0.001686	6623.191729	40535.324462	3823.467401	21914.873334
2.534500	-0.001214	0.000699	-0.001137	0.005123	6584.629074	40316.338582	3827.058590	21763.869574
3.035500	0.000166	0.000451	0.001761	0.001311	6630.486146	40625.475842	3844.089790	21931.411182
3.535500	0.001316	0.000630	-0.001653	0.000164	6650.949842	40741.127516	3838.306239	21982.120049
4.036000	0.000307	-0.000147	-0.002386	0.000677	6637.380700	40628.568242	3835.139852	21959.442957
4.539000	-0.001001	-0.000218	-0.000543	0.000178	6630.193252	40665.939695	3841.101170	21981.531133
5.036500	0.001515	0.000609	0.002424	0.000593	6648.899193	40701.831427	3847.627409	21963.137608
5.536500	-0.001078	0.000256	0.000821	0.000180	6629.485476	40707.019135	3844.578455	21981.420556
6.037500	0.000418	-0.000291	0.003185	-0.000048	6644.827344	40679.206917	3851.231594	21991.510349
6.535000	0.000935	-0.000545	-0.000787	0.000045	6648.612970	40648.992009	3840.816488	21987.407681
7.034500	-0.000276	0.001010	0.000452	0.000475	6633.987920	40747.107032	3842.881280	21968.365475
7.535000	-0.000231	0.000048	0.000878	-0.000095	6639.469096	40712.966040	3845.430158	21993.609224
8.035500	-0.001187	0.000122	-0.002394	-0.000040	6630.466728	40714.563629	3836.941308	21991.167251
8.536000	0.000801	0.000736	0.000000	0.000784	6640.824617	40696.209133	3840.937760	21954.695603
9.036000	-0.000878	-0.000103	0.002864	0.000000	6632.864273	40691.462419	3850.282289	21989.399292
9.538500	0.000321	0.000919	0.003522	0.000898	6635.539099	40702.324423	3849.665450	21949.676289
10.049000	-0.001068	-0.000129	-0.002299	-0.000358	6634.358236	40720.415538	3837.992707	22005.267634
10.536000	0.000000	-0.000214	0.002981	-0.000268	6643.062079	40705.161608	3851.273148	22001.255120
11.034500	-0.000288	0.000000	-0.000386	-0.000043	6638.488734	40704.172593	3842.064143	21991.290224
11.535000	0.001058	0.000301	-0.000601	0.000333	6647.141685	40697.642126	3840.557215	21974.672990
12.035000	-0.001024	0.000769	-0.000602	0.001215	6620.780448	40661.530740	3838.307065	21935.671950
12.535000	-0.000866	0.000572	-0.000104	0.000916	6624.831101	40670.446631	3840.336018	21948.869343
13.036000	0.001435	0.000284	0.002627	0.000256	6651.196686	40702.831501	3849.014581	21978.050741
13.536000	0.001178	0.000706	0.005650	0.001251	6640.026819	40652.957479	3854.238254	21934.089135
14.041500	-0.000536	0.000850	0.003937	0.002049	6617.714061	40595.900142	3847.773381	21898.859037
14.536500	-0.000158	0.000796	0.003259	0.003710	6606.366916	40447.010943	3841.788326	21825.777553
15.036500	-0.000727	0.000339	0.002221	0.001505	6620.840479	40598.792332	3844.770112	21922.859257
15.537000	-0.000241	0.000404	0.003745	0.000661	6632.645739	40677.987682	3850.847141	21960.134812
16.038000	0.000086	0.000230	-0.001814	0.001208	6630.695786	40615.199707	3835.243015	21935.964005
16.535000	0.000515	0.001181	0.003711	0.001610	6630.927017	40662.993800	3848.319454	21918.208703
17.035000	-0.000106	0.000088	0.006085	0.000144	6638.452912	40695.599259	3858.225239	21983.026498
17.536000	-0.000676	0.000780	0.004414	-0.001933	6651.892950	40937.951854	3859.278446	22075.189872
18.035500	-0.000817	0.000418	-0.001040	0.001820	6617.252190	40578.241690	3835.654354	21908.944110
18.536000	-0.001029	-0.000115	0.003229	0.002138	6612.557053	40504.319375	3845.729419	21894.932767
19.036000	-0.000563	0.000595	0.000366	0.002398	6614.382449	40543.397512	3837.759271	21883.492771
19.536500	0.001473	0.001277	0.001594	0.003232	6625.038221	40530.277820	3838.763196	21846.816304
20.037000	-0.000281	0.000630	0.004652	0.002958	6611.926948	40497.812163	3847.277591	21858.834508
20.537500	-0.000788	0.000801	0.001151	0.002450	6611.934803	40556.844032	3839.625416	21881.208148
21.034500	-0.001138	-0.000814	0.000369	0.001172	6620.158593	40527.553612	3840.891248	21937.583366
21.535500	-0.000220	0.001181	0.001363	0.002863	6613.303171	40553.964715	3839.112412	21863.012675
22.035500	-0.000866	0.000035	0.002302	0.002178	6613.649030	40513.862993	3843.256196	21893.179847
22.535500	-0.002739	0.000895	0.003283	0.002691	6592.602857	40544.028810	3844.453139	21870.591191
23.035500	-0.003295	-0.000247	-0.001345	0.001740	6596.072566	40527.392606	3835.085680	21912.485863
23.538500	0.000507	0.000689	-0.002892	0.002333	6624.441911	40557.322564	3829.670728	21886.371577
24.036500	-0.001305	0.000277	-0.001696	0.002422	6607.611317	40513.716397	3832.466932	21882.442779
24.536500	-0.001710	-0.000088	0.003499	0.001836	6609.211261	40532.888886	3847.198924	21908.264498
25.037000	-0.000820	0.000443	0.004343	0.002620	6610.149824	40510.912300	3847.349648	21873.697828
25.537000	0.001113	0.000947	0.005767	0.003020	6623.721486	40519.918004	3849.979585	21856.096356
26.034500	-0.000983	0.000530	0.004470	0.002244	6612.031397	40551.149906	3848.643951	21890.275049
26.535000	-0.002011	0.000176	0.000570	0.001915	6605.860232	40549.045899	3839.508965	21904.798372
27.035500	0.000152	0.000628	0.002655	0.002566	6619.226058	40531.715245	3843.167235	21876.090049
27.536000	0.000744	0.001023	0.003096	-0.000736	6653.890583	40854.295620	3852.775566	22022.026546
28.036000	0.000253	0.000103	-0.002416	0.000597	6637.611437	40657.381156	3835.268250	21962.972558
28.536500	0.000664	0.000815	0.003223	0.001300	6635.017296	40658.154251	3847.865200	21931.909950
29.036500	0.000280	0.000506	0.000768	0.000794	6636.095289	40675.345616	3842.873241	21954.259732
29.537000	0.000225	0.000736	0.000614	0.000829	6635.297392	40692.348564	3842.389466	21952.714822
30.037000	0.000503	0.000882	0.001847	0.001862	6628.588120	40615.028850	3842.902694	21907.108589
30.534000	-0.001135	0.000733	0.004197	0.001030	6621.442027	40674.608703	3851.062847	21943.852709
31.034500	0.000457	0.000576	-0.002144	0.004221	6607.282553	40383.640853	3826.792465	21803.353496
31.535500	0.000363	0.000458	0.004830	0.001635	6629.359040	40597.901371	3851.134749	21917.136807
32.035500	0.000338	0.000254	0.006240	0.002046	6625.488629	40544.346170	3853.707588	21898.996087
32.536000	-0.002924	0.000705	0.002073	0.001184	6604.251048	40658.732465	3845.214073	21937.053826
33.039000	0.001104	0.000731	0.001640	0.000868	6642.785194	40688.517641	3844.916774	21951.014364
33.536500	0.002693	0.000999	0.006515	-0.000359	6667.962110	40819.091509	3860.645030	22005.284780
34.037000	-0.000868	0.000999	0.003581	0.003489	6602.050247	40483.754927	3843.173553	21835.492660
34.537000	-0.002206	-0.000308	0.001541	0.002644	6597.704675	40443.656445	3840.123014	21872.639741
35.037000	-0.000391	0.000128	0.002556	0.002718	6613.077868	40475.166981	3842.526883	21869.424183
35.535000	-0.000241	0.000569	0.000743	0.003174	6610.367221	40473.800107	3836.744003	21849.327856
36.035000	-0.001086	0.000104	0.000924	0.002972	6604.696070	40451.012486	3837.718922	21858.231028
36.535500	0.000764	0.000836	0.004675	0.003495	6616.418818	40469.106879	3845.958258	21835.227259
37.036000	0.000737	0.000871	0.001795	0.003104	6619.648303	40506.081229	3839.601076	21852.420264
37.539000	-0.001659	-0.000657	-0.000381	0.002364	6605.002798	40437.802540	3835.948572	21885.007451
38.039000	-0.001034	0.000924	0.008222	0.003569	6599.888183	40470.381210	3854.894529	21832.000573
38.536000	-0.002843	0.000036	0.000786	0.002408	6594.178592	40494.045015	3838.803769	21883.058678
39.036500	-0.000809	0.000130	0.001838	0.002657	6609.916369	40480.548947	3840.848954	21872.083912
39.537000	-0.002138	0.000412	-0.000239	0.002972	6595.416323	40477.722272	3834.766589	21858.228896
40.034500	-0.001708	0.000599	0.002960	0.003561	6594.015247	40442.845886	3841.406129	21832.336721
40.535000	-0.000001	0.000764	0.000758	0.002887	6615.027031	40515.640373	3837.512237	21861.953297
41.035500	0.001313	0.000964	0.001587	0.003334	6622.714492	40494.192124	3838.484745	21842.327401
41.535000	-0.000097	-0.000277	0.000651	0.002310	6619.292266	40475.347670	3838.708645	21887.375941
42.035500	-0.000391	0.000297	0.002677	0.003160	6609.173266	40451.456319	3841.707559	21849.973717
42.536000	-0.002645	0.000669	0.000585	0.003333	6587.778221	40468.620382	3835.940086	21842.338261
43.036500	-0.001628	0.000843	0.002596	0.003580	6594.557703	40462.413007	3840.428955	21831.521656
43.537000	-0.000601	0.000530	-0.001133	0.003001	6608.718165	40485.371156	3832.425688	21856.940268
44.036500	-0.001525	0.001094	-0.000160	0.002968	6600.854513	40537.335836	3834.977268	21858.421350
44.537000	-0.001335	-0.000267	0.006186	0.000746	6622.175496	40612.136367	3856.926718	21956.376898
45.038000	-0.001360	0.000444	0.003563	0.000884	6620.742008	40662.080811	3849.808136	21950.306447
45.534500	-0.001312	0.000356	0.002476	0.000833	6621.612239	40658.837789	3847.146112	21952.543425
46.036000	-0.004112	-0.000467	0.003081	0.003370	6574.583842	40367.044768	3842.200889	21840.713905
46.536000	-0.000834	0.000718	-0.000496	0.001434	6620.519522	40637.963524	3838.018855	21925.989388
47.038500	-0.000273	0.001407	0.002895	0.001894	6621.422462	40657.929360	3845.500631	21905.701508
47.536500	-0.001055	-0.000034	0.002320	0.003034	6604.415430	40433.623127	3841.118453	21855.503018
48.037000	-0.001654	0.000639	0.002902	0.005652	6576.129585	40265.493892	3835.937004	21740.724876
48.537000	-0.000820	-0.000288	-0.000984	0.001081	6623.783494	40581.236529	3837.677678	21941.600723
49.037000	-0.000239	0.000562	0.002117	0.000996	6629.689830	40662.636376	3845.809273	21945.349822
49.537500	0.002275	0.001041	0.005188	-0.000800	6668.169873	40861.468572	3858.348523	22024.876055
50.035000	-0.000460	0.000879	0.001281	0.007016	6574.640513	40168.660671	3828.382948	21681.183133
50.535000	-0.004309	-0.002611	0.008212	-0.004646	6643.678647	40878.409740	3876.285375	22196.242292
51.035500	-0.036418	-0.008347	0.023797	0.216738	4931.501323	25371.773334	3444.867355	14432.559101
51.535500	-0.050035	-0.011676	-0.007018	0.011445	6129.929909	38735.444760	3796.748756	21489.135801
52.036000	-0.047844	-0.016380	-0.007482	-0.078334	6922.089246	46511.670271	4039.595128	25791.149093
52.536500	-0.050555	-0.052026	-0.020524	-0.252862	8936.448119	62983.428075	4627.990195	37184.647866
53.036500	-0.031952	-0.103374	-0.011755	-0.322243	10320.939350	65535.000000	5001.560636	43148.555327
53.537000	-0.025918	-0.099333	-0.006013	-0.318202	10355.671614	65535.000000	5010.462719	42774.487534
54.034500	-0.012046	-0.073149	-0.004728	-0.290080	10110.842013	65255.527521	4873.995207	40265.208183
54.537500	-0.003695	-0.035267	0.003777	-0.232645	9326.501118	62506.160828	4645.896233	35618.674869
55.035000	0.002201	-0.021980	0.003447	-0.208229	9052.845885	60995.496350	4539.955172	33822.084552
55.535000	0.019339	-0.012945	0.011063	-0.196756	9135.322574	60669.817826	4523.982584	33012.181278
56.035500	0.032267	0.001565	0.017638	-0.164749	8861.802917	58384.837806	4422.125955	30862.517102
56.539000	0.048892	0.009596	0.028247	-0.145344	8822.928347	56947.903692	4388.261822	29634.251430
57.036000	0.061334	0.019508	0.045337	-0.114309	8569.327905	54377.358315	4335.963911	27780.562306
57.536500	0.070986	0.027888	0.061049	-0.076953	8211.013364	51048.449933	4258.041359	25718.000680
58.036500	0.079471	0.035839	0.069512	-0.037523	7836.911884	47675.043820	4153.099712	23725.082290
58.537000	0.096882	0.045582	0.086747	0.004791	7554.620449	44432.636732	4073.425297	21778.371566
59.037000	0.103964	0.053089	0.100643	0.044749	7205.898065	41435.297328	3995.364209	20106.290353
59.535000	0.111320	0.057938	0.106745	0.054527	7181.230500	40999.279260	3984.724756	19719.992766
60.035500	0.120931	0.064179	0.119648	0.090085	6925.493439	38505.789264	3921.113680	18386.394845
60.535500	0.132332	0.071089	0.134970	0.109845	6846.296533	37464.835913	3909.035518	17691.156753
61.036500	0.142063	0.078243	0.149871	0.135829	6696.616987	35993.996336	3879.407815	16823.760074
61.535500	0.153290	0.085260	0.156681	0.161248	6570.429728	34616.966192	3831.332200	16024.024887
62.036500	0.161560	0.088569	0.159100	0.171256	6555.250957	34129.885831	3812.306682	15721.744902
62.536500	0.164056	0.089599	0.166379	0.148563	6781.200057	35888.891595	3889.412991	16417.283557
63.037000	0.168024	0.093840	0.168162	0.153495	6772.308660	35836.301661	3881.059752	16263.012350
63.534000	0.172894	0.096035	0.173319	0.157361	6781.574870	35709.435741	3884.477460	16143.309347
64.037500	0.175464	0.099531	0.178136	0.162524	6757.702287	35583.312758	3883.560465	15985.087505
64.535000	0.180190	0.101718	0.174171	0.168221	6748.797599	35319.412614	3858.248908	15812.677556
65.035500	0.183931	0.102914	0.181081	0.173508	6734.668659	35014.529638	3862.460979	15654.699606
65.535000	0.186762	0.104640	0.185242	0.180565	6696.284221	34621.523646	3854.956292	15446.778365
66.039000	0.189982	0.107045	0.192010	0.190217	6638.585475	34094.930581	3847.530565	15167.845002
66.535500	0.193155	0.108983	0.193612	0.195700	6618.067084	33840.516595	3837.616673	15012.123278
67.036500	0.195419	0.109752	0.196185	0.201961	6582.832780	33450.487243	3828.278891	14836.701481
67.537000	0.199944	0.111902	0.202098	0.210494	6547.811872	33003.256375	3821.690889	14601.641587
68.037000	0.196927	0.112009	0.196369	0.221466	6428.117822	32257.130398	3780.627183	14306.134883
68.540000	0.205084	0.115288	0.205642	0.224340	6472.867650	32284.634922	3796.176691	14229.956928
69.034500	0.207974	0.116610	0.207523	0.231171	6439.430282	31912.927839	3784.129187	14050.887673
69.535000	0.207717	0.117400	0.210983	0.238172	6378.640939	31499.599595	3775.594341	13870.268483
70.035500	0.210630	0.119161	0.211696	0.247075	6329.234118	31031.475181	3756.119991	13644.742645
70.541000	0.214900	0.121295	0.222200	0.252708	6318.077936	30804.893500	3767.657571	13504.405747
71.036000	0.214780	0.120948	0.220984	0.256903	6283.019576	30513.617701	3754.850252	13401.088718
71.539000	0.216809	0.123010	0.223437	0.263581	6245.626222	30220.603286	3744.957911	13238.645687
72.036500	0.214279	0.123918	0.223874	0.274498	6139.698750	29595.876007	3720.834947	12978.415259
72.537000	0.219551	0.125657	0.227955	0.275381	6173.912967	29648.777773	3728.136185	12957.662422
73.037000	0.220655	0.126597	0.228471	0.279709	6148.747068	29440.110416	3719.440029	12856.500459
73.537500	0.224777	0.127923	0.229575	0.285476	6135.977454	29169.071964	3708.907131	12723.245953
74.035000	0.220780	0.127991	0.232597	0.295092	6032.150977	28595.694182	3694.203387	12504.979416
74.535000	0.226777	0.129775	0.237139	0.294739	6080.179600	28722.978885	3705.097379	12512.918444
75.035500	0.228628	0.131796	0.234751	0.299917	6054.932128	28535.209928	3688.311940	12397.275515
75.535500	0.232934	0.133585	0.242039	0.304689	6051.408761	28359.057319	3693.862055	12291.906507
76.036500	0.232722	0.134754	0.241756	0.314837	5974.089969	27836.106834	3671.062400	12071.671699
76.536500	0.233010	0.134123	0.243814	0.312509	5993.439060	27934.070099	3680.583422	12121.743976
77.036500	0.236923	0.135687	0.248221	0.316753	5990.982422	27779.441052	3680.936992	12030.651352
77.538000	0.240447	0.138120	0.249551	0.322260	5976.323132	27603.306498	3671.866765	11913.798400
78.034000	0.237643	0.137625	0.244927	0.330492	5895.904256	27109.910693	3644.487403	11741.846251
78.537500	0.246071	0.140090	0.254768	0.330653	5955.944270	27239.128382	3665.024825	11738.499028
79.035000	0.247931	0.143137	0.258305	0.335191	5936.372347	27155.449625	3662.882038	11645.139830
79.535500	0.247327	0.141533	0.258484	0.336973	5919.028992	26966.232311	3659.456067	11608.728641
80.038000	0.244121	0.141309	0.260638	0.345258	5836.842726	26497.422693	3646.472857	11441.455175
80.535000	0.251438	0.143141	0.264892	0.343381	5902.429432	26700.665199	3659.456601	11479.069496
81.036500	0.254920	0.146454	0.265338	0.348568	5890.158843	26597.756312	3649.399645	11375.497715
81.536500	0.256695	0.148324	0.267844	0.352475	5874.887679	26486.362970	3646.447312	11298.299571
82.037000	0.255225	0.145989	0.270325	0.355903	5840.082488	26174.153964	3644.459379	11231.138283
82.537000	0.255885	0.146379	0.265253	0.355088	5850.525359	26239.111810	3635.569845	11247.062004
83.034000	0.259018	0.149410	0.269458	0.359598	5840.775441	26159.377320	3634.935276	11159.331374
83.535000	0.257866	0.147826	0.274666	0.360167	5828.636032	26043.919667	3644.621068	11148.343311
84.037500	0.259270	0.149243	0.272771	0.367775	5785.271617	25714.911621	3624.893727	11002.590607
84.535500	0.262681	0.151809	0.277285	0.366177	5820.239461	25935.697076	3637.532076	11033.001939
85.036000	0.265962	0.153588	0.277136	0.369346	5821.021547	25861.745226	3630.649409	10972.812831
85.535500	0.267102	0.153465	0.286332	0.370455	5821.234497	25796.419720	3647.515702	10951.852198
86.036500	0.259002	0.152596	0.278894	0.376194	5725.584725	25449.172737	3620.192233	10844.260861
86.537000	0.267818	0.152800	0.276036	0.372576	5811.390110	25649.410351	3621.746722	10911.936559
87.037000	0.270169	0.154382	0.283139	0.374839	5812.002232	25613.586918	3631.702840	10869.539177
87.537000	0.269413	0.154714	0.280073	0.376070	5798.122310	25566.382045	3622.856357	10846.573009
88.034500	0.267813	0.155103	0.282622	0.382271	5744.245654	25263.751355	3615.407494	10731.871876
88.534500	0.271158	0.155765	0.283224	0.378379	5794.200860	25500.576945	3624.584102	10803.676409
89.035000	0.271561	0.155523	0.281797	0.378627	5795.276482	25475.000077	3621.152796	10799.085657
89.538000	0.271678	0.156668	0.291578	0.380061	5786.120059	25459.857842	3638.384382	10772.563774
90.035500	0.268235	0.157482	0.287316	0.387561	5711.105726	25113.683260	3614.198536	10635.308516
90.536000	0.275165	0.157728	0.286019	0.383119	5789.102551	25355.878201	3620.600354	10716.319259
91.036500	0.274248	0.158016	0.290576	0.383124	5782.698178	25370.564573	3629.950151	10716.216113
91.536500	0.275783	0.157971	0.294869	0.383403	5791.421042	25353.756762	3638.277243	10711.109745
92.037000	0.275821	0.159442	0.289929	0.387663	5762.205182	25209.379388	3619.306878	10633.461446
92.537000	0.279037	0.160332	0.294694	0.386814	5790.326991	25299.271636	3630.834009	10648.867451
93.034000	0.279670	0.160634	0.295936	0.387489	5790.036370	25279.939533	3632.008109	10636.608754
93.535000	0.281404	0.162421	0.291916	0.388942	5791.996898	25297.265829	3620.752868	10610.297738
94.125000	0.277505	0.160610	0.288085	0.395042	5723.239108	24891.138717	3600.686312	10500.733264
94.535500	0.279687	0.161208	0.293480	0.389274	5777.772946	25217.366671	3623.272740	10604.288441
95.036000	0.281008	0.160568	0.299458	0.389086	5788.240126	25194.046594	3636.000206	10607.688455
95.536000	0.281774	0.162393	0.300389	0.390822	5781.509361	25198.656142	3634.329179	10576.361646
96.039500	0.279707	0.162465	0.301360	0.393853	5746.384398	25046.554537	3630.064950	10521.977406
96.537000	0.284557	0.164947	0.297190	0.393871	5779.664647	25173.110439	3621.456189	10521.647873
