sample name	sample
index	312
start time	 02-25-2021  02:51:05 PM


Wavelength (nm)	Absorbance
494.344910	NaN
494.563924	NaN
494.782919	NaN
495.001897	-0.469434
495.220856	0.148881
495.439797	-0.115665
495.658719	-0.160322
495.877624	-0.198605
496.096510	-0.141560
496.315378	-0.100185
496.534227	-0.236471
496.753059	-0.200994
496.971872	-0.249837
497.190667	0.121986
497.409444	0.139372
497.628203	0.144995
497.846943	0.147342
498.065665	0.146346
498.284369	0.147167
498.503055	0.148375
498.721723	0.146877
498.940372	0.149459
499.159003	0.148592
499.377616	0.150579
499.596210	0.149531
499.814787	0.150643
500.033345	0.152825
500.251885	0.153083
500.470406	0.153009
500.688910	0.154991
500.907395	0.154545
501.125862	0.153868
501.344311	0.153783
501.562742	0.154632
501.781154	0.152921
501.999548	0.151393
502.217924	0.151032
502.436282	0.151415
502.654621	0.151570
502.872942	0.151667
503.091245	0.152592
503.309530	0.152079
503.527797	0.152256
503.746045	0.152199
503.964275	0.152780
504.182487	0.153880
504.400681	0.154215
504.618856	0.154263
504.837013	0.153881
505.055152	0.154030
505.273273	0.154041
505.491376	0.152956
505.709460	0.154012
505.927526	0.153837
506.145574	0.154255
506.363604	0.153402
506.581615	0.153292
506.799608	0.154013
507.017583	0.154235
507.235540	0.153880
507.453478	0.156277
507.671399	0.155597
507.889301	0.155914
508.107185	0.155127
508.325050	0.156264
508.542898	0.156763
508.760727	0.156483
508.978538	0.156420
509.196330	0.157349
509.414105	0.156886
509.631861	0.158040
509.849599	0.158353
510.067319	0.158819
510.285021	0.158491
510.502704	0.158353
510.720369	0.158380
510.938016	0.158944
511.155645	0.158285
511.373255	0.158494
511.590848	0.158164
511.808422	0.158400
512.025977	0.158640
512.243515	0.158158
512.461034	0.158433
512.678536	0.159331
512.896018	0.158636
513.113483	0.159499
513.330930	0.159222
513.548358	0.159733
513.765768	0.160453
513.983160	0.160711
514.200533	0.161805
514.417889	0.162387
514.635226	0.162229
514.852545	0.163408
515.069845	0.163749
515.287128	0.163257
515.504392	0.162720
515.721638	0.162521
515.938866	0.162392
516.156075	0.162506
516.373267	0.161410
516.590440	0.161735
516.807594	0.161988
517.024731	0.162297
517.241850	0.162919
517.458950	0.163949
517.676032	0.163562
517.893095	0.163927
518.110141	0.164190
518.327168	0.164797
518.544177	0.164975
518.761168	0.164272
518.978141	0.164796
519.195095	0.165638
519.412031	0.166118
519.628949	0.166705
519.845849	0.166774
520.062731	0.166777
520.279594	0.167517
520.496439	0.168114
520.713266	0.169516
520.930074	0.169944
521.146865	0.170408
521.363637	0.170636
521.580391	0.171267
521.797127	0.171678
522.013844	0.172097
522.230543	0.172148
522.447224	0.171802
522.663887	0.171575
522.880532	0.170983
523.097158	0.171206
523.313766	0.171917
523.530356	0.172212
523.746928	0.172359
523.963481	0.172843
524.180017	0.172897
524.396534	0.173942
524.613032	0.174599
524.829513	0.175188
525.045975	0.175328
525.262420	0.174974
525.478845	0.175192
525.695253	0.175161
525.911643	0.175131
526.128014	0.175440
526.344367	0.174763
526.560702	0.174659
526.777018	0.174470
526.993316	0.174322
527.209597	0.174444
527.425858	0.174823
527.642102	0.176006
527.858328	0.176251
528.074535	0.176433
528.290724	0.177029
528.506894	0.177568
528.723047	0.178311
528.939181	0.179000
529.155297	0.180385
529.371395	0.180276
529.587475	0.180595
529.803536	0.180858
530.019579	0.180690
530.235604	0.181427
530.451611	0.181345
530.667600	0.181601
530.883570	0.182157
531.099522	0.182119
531.315456	0.182786
531.531372	0.182847
531.747269	0.183859
531.963148	0.184590
532.179009	0.183785
532.394852	0.183899
532.610676	0.184008
532.826482	0.184459
533.042271	0.184157
533.258040	0.184276
533.473792	0.184559
533.689525	0.184600
533.905240	0.185482
534.120937	0.186485
534.336616	0.187095
534.552277	0.187404
534.767919	0.186329
534.983543	0.187249
535.199149	0.187886
535.414736	0.187973
535.630306	0.188287
535.845857	0.188494
536.061390	0.189113
536.276904	0.189238
536.492401	0.190285
536.707879	0.192011
536.923339	0.192601
537.138781	0.193124
537.354204	0.193768
537.569610	0.193737
537.784997	0.194208
538.000366	0.194495
538.215716	0.195398
538.431049	0.195725
538.646363	0.195479
538.861659	0.194660
539.076937	0.194523
539.292196	0.194707
539.507438	0.195615
539.722661	0.195646
539.937866	0.195852
540.153052	0.195869
540.368221	0.195435
540.583371	0.195157
540.798503	0.195848
541.013617	0.196111
541.228712	0.196256
541.443789	0.196483
541.658848	0.196668
541.873889	0.196956
542.088912	0.197553
542.303916	0.198476
542.518902	0.199654
542.733870	0.200634
542.948820	0.200563
543.163752	0.200988
543.378665	0.200846
543.593560	0.201446
543.808437	0.201897
544.023295	0.201958
544.238136	0.201731
544.452958	0.202083
544.667762	0.201533
544.882548	0.202305
545.097315	0.202440
545.312064	0.202762
545.526795	0.202469
545.741508	0.202621
545.956203	0.202916
546.170879	0.203697
546.385537	0.203518
546.600177	0.203665
546.814799	0.203699
547.029402	0.203755
547.243988	0.203972
547.458555	0.204452
547.673103	0.204768
547.887634	0.204973
548.102146	0.205133
548.316640	0.205344
548.531116	0.205637
548.745574	0.206100
548.960013	0.206397
549.174435	0.206792
549.388838	0.206582
549.603222	0.206448
549.817589	0.206934
550.031937	0.206886
550.246267	0.207425
550.460579	0.208194
550.674873	0.208238
550.889148	0.209338
551.103405	0.209506
551.317644	0.210210
551.531865	0.210963
551.746068	0.210785
551.960252	0.211320
552.174418	0.211415
552.388566	0.211563
552.602696	0.212204
552.816807	0.212287
553.030900	0.212866
553.244975	0.213278
553.459032	0.213431
553.673070	0.213856
553.887091	0.213977
554.101093	0.214240
554.315077	0.214297
554.529042	0.214265
554.742990	0.213852
554.956919	0.213885
555.170830	0.214283
555.384722	0.214437
555.598597	0.214317
555.812453	0.214009
556.026291	0.213818
556.240111	0.214120
556.453913	0.214393
556.667696	0.214752
556.881461	0.214618
557.095208	0.214307
557.308937	0.214146
557.522647	0.214518
557.736339	0.214952
557.950013	0.215323
558.163669	0.215196
558.377307	0.215205
558.590926	0.214810
558.804527	0.214591
559.018110	0.214972
559.231675	0.215045
559.445221	0.215132
559.658749	0.215401
559.872259	0.215559
560.085751	0.216026
560.299225	0.216301
560.512680	0.217408
560.726117	0.218434
560.939536	0.218484
561.152937	0.218989
561.366319	0.219543
561.579683	0.220232
561.793029	0.220546
562.006357	0.221039
562.219667	0.221179
562.432958	0.220919
562.646231	0.221011
562.859486	0.221539
563.072723	0.221628
563.285941	0.221653
563.499141	0.221407
563.712323	0.221523
563.925487	0.221399
564.138632	0.221595
564.351760	0.221547
564.564869	0.221701
564.777960	0.221665
564.991032	0.221597
565.204087	0.221371
565.417123	0.221233
565.630141	0.221541
565.843140	0.221554
566.056122	0.221513
566.269085	0.222179
566.482030	0.222133
566.694957	0.222242
566.907866	0.222479
567.120756	0.222782
567.333628	0.223414
567.546482	0.223509
567.759318	0.223686
567.972135	0.223843
568.184935	0.223743
568.397716	0.223809
568.610478	0.224521
568.823223	0.224908
569.035949	0.225222
569.248657	0.225325
569.461347	0.225610
569.674019	0.226042
569.886672	0.226233
570.099308	0.226332
570.311925	0.226738
570.524523	0.226108
570.737104	0.226172
570.949666	0.226526
571.162210	0.226709
571.374736	0.226823
571.587244	0.226959
571.799733	0.227163
572.012205	0.227621
572.224658	0.227991
572.437092	0.228393
572.649509	0.228572
572.861907	0.228902
573.074287	0.229223
573.286649	0.229649
573.498993	0.229628
573.711318	0.229865
573.923625	0.229802
574.135914	0.229759
574.348185	0.230121
574.560438	0.230462
574.772672	0.230376
574.984888	0.230038
575.197086	0.229788
575.409266	0.229971
575.621427	0.230169
575.833570	0.230505
576.045695	0.231173
576.257802	0.231183
576.469890	0.230876
576.681961	0.231463
576.894013	0.231722
577.106046	0.232149
577.318062	0.232148
577.530059	0.232275
577.742039	0.232426
577.954000	0.232051
578.165942	0.232650
578.377867	0.233631
578.589773	0.233140
578.801661	0.233355
579.013531	0.233571
579.225382	0.233973
579.437216	0.234137
579.649031	0.233999
579.860828	0.234063
580.072606	0.234037
580.284367	0.233974
580.496109	0.234445
580.707833	0.234725
580.919539	0.234690
581.131227	0.235072
581.342896	0.235486
581.554547	0.235854
581.766180	0.235994
581.977795	0.235936
582.189391	0.236043
582.400969	0.235836
582.612529	0.235570
582.824071	0.235736
583.035595	0.235478
583.247100	0.235529
583.458587	0.235852
583.670056	0.236355
583.881506	0.236446
584.092939	0.236341
584.304353	0.236434
584.515749	0.237145
584.727127	0.237590
584.938486	0.237903
585.149828	0.237874
585.361151	0.237985
585.572456	0.238035
585.783742	0.238420
585.995011	0.238873
586.206261	0.239053
586.417493	0.239106
586.628706	0.239007
586.839902	0.239022
587.051079	0.239029
587.262238	0.239384
587.473379	0.239481
587.684502	0.239586
587.895606	0.239386
588.106692	0.239553
588.317760	0.239367
588.528810	0.239602
588.739841	0.240187
588.950855	0.240768
589.161850	0.240464
589.372827	0.240584
589.583785	0.240851
589.794726	0.240955
590.005648	0.241714
590.216552	0.242153
590.427437	0.242049
590.638305	0.242064
590.849154	0.242070
591.059985	0.242428
591.270798	0.242635
591.481592	0.242449
591.692369	0.242697
591.903127	0.242729
592.113867	0.242985
592.324588	0.243204
592.535292	0.242836
592.745977	0.243051
592.956644	0.243179
593.167293	0.243392
593.377923	0.244020
593.588536	0.244689
593.799130	0.244751
594.009706	0.244906
594.220263	0.244993
594.430803	0.245514
594.641324	0.245703
594.851827	0.245811
595.062312	0.245793
595.272778	0.245422
595.483227	0.245263
595.693657	0.245110
595.904069	0.245147
596.114462	0.245461
596.324838	0.245824
596.535195	0.246182
596.745534	0.246082
596.955855	0.246577
597.166157	0.246923
597.376441	0.247122
597.586707	0.247379
597.796955	0.247712
598.007185	0.247820
598.217396	0.247994
598.427589	0.247660
598.637764	0.248148
598.847921	0.247875
599.058060	0.248194
599.268180	0.248357
599.478282	0.248334
599.688366	0.248435
599.898431	0.248987
600.108479	0.248792
600.318508	0.249214
600.528519	0.249322
600.738511	0.249910
600.948486	0.250115
601.158442	0.250820
601.368380	0.251392
601.578300	0.251361
601.788202	0.251108
601.998085	0.251525
602.207950	0.251760
602.417797	0.251894
602.627626	0.251812
602.837436	0.251739
603.047228	0.251115
603.257002	0.251415
603.466758	0.251908
603.676496	0.252265
603.886215	0.252293
604.095916	0.252410
604.305599	0.252525
604.515264	0.252785
604.724910	0.253097
604.934538	0.253578
605.144148	0.253356
605.353740	0.253005
605.563314	0.253322
605.772869	0.253396
605.982406	0.253442
606.191925	0.253953
606.401425	0.253999
606.610908	0.254163
606.820372	0.253952
607.029818	0.254289
607.239246	0.254872
607.448655	0.254649
607.658047	0.254952
607.867420	0.254673
608.076775	0.254453
608.286111	0.254679
608.495430	0.254630
608.704730	0.254969
608.914012	0.255087
609.123275	0.255147
609.332521	0.255251
609.541748	0.255359
609.750957	0.255924
609.960148	0.256230
610.169321	0.256189
610.378475	0.256462
610.587611	0.256460
610.796729	0.256440
611.005829	0.256746
611.214910	0.257208
611.423974	0.257159
611.633019	0.257346
611.842045	0.257323
612.051054	0.257650
612.260044	0.257475
612.469017	0.257727
612.677970	0.258051
612.886906	0.257915
613.095824	0.257722
613.304723	0.257781
613.513604	0.257924
613.722467	0.258108
613.931311	0.257979
614.140138	0.258135
614.348946	0.258412
614.557736	0.258585
614.766507	0.258647
614.975261	0.258564
615.183996	0.258805
615.392713	0.258681
615.601412	0.258785
615.810092	0.259158
616.018754	0.259459
616.227399	0.259394
616.436024	0.259205
616.644632	0.259247
616.853222	0.259354
617.061793	0.259440
617.270346	0.259767
617.478880	0.260135
617.687397	0.260117
617.895895	0.260528
618.104375	0.260497
618.312837	0.260591
618.521281	0.260885
618.729706	0.261321
618.938113	0.261442
619.146502	0.261386
619.354873	0.261555
619.563226	0.261794
619.771560	0.261720
619.979876	0.262335
620.188174	0.262640
620.396453	0.263042
620.604715	0.263060
620.812958	0.263401
621.021183	0.263583
621.229390	0.263501
621.437578	0.263322
621.645748	0.263829
621.853900	0.263751
622.062034	0.263948
622.270150	0.263858
622.478247	0.264316
622.686326	0.264188
622.894387	0.264352
623.102430	0.264551
623.310454	0.265035
623.518461	0.265027
623.726449	0.265302
623.934418	0.265344
624.142370	0.265502
624.350303	0.265298
624.558218	0.265607
624.766115	0.265552
624.973994	0.265469
625.181855	0.265305
625.389697	0.265311
625.597521	0.265194
625.805327	0.265472
626.013114	0.265449
626.220883	0.265671
626.428634	0.265876
626.636367	0.266225
626.844082	0.266482
627.051778	0.266878
627.259457	0.266841
627.467117	0.266959
627.674758	0.266998
627.882382	0.267125
628.089987	0.267445
628.297574	0.267562
628.505143	0.267828
628.712694	0.268041
628.920226	0.268110
629.127740	0.268376
629.335236	0.268664
629.542714	0.268794
629.750174	0.268761
629.957615	0.268710
630.165038	0.268659
630.372443	0.268704
630.579829	0.268950
630.787198	0.269296
630.994548	0.269296
631.201880	0.269631
631.409194	0.270044
631.616489	0.270707
631.823766	0.271075
632.031025	0.271356
632.238266	0.271607
632.445489	0.271349
632.652693	0.271313
632.859879	0.271818
633.067047	0.271839
633.274197	0.271990
633.481329	0.271955
633.688442	0.271957
633.895537	0.272163
634.102614	0.272285
634.309672	0.272578
634.516713	0.272948
634.723735	0.273065
634.930739	0.273284
635.137724	0.273055
635.344692	0.273244
635.551641	0.273352
635.758572	0.273398
635.965485	0.273346
636.172379	0.273714
636.379256	0.273594
636.586114	0.273473
636.792954	0.273428
636.999775	0.273564
637.206579	0.273534
637.413364	0.273840
637.620131	0.274035
637.826880	0.274261
638.033610	0.274132
638.240323	0.274231
638.447017	0.274551
638.653692	0.274648
638.860350	0.274913
639.066990	0.274880
639.273611	0.274694
639.480214	0.274830
639.686798	0.274915
639.893365	0.275251
640.099913	0.275138
640.306443	0.275207
640.512955	0.275302
640.719449	0.275468
640.925924	0.275933
641.132381	0.276414
641.338820	0.276622
641.545241	0.276854
641.751644	0.277093
641.958028	0.277668
642.164394	0.277561
642.370742	0.277923
642.577071	0.278106
642.783383	0.278260
642.989676	0.278282
643.195951	0.278248
643.402207	0.278432
643.608446	0.278268
643.814666	0.278511
644.020868	0.279175
644.227052	0.279360
644.433218	0.279472
644.639365	0.279703
644.845494	0.279812
645.051605	0.280123
645.257698	0.280369
645.463772	0.280614
645.669828	0.280920
645.875866	0.280546
646.081886	0.280599
646.287888	0.280893
646.493871	0.280777
646.699836	0.281091
646.905783	0.281155
647.111712	0.281339
647.317622	0.281649
647.523514	0.281278
647.729388	0.281675
647.935244	0.282102
648.141082	0.282374
648.346901	0.282682
648.552702	0.282855
648.758485	0.283283
648.964250	0.283311
649.169996	0.283485
649.375724	0.284063
649.581434	0.284176
649.787126	0.284237
649.992800	0.284050
650.198455	0.284248
650.404092	0.284360
650.609711	0.284331
650.815311	0.284560
651.020894	0.284641
651.226458	0.284542
651.432004	0.284656
651.637532	0.284568
651.843041	0.284916
652.048532	0.285208
652.254006	0.285261
652.459460	0.285556
652.664897	0.285519
652.870315	0.285719
653.075716	0.286174
653.281097	0.286368
653.486461	0.286668
653.691807	0.286585
653.897134	0.286712
654.102443	0.286776
654.307734	0.287044
654.513006	0.287562
654.718261	0.287974
654.923497	0.287976
655.128715	0.288130
655.333915	0.288270
655.539096	0.288952
655.744259	0.289036
655.949404	0.289346
656.154531	0.289519
656.359640	0.289685
656.564730	0.289761
656.769802	0.289868
656.974856	0.290008
657.179892	0.290325
657.384909	0.290161
657.589908	0.290514
657.794889	0.290851
657.999852	0.290857
658.204797	0.291177
658.409723	0.291397
658.614631	0.291846
658.819521	0.292205
659.024393	0.292277
659.229246	0.292616
659.434081	0.292585
659.638898	0.292850
659.843697	0.292846
660.048478	0.292887
660.253240	0.293018
660.457984	0.292915
660.662710	0.293186
660.867417	0.293322
661.072107	0.293367
661.276778	0.293650
661.481431	0.293966
661.686066	0.294590
661.890682	0.294594
662.095281	0.294891
662.299861	0.295384
662.504422	0.295473
662.708966	0.295782
662.913491	0.295869
663.117999	0.295849
663.322488	0.295640
663.526958	0.295577
663.731411	0.296027
663.935845	0.295988
664.140261	0.296116
664.344659	0.296335
664.549038	0.296397
664.753400	0.296823
664.957743	0.297396
665.162068	0.297702
665.366375	0.298144
665.570663	0.298071
665.774933	0.298190
665.979185	0.298106
666.183419	0.298295
666.387635	0.298571
666.591832	0.298627
666.796011	0.298739
667.000172	0.298861
667.204315	0.298812
667.408439	0.299332
667.612545	0.299841
667.816634	0.300145
668.020703	0.300374
668.224755	0.300800
668.428788	0.301061
668.632803	0.301268
668.836800	0.301678
669.040779	0.302145
669.244739	0.302423
669.448681	0.302622
669.652605	0.302910
669.856511	0.303280
670.060399	0.303176
670.264268	0.303358
670.468119	0.303620
670.671952	0.303759
670.875767	0.303717
671.079563	0.303707
671.283341	0.303843
671.487101	0.304156
671.690843	0.304333
671.894567	0.304608
672.098272	0.304890
672.301959	0.304796
672.505628	0.304859
672.709278	0.304966
672.912911	0.305296
673.116525	0.305483
673.320121	0.305480
673.523699	0.305684
673.727258	0.305933
673.930799	0.305941
674.134322	0.306405
674.337827	0.306674
674.541314	0.307008
674.744782	0.307117
674.948232	0.307262
675.151664	0.307442
675.355078	0.307635
675.558474	0.308008
675.761851	0.308466
675.965210	0.308689
676.168551	0.308930
676.371873	0.309146
676.575178	0.309202
676.778464	0.309263
676.981732	0.309696
677.184981	0.309940
677.388213	0.310068
677.591426	0.310151
677.794621	0.310136
677.997798	0.310071
678.200956	0.310004
678.404097	0.310404
678.607219	0.310934
678.810323	0.310877
679.013408	0.310919
679.216476	0.311229
679.419525	0.311343
679.622556	0.311642
679.825569	0.312332
680.028563	0.312742
680.231540	0.312926
680.434498	0.312970
680.637438	0.313450
680.840359	0.313583
681.043263	0.313494
681.246148	0.313770
681.449015	0.313913
681.651864	0.313964
681.854694	0.314245
682.057506	0.314314
682.260301	0.314557
682.463076	0.314510
682.665834	0.314705
682.868573	0.314978
683.071295	0.315218
683.273998	0.315615
683.476682	0.315765
683.679349	0.315842
683.881997	0.316258
684.084627	0.316445
684.287239	0.316697
684.489833	0.317061
684.692408	0.317257
684.894965	0.317485
685.097504	0.317471
685.300025	0.317742
685.502527	0.317797
685.705012	0.317736
685.907478	0.317835
686.109925	0.317950
686.312355	0.318149
686.514766	0.318237
686.717159	0.318542
686.919534	0.318710
687.121891	0.318610
687.324230	0.319002
687.526550	0.319215
687.728852	0.319443
687.931136	0.319895
688.133401	0.319794
688.335649	0.319999
688.537878	0.319935
688.740089	0.320392
688.942281	0.320679
689.144456	0.320702
689.346612	0.320901
689.548750	0.321300
689.750870	0.321504
689.952971	0.321859
690.155055	0.322257
690.357120	0.322523
690.559167	0.322526
690.761195	0.322881
690.963206	0.323249
691.165198	0.323480
691.367172	0.323564
691.569128	0.323396
691.771065	0.323672
691.972984	0.323603
692.174885	0.323830
692.376768	0.324161
692.578633	0.324118
692.780479	0.324309
692.982308	0.324432
693.184118	0.324582
693.385909	0.324927
