sample name	sample
index	783
start time	 03-31-2021  01:53:55 PM


Wavelength (nm)	Absorbance
494.344910	-0.158104
494.563924	-0.158104
494.782919	-0.158104
495.001897	-0.112406
495.220856	-0.022114
495.439797	0.007169
495.658719	0.069659
495.877624	0.091166
496.096510	0.064005
496.315378	0.081150
496.534227	0.046273
496.753059	-0.005625
496.971872	-0.034687
497.190667	0.037654
497.409444	0.045493
497.628203	0.049877
497.846943	0.052314
498.065665	0.053675
498.284369	0.054653
498.503055	0.056185
498.721723	0.055984
498.940372	0.055979
499.159003	0.056257
499.377616	0.056166
499.596210	0.056287
499.814787	0.056843
500.033345	0.056636
500.251885	0.055673
500.470406	0.054688
500.688910	0.055256
500.907395	0.056126
501.125862	0.055918
501.344311	0.056699
501.562742	0.055967
501.781154	0.055905
501.999548	0.055866
502.217924	0.055881
502.436282	0.056478
502.654621	0.056555
502.872942	0.056016
503.091245	0.056709
503.309530	0.056783
503.527797	0.057008
503.746045	0.056346
503.964275	0.056345
504.182487	0.057371
504.400681	0.057660
504.618856	0.057155
504.837013	0.056864
505.055152	0.055940
505.273273	0.055997
505.491376	0.056578
505.709460	0.056452
505.927526	0.057034
506.145574	0.056487
506.363604	0.056096
506.581615	0.056062
506.799608	0.056354
507.017583	0.057115
507.235540	0.056321
507.453478	0.055544
507.671399	0.055935
507.889301	0.055325
508.107185	0.055463
508.325050	0.055708
508.542898	0.056178
508.760727	0.055732
508.978538	0.055786
509.196330	0.056773
509.414105	0.056957
509.631861	0.057241
509.849599	0.057279
510.067319	0.057819
510.285021	0.057414
510.502704	0.056944
510.720369	0.057179
510.938016	0.057342
511.155645	0.056787
511.373255	0.056792
511.590848	0.056547
511.808422	0.056991
512.025977	0.056135
512.243515	0.056594
512.461034	0.057094
512.678536	0.057881
512.896018	0.057927
513.113483	0.057693
513.330930	0.058281
513.548358	0.057468
513.765768	0.057329
513.983160	0.057587
514.200533	0.058142
514.417889	0.058046
514.635226	0.058179
514.852545	0.057710
515.069845	0.058309
515.287128	0.058753
515.504392	0.060167
515.721638	0.060489
515.938866	0.061125
516.156075	0.061337
516.373267	0.061421
516.590440	0.060775
516.807594	0.060558
517.024731	0.060247
517.241850	0.059436
517.458950	0.058465
517.676032	0.058657
517.893095	0.058473
518.110141	0.058091
518.327168	0.057666
518.544177	0.057089
518.761168	0.057676
518.978141	0.057738
519.195095	0.058269
519.412031	0.058389
519.628949	0.058262
519.845849	0.057735
520.062731	0.058076
520.279594	0.058431
520.496439	0.059592
520.713266	0.059367
520.930074	0.058787
521.146865	0.058695
521.363637	0.058920
521.580391	0.058900
521.797127	0.059309
522.013844	0.058373
522.230543	0.058955
522.447224	0.058669
522.663887	0.058627
522.880532	0.060049
523.097158	0.060148
523.313766	0.060636
523.530356	0.061380
523.746928	0.061572
523.963481	0.062428
524.180017	0.061648
524.396534	0.060934
524.613032	0.061305
524.829513	0.061015
525.045975	0.060475
525.262420	0.059936
525.478845	0.059352
525.695253	0.059041
525.911643	0.058397
526.128014	0.059384
526.344367	0.060389
526.560702	0.060390
526.777018	0.060039
526.993316	0.060972
527.209597	0.062086
527.425858	0.062442
527.642102	0.062473
527.858328	0.063199
528.074535	0.063477
528.290724	0.063581
528.506894	0.064176
528.723047	0.064833
528.939181	0.064383
529.155297	0.064142
529.371395	0.064661
529.587475	0.065390
529.803536	0.065437
530.019579	0.064908
530.235604	0.064869
530.451611	0.064643
530.667600	0.064921
530.883570	0.065369
531.099522	0.064828
531.315456	0.064400
531.531372	0.064204
531.747269	0.064410
531.963148	0.064308
532.179009	0.065075
532.394852	0.065499
532.610676	0.065463
532.826482	0.065925
533.042271	0.066970
533.258040	0.067226
533.473792	0.067770
533.689525	0.068276
533.905240	0.069241
534.120937	0.068822
534.336616	0.068751
534.552277	0.068449
534.767919	0.068206
534.983543	0.067976
535.199149	0.068039
535.414736	0.067581
535.630306	0.067332
535.845857	0.067444
536.061390	0.067683
536.276904	0.068243
536.492401	0.069081
536.707879	0.068602
536.923339	0.068840
537.138781	0.068994
537.354204	0.069579
537.569610	0.069668
537.784997	0.069420
538.000366	0.069930
538.215716	0.069365
538.431049	0.069631
538.646363	0.070469
538.861659	0.070780
539.076937	0.071389
539.292196	0.070960
539.507438	0.071349
539.722661	0.071549
539.937866	0.070789
540.153052	0.071122
540.368221	0.070821
540.583371	0.071099
540.798503	0.071141
541.013617	0.071170
541.228712	0.071615
541.443789	0.071441
541.658848	0.071818
541.873889	0.072834
542.088912	0.073339
542.303916	0.073462
542.518902	0.073761
542.733870	0.073792
542.948820	0.073684
543.163752	0.073905
543.378665	0.074321
543.593560	0.074894
543.808437	0.074750
544.023295	0.074761
544.238136	0.075203
544.452958	0.074800
544.667762	0.075173
544.882548	0.075200
545.097315	0.075499
545.312064	0.075398
545.526795	0.075204
545.741508	0.075607
545.956203	0.075657
546.170879	0.075601
546.385537	0.076288
546.600177	0.076287
546.814799	0.076625
547.029402	0.076610
547.243988	0.076850
547.458555	0.076684
547.673103	0.076779
547.887634	0.076773
548.102146	0.076870
548.316640	0.076918
548.531116	0.076979
548.745574	0.076929
548.960013	0.077269
549.174435	0.077761
549.388838	0.078570
549.603222	0.078643
549.817589	0.078864
550.031937	0.079049
550.246267	0.078962
550.460579	0.079122
550.674873	0.078915
550.889148	0.079321
551.103405	0.078962
551.317644	0.078884
551.531865	0.079141
551.746068	0.079440
551.960252	0.079538
552.174418	0.080019
552.388566	0.080473
552.602696	0.080806
552.816807	0.080909
553.030900	0.081048
553.244975	0.081002
553.459032	0.081089
553.673070	0.081076
553.887091	0.081487
554.101093	0.081572
554.315077	0.080917
554.529042	0.081136
554.742990	0.080960
554.956919	0.081481
555.170830	0.081821
555.384722	0.081909
555.598597	0.082170
555.812453	0.082026
556.026291	0.081997
556.240111	0.082298
556.453913	0.082719
556.667696	0.083197
556.881461	0.083285
557.095208	0.083278
557.308937	0.083576
557.522647	0.083900
557.736339	0.084245
557.950013	0.084394
558.163669	0.085193
558.377307	0.085273
558.590926	0.085008
558.804527	0.085080
559.018110	0.085135
559.231675	0.085445
559.445221	0.085360
559.658749	0.085405
559.872259	0.085761
560.085751	0.085836
560.299225	0.085541
560.512680	0.085755
560.726117	0.085299
560.939536	0.085066
561.152937	0.084938
561.366319	0.084943
561.579683	0.085012
561.793029	0.084828
562.006357	0.084720
562.219667	0.085208
562.432958	0.085363
562.646231	0.085677
562.859486	0.086019
563.072723	0.086008
563.285941	0.086188
563.499141	0.086365
563.712323	0.086365
563.925487	0.086661
564.138632	0.086816
564.351760	0.086814
564.564869	0.086977
564.777960	0.087333
564.991032	0.087527
565.204087	0.087792
565.417123	0.087994
565.630141	0.087994
565.843140	0.087771
566.056122	0.087719
566.269085	0.088097
566.482030	0.088165
566.694957	0.088564
566.907866	0.088310
567.120756	0.088301
567.333628	0.088000
567.546482	0.088436
567.759318	0.088730
567.972135	0.088804
568.184935	0.088553
568.397716	0.089002
568.610478	0.088673
568.823223	0.089305
569.035949	0.089483
569.248657	0.089822
569.461347	0.089644
569.674019	0.089693
569.886672	0.090209
570.099308	0.090852
570.311925	0.090935
570.524523	0.090888
570.737104	0.090815
570.949666	0.090635
571.162210	0.090677
571.374736	0.091118
571.587244	0.091207
571.799733	0.091101
572.012205	0.090946
572.224658	0.090728
572.437092	0.091058
572.649509	0.091334
572.861907	0.091617
573.074287	0.092062
573.286649	0.092195
573.498993	0.092610
573.711318	0.092771
573.923625	0.092951
574.135914	0.093301
574.348185	0.093065
574.560438	0.093103
574.772672	0.093345
574.984888	0.093033
575.197086	0.093169
575.409266	0.093046
575.621427	0.093025
575.833570	0.092959
576.045695	0.093045
576.257802	0.093604
576.469890	0.093657
576.681961	0.093667
576.894013	0.093833
577.106046	0.093599
577.318062	0.093614
577.530059	0.093941
577.742039	0.093815
577.954000	0.094280
578.165942	0.094086
578.377867	0.094391
578.589773	0.094221
578.801661	0.094484
579.013531	0.094895
579.225382	0.095522
579.437216	0.095394
579.649031	0.096185
579.860828	0.096074
580.072606	0.096367
580.284367	0.096324
580.496109	0.096812
580.707833	0.097098
580.919539	0.097200
581.131227	0.096992
581.342896	0.097286
581.554547	0.096904
581.766180	0.096998
581.977795	0.096958
582.189391	0.096987
582.400969	0.096899
582.612529	0.097053
582.824071	0.097122
583.035595	0.097400
583.247100	0.097365
583.458587	0.097426
583.670056	0.097606
583.881506	0.097674
584.092939	0.097679
584.304353	0.097995
584.515749	0.097967
584.727127	0.098136
584.938486	0.097810
585.149828	0.097925
585.361151	0.098432
585.572456	0.098294
585.783742	0.098600
585.995011	0.098867
586.206261	0.098977
586.417493	0.098985
586.628706	0.099077
586.839902	0.099474
587.051079	0.099460
587.262238	0.099376
587.473379	0.099881
587.684502	0.099599
587.895606	0.099598
588.106692	0.099675
588.317760	0.099919
588.528810	0.100067
588.739841	0.100151
588.950855	0.100646
589.161850	0.100929
589.372827	0.100955
589.583785	0.101447
589.794726	0.101550
590.005648	0.101452
590.216552	0.101598
590.427437	0.101817
590.638305	0.101932
590.849154	0.101956
591.059985	0.101695
591.270798	0.101768
591.481592	0.102066
591.692369	0.101982
591.903127	0.102089
592.113867	0.102190
592.324588	0.102273
592.535292	0.102176
592.745977	0.102224
592.956644	0.102544
593.167293	0.102776
593.377923	0.102877
593.588536	0.103466
593.799130	0.103986
594.009706	0.103901
594.220263	0.103860
594.430803	0.104180
594.641324	0.104151
594.851827	0.104246
595.062312	0.104534
595.272778	0.104281
595.483227	0.104160
595.693657	0.103753
595.904069	0.103850
596.114462	0.103986
596.324838	0.103678
596.535195	0.103958
596.745534	0.104230
596.955855	0.103899
597.166157	0.103990
597.376441	0.103944
597.586707	0.104257
597.796955	0.104990
598.007185	0.105153
598.217396	0.105601
598.427589	0.105621
598.637764	0.105560
598.847921	0.105627
599.058060	0.105706
599.268180	0.106002
599.478282	0.106288
599.688366	0.105751
599.898431	0.105659
600.108479	0.105801
600.318508	0.105759
600.528519	0.105980
600.738511	0.106012
600.948486	0.106449
601.158442	0.106478
601.368380	0.106507
601.578300	0.106503
601.788202	0.106691
601.998085	0.106365
602.207950	0.106259
602.417797	0.106402
602.627626	0.106706
602.837436	0.106671
603.047228	0.106915
603.257002	0.106868
603.466758	0.107082
603.676496	0.107246
603.886215	0.107382
604.095916	0.107855
604.305599	0.108012
604.515264	0.107907
604.724910	0.108018
604.934538	0.107947
605.144148	0.108081
605.353740	0.108234
605.563314	0.108183
605.772869	0.108543
605.982406	0.108378
606.191925	0.107984
606.401425	0.108195
606.610908	0.108293
606.820372	0.108212
607.029818	0.108471
607.239246	0.108448
607.448655	0.108355
607.658047	0.108454
607.867420	0.108825
608.076775	0.109046
608.286111	0.109040
608.495430	0.108776
608.704730	0.108757
608.914012	0.108713
609.123275	0.108901
609.332521	0.109105
609.541748	0.109257
609.750957	0.109075
609.960148	0.109211
610.169321	0.109350
610.378475	0.109592
610.587611	0.109985
610.796729	0.109848
611.005829	0.109964
611.214910	0.110008
611.423974	0.109725
611.633019	0.109876
611.842045	0.110203
612.051054	0.110228
612.260044	0.110467
612.469017	0.110435
612.677970	0.110566
612.886906	0.110771
613.095824	0.110773
613.304723	0.111202
613.513604	0.111395
613.722467	0.111277
613.931311	0.111203
614.140138	0.110799
614.348946	0.110771
614.557736	0.111222
614.766507	0.111146
614.975261	0.111325
615.183996	0.111288
615.392713	0.111303
615.601412	0.111305
615.810092	0.111692
616.018754	0.112023
616.227399	0.112379
616.436024	0.112283
616.644632	0.112578
616.853222	0.112800
617.061793	0.112940
617.270346	0.113185
617.478880	0.113324
617.687397	0.113421
617.895895	0.113740
618.104375	0.113749
618.312837	0.113867
618.521281	0.113886
618.729706	0.114036
618.938113	0.114140
619.146502	0.113987
619.354873	0.114076
619.563226	0.114378
619.771560	0.114426
619.979876	0.114393
620.188174	0.114424
620.396453	0.114430
620.604715	0.114459
620.812958	0.114661
621.021183	0.114863
621.229390	0.115006
621.437578	0.114722
621.645748	0.114861
621.853900	0.115138
622.062034	0.115212
622.270150	0.115225
622.478247	0.115190
622.686326	0.115082
622.894387	0.115066
623.102430	0.114879
623.310454	0.115065
623.518461	0.115086
623.726449	0.114805
623.934418	0.114832
624.142370	0.115085
624.350303	0.115389
624.558218	0.115604
624.766115	0.115699
624.973994	0.116124
625.181855	0.115889
625.389697	0.116057
625.597521	0.116248
625.805327	0.116431
626.013114	0.116245
626.220883	0.116106
626.428634	0.116083
626.636367	0.116294
626.844082	0.115927
627.051778	0.116502
627.259457	0.116575
627.467117	0.116746
627.674758	0.116892
627.882382	0.117038
628.089987	0.117432
628.297574	0.117676
628.505143	0.117642
628.712694	0.118263
628.920226	0.118254
629.127740	0.118266
629.335236	0.118414
629.542714	0.118405
629.750174	0.118400
629.957615	0.118380
630.165038	0.118342
630.372443	0.118538
630.579829	0.118494
630.787198	0.118539
630.994548	0.118774
631.201880	0.119099
631.409194	0.119450
631.616489	0.119780
631.823766	0.119874
632.031025	0.119879
632.238266	0.120117
632.445489	0.120152
632.652693	0.120034
632.859879	0.120013
633.067047	0.119990
633.274197	0.119701
633.481329	0.119865
633.688442	0.119816
633.895537	0.119881
634.102614	0.119838
634.309672	0.119756
634.516713	0.120038
634.723735	0.120125
634.930739	0.120077
635.137724	0.120424
635.344692	0.120407
635.551641	0.120478
635.758572	0.120818
635.965485	0.120915
636.172379	0.121110
636.379256	0.121049
636.586114	0.121203
636.792954	0.121458
636.999775	0.121448
637.206579	0.121845
637.413364	0.122060
637.620131	0.122111
637.826880	0.122365
638.033610	0.122631
638.240323	0.122950
638.447017	0.123070
638.653692	0.122943
638.860350	0.123146
639.066990	0.123207
639.273611	0.123285
639.480214	0.123271
639.686798	0.123248
639.893365	0.123026
640.099913	0.122829
640.306443	0.122908
640.512955	0.123019
640.719449	0.123066
640.925924	0.122846
641.132381	0.122796
641.338820	0.122969
641.545241	0.123008
641.751644	0.123313
641.958028	0.123465
642.164394	0.123432
642.370742	0.123763
642.577071	0.123855
642.783383	0.124122
642.989676	0.124234
643.195951	0.124288
643.402207	0.124236
643.608446	0.124324
643.814666	0.124686
644.020868	0.124773
644.227052	0.124536
644.433218	0.124365
644.639365	0.124516
644.845494	0.124696
645.051605	0.124816
645.257698	0.124874
645.463772	0.125131
645.669828	0.125138
645.875866	0.125325
646.081886	0.125517
646.287888	0.125829
646.493871	0.125722
646.699836	0.125995
646.905783	0.126325
647.111712	0.126489
647.317622	0.126374
647.523514	0.126362
647.729388	0.126248
647.935244	0.126384
648.141082	0.126449
648.346901	0.126811
648.552702	0.126576
648.758485	0.126397
648.964250	0.126557
649.169996	0.126721
649.375724	0.126838
649.581434	0.127138
649.787126	0.127156
649.992800	0.127312
650.198455	0.127099
650.404092	0.127134
650.609711	0.127272
650.815311	0.127396
651.020894	0.127405
651.226458	0.127710
651.432004	0.127749
651.637532	0.127863
651.843041	0.127919
652.048532	0.128073
652.254006	0.128490
652.459460	0.128563
652.664897	0.128724
652.870315	0.128997
653.075716	0.129000
653.281097	0.129087
653.486461	0.129319
653.691807	0.129474
653.897134	0.129452
654.102443	0.129572
654.307734	0.129886
654.513006	0.129966
654.718261	0.129907
654.923497	0.129890
655.128715	0.130150
655.333915	0.130444
655.539096	0.130595
655.744259	0.130843
655.949404	0.130952
656.154531	0.130814
656.359640	0.131027
656.564730	0.131102
656.769802	0.131207
656.974856	0.131291
657.179892	0.131325
657.384909	0.131346
657.589908	0.131423
657.794889	0.131387
657.999852	0.131569
658.204797	0.131776
658.409723	0.131981
658.614631	0.132222
658.819521	0.132355
659.024393	0.132365
659.229246	0.132616
659.434081	0.132813
659.638898	0.132913
659.843697	0.133054
660.048478	0.133011
660.253240	0.133112
660.457984	0.133118
660.662710	0.133558
660.867417	0.133580
661.072107	0.133522
661.276778	0.133649
661.481431	0.133907
661.686066	0.134112
661.890682	0.134164
662.095281	0.134478
662.299861	0.134961
662.504422	0.134656
662.708966	0.134971
662.913491	0.135220
663.117999	0.135200
663.322488	0.135237
663.526958	0.135307
663.731411	0.135499
663.935845	0.135564
664.140261	0.135612
664.344659	0.135767
664.549038	0.135899
664.753400	0.135981
664.957743	0.136172
665.162068	0.136337
665.366375	0.136775
665.570663	0.136934
665.774933	0.137096
665.979185	0.137134
666.183419	0.137389
666.387635	0.137557
666.591832	0.137669
666.796011	0.138000
667.000172	0.138172
667.204315	0.137851
667.408439	0.137766
667.612545	0.137884
667.816634	0.137980
668.020703	0.137834
668.224755	0.137937
668.428788	0.138136
668.632803	0.138150
668.836800	0.138358
669.040779	0.138710
669.244739	0.139084
669.448681	0.139061
669.652605	0.139236
669.856511	0.139594
670.060399	0.139768
670.264268	0.139826
670.468119	0.139826
670.671952	0.140009
670.875767	0.139880
671.079563	0.140081
671.283341	0.140430
671.487101	0.140693
671.690843	0.140875
671.894567	0.141076
672.098272	0.141318
672.301959	0.141607
672.505628	0.141681
672.709278	0.141911
672.912911	0.141905
673.116525	0.141994
673.320121	0.142027
673.523699	0.142096
673.727258	0.141946
673.930799	0.141940
674.134322	0.141955
674.337827	0.141878
674.541314	0.141992
674.744782	0.142273
674.948232	0.142073
675.151664	0.142000
675.355078	0.141935
675.558474	0.142016
675.761851	0.142325
675.965210	0.142614
676.168551	0.142873
676.371873	0.143083
676.575178	0.143264
676.778464	0.143710
676.981732	0.143877
677.184981	0.144052
677.388213	0.144408
677.591426	0.144412
677.794621	0.144566
677.997798	0.144675
678.200956	0.144884
678.404097	0.145071
678.607219	0.145176
678.810323	0.145250
679.013408	0.145410
679.216476	0.145298
679.419525	0.145400
679.622556	0.145289
679.825569	0.145305
680.028563	0.145159
680.231540	0.145157
680.434498	0.145268
680.637438	0.145381
680.840359	0.145497
681.043263	0.145709
681.246148	0.145738
681.449015	0.146059
681.651864	0.146371
681.854694	0.146684
682.057506	0.146572
682.260301	0.146771
682.463076	0.146953
682.665834	0.147051
682.868573	0.147283
683.071295	0.147544
683.273998	0.147754
683.476682	0.147780
683.679349	0.148049
683.881997	0.148480
684.084627	0.148544
684.287239	0.148858
684.489833	0.149035
684.692408	0.149284
684.894965	0.149372
685.097504	0.149563
685.300025	0.149492
685.502527	0.149402
685.705012	0.149376
685.907478	0.149424
686.109925	0.149388
686.312355	0.149613
686.514766	0.149388
686.717159	0.149578
686.919534	0.149344
687.121891	0.149539
687.324230	0.149680
687.526550	0.149648
687.728852	0.149806
687.931136	0.149795
688.133401	0.149982
688.335649	0.150135
688.537878	0.149987
688.740089	0.150275
688.942281	0.150740
689.144456	0.150870
689.346612	0.151086
689.548750	0.151001
689.750870	0.151139
689.952971	0.151017
690.155055	0.151042
690.357120	0.151467
690.559167	0.151383
690.761195	0.151098
690.963206	0.151070
691.165198	0.151119
691.367172	0.151354
691.569128	0.151525
691.771065	0.151820
691.972984	0.152137
692.174885	0.152096
692.376768	0.152474
692.578633	0.152693
692.780479	0.152898
692.982308	0.152981
693.184118	0.153095
693.385909	0.153199
