sample name	sample
index	1397
start time	 05-10-2021  10:55:43 AM


Wavelength (nm)	Absorbance
494.344910	-0.004596
494.563924	-0.004596
494.782919	-0.004596
495.001897	-0.045707
495.220856	-0.005051
495.439797	0.004271
495.658719	0.013366
495.877624	0.018128
496.096510	0.016661
496.315378	0.029781
496.534227	0.005210
496.753059	-0.008465
496.971872	-0.006100
497.190667	0.106954
497.409444	0.138782
497.628203	0.144907
497.846943	0.149518
498.065665	0.153406
498.284369	0.157257
498.503055	0.159186
498.721723	0.162390
498.940372	0.162697
499.159003	0.162328
499.377616	0.161677
499.596210	0.162350
499.814787	0.163813
500.033345	0.164292
500.251885	0.163926
500.470406	0.164236
500.688910	0.162951
500.907395	0.163871
501.125862	0.164708
501.344311	0.164820
501.562742	0.166662
501.781154	0.165529
501.999548	0.165655
502.217924	0.165673
502.436282	0.165765
502.654621	0.166051
502.872942	0.165492
503.091245	0.165161
503.309530	0.165587
503.527797	0.163925
503.746045	0.164546
503.964275	0.165160
504.182487	0.164759
504.400681	0.164565
504.618856	0.165569
504.837013	0.166770
505.055152	0.166680
505.273273	0.167354
505.491376	0.168120
505.709460	0.167573
505.927526	0.167191
506.145574	0.167313
506.363604	0.167624
506.581615	0.167571
506.799608	0.166621
507.017583	0.166960
507.235540	0.166736
507.453478	0.166620
507.671399	0.167188
507.889301	0.167447
508.107185	0.167493
508.325050	0.167159
508.542898	0.167549
508.760727	0.168787
508.978538	0.168896
509.196330	0.169699
509.414105	0.169374
509.631861	0.169279
509.849599	0.169340
510.067319	0.169551
510.285021	0.170393
510.502704	0.170848
510.720369	0.169576
510.938016	0.170434
511.155645	0.169393
511.373255	0.169178
511.590848	0.170169
511.808422	0.170171
512.025977	0.170587
512.243515	0.169801
512.461034	0.169289
512.678536	0.169599
512.896018	0.169251
513.113483	0.169685
513.330930	0.170811
513.548358	0.171064
513.765768	0.171432
513.983160	0.171535
514.200533	0.172702
514.417889	0.172983
514.635226	0.174103
514.852545	0.174672
515.069845	0.174572
515.287128	0.174600
515.504392	0.174448
515.721638	0.174531
515.938866	0.175246
516.156075	0.175090
516.373267	0.175101
516.590440	0.174946
516.807594	0.174601
517.024731	0.175639
517.241850	0.175688
517.458950	0.175835
517.676032	0.176128
517.893095	0.175692
518.110141	0.175869
518.327168	0.176206
518.544177	0.176696
518.761168	0.177448
518.978141	0.177546
519.195095	0.177616
519.412031	0.177005
519.628949	0.177335
519.845849	0.177888
520.062731	0.178056
520.279594	0.177707
520.496439	0.177918
520.713266	0.178650
520.930074	0.178102
521.146865	0.179882
521.363637	0.181341
521.580391	0.181649
521.797127	0.182343
522.013844	0.183174
522.230543	0.183641
522.447224	0.183533
522.663887	0.183189
522.880532	0.183868
523.097158	0.183304
523.313766	0.182684
523.530356	0.183120
523.746928	0.182749
523.963481	0.182679
524.180017	0.183744
524.396534	0.184236
524.613032	0.184678
524.829513	0.184566
525.045975	0.184273
525.262420	0.185206
525.478845	0.185297
525.695253	0.186039
525.911643	0.185940
526.128014	0.185597
526.344367	0.186279
526.560702	0.185931
526.777018	0.186979
526.993316	0.187102
527.209597	0.187327
527.425858	0.186910
527.642102	0.187062
527.858328	0.187282
528.074535	0.187839
528.290724	0.187773
528.506894	0.188250
528.723047	0.188253
528.939181	0.189198
529.155297	0.189252
529.371395	0.189996
529.587475	0.189719
529.803536	0.190350
530.019579	0.190400
530.235604	0.190972
530.451611	0.191613
530.667600	0.191605
530.883570	0.191697
531.099522	0.191702
531.315456	0.191913
531.531372	0.192557
531.747269	0.193396
531.963148	0.194130
532.179009	0.194244
532.394852	0.194492
532.610676	0.194959
532.826482	0.195104
533.042271	0.195955
533.258040	0.196767
533.473792	0.196756
533.689525	0.196917
533.905240	0.196513
534.120937	0.196932
534.336616	0.196555
534.552277	0.196807
534.767919	0.196681
534.983543	0.197212
535.199149	0.197176
535.414736	0.197431
535.630306	0.197167
535.845857	0.197779
536.061390	0.197833
536.276904	0.198711
536.492401	0.198889
536.707879	0.199371
536.923339	0.199125
537.138781	0.199536
537.354204	0.200202
537.569610	0.201047
537.784997	0.201611
538.000366	0.201340
538.215716	0.201270
538.431049	0.201845
538.646363	0.202329
538.861659	0.203038
539.076937	0.203096
539.292196	0.203685
539.507438	0.203575
539.722661	0.203507
539.937866	0.204554
540.153052	0.205511
540.368221	0.206092
540.583371	0.206200
540.798503	0.205928
541.013617	0.206369
541.228712	0.206503
541.443789	0.207226
541.658848	0.207306
541.873889	0.207515
542.088912	0.207864
542.303916	0.207649
542.518902	0.207976
542.733870	0.208217
542.948820	0.208237
543.163752	0.208421
543.378665	0.208069
543.593560	0.208635
543.808437	0.208734
544.023295	0.208107
544.238136	0.208752
544.452958	0.209108
544.667762	0.209366
544.882548	0.209599
545.097315	0.209923
545.312064	0.210632
545.526795	0.211310
545.741508	0.211827
545.956203	0.211886
546.170879	0.211752
546.385537	0.211705
546.600177	0.212224
546.814799	0.212891
547.029402	0.212771
547.243988	0.212939
547.458555	0.212452
547.673103	0.212533
547.887634	0.213098
548.102146	0.213536
548.316640	0.213802
548.531116	0.213660
548.745574	0.213104
548.960013	0.213724
549.174435	0.213475
549.388838	0.214156
549.603222	0.213879
549.817589	0.214045
550.031937	0.213873
550.246267	0.214366
550.460579	0.215126
550.674873	0.215970
550.889148	0.215639
551.103405	0.216071
551.317644	0.216412
551.531865	0.217410
551.746068	0.218201
551.960252	0.218467
552.174418	0.218399
552.388566	0.218121
552.602696	0.218216
552.816807	0.218435
553.030900	0.218788
553.244975	0.218621
553.459032	0.218519
553.673070	0.218269
553.887091	0.218510
554.101093	0.218895
554.315077	0.219331
554.529042	0.219415
554.742990	0.219854
554.956919	0.219856
555.170830	0.220289
555.384722	0.220351
555.598597	0.220408
555.812453	0.220632
556.026291	0.220594
556.240111	0.220732
556.453913	0.220620
556.667696	0.220556
556.881461	0.220804
557.095208	0.220871
557.308937	0.221269
557.522647	0.221172
557.736339	0.221801
557.950013	0.222116
558.163669	0.223049
558.377307	0.223661
558.590926	0.223992
558.804527	0.224290
559.018110	0.224543
559.231675	0.224387
559.445221	0.225159
559.658749	0.225524
559.872259	0.225813
560.085751	0.225702
560.299225	0.226325
560.512680	0.226414
560.726117	0.226528
560.939536	0.226783
561.152937	0.227275
561.366319	0.227173
561.579683	0.227059
561.793029	0.227800
562.006357	0.227376
562.219667	0.226862
562.432958	0.227057
562.646231	0.227144
562.859486	0.227444
563.072723	0.227149
563.285941	0.227526
563.499141	0.227861
563.712323	0.227745
563.925487	0.227754
564.138632	0.228012
564.351760	0.228209
564.564869	0.228100
564.777960	0.227795
564.991032	0.228410
565.204087	0.228841
565.417123	0.229323
565.630141	0.229217
565.843140	0.229910
566.056122	0.230235
566.269085	0.230706
566.482030	0.231084
566.694957	0.231463
566.907866	0.231715
567.120756	0.231743
567.333628	0.231162
567.546482	0.231425
567.759318	0.230932
567.972135	0.230911
568.184935	0.230764
568.397716	0.230917
568.610478	0.231177
568.823223	0.230916
569.035949	0.230938
569.248657	0.231093
569.461347	0.231278
569.674019	0.232100
569.886672	0.232649
570.099308	0.233301
570.311925	0.233854
570.524523	0.234139
570.737104	0.234495
570.949666	0.234651
571.162210	0.235234
571.374736	0.235277
571.587244	0.235708
571.799733	0.235594
572.012205	0.235297
572.224658	0.235309
572.437092	0.235167
572.649509	0.235177
572.861907	0.235323
573.074287	0.235033
573.286649	0.235191
573.498993	0.234902
573.711318	0.235522
573.923625	0.235763
574.135914	0.236425
574.348185	0.236408
574.560438	0.237108
574.772672	0.237331
574.984888	0.238100
575.197086	0.238577
575.409266	0.238826
575.621427	0.238891
575.833570	0.239109
576.045695	0.238662
576.257802	0.239289
576.469890	0.239280
576.681961	0.239068
576.894013	0.238925
577.106046	0.238984
577.318062	0.239161
577.530059	0.239416
577.742039	0.239611
577.954000	0.239862
578.165942	0.240123
578.377867	0.240185
578.589773	0.240685
578.801661	0.240668
579.013531	0.240706
579.225382	0.240844
579.437216	0.240755
579.649031	0.241061
579.860828	0.241456
580.072606	0.241372
580.284367	0.241492
580.496109	0.241723
580.707833	0.241673
580.919539	0.241947
581.131227	0.242372
581.342896	0.242528
581.554547	0.242566
581.766180	0.242700
581.977795	0.242852
582.189391	0.243226
582.400969	0.243669
582.612529	0.244396
582.824071	0.244676
583.035595	0.244452
583.247100	0.244746
583.458587	0.244767
583.670056	0.245184
583.881506	0.245439
584.092939	0.245742
584.304353	0.245436
584.515749	0.245632
584.727127	0.245954
584.938486	0.246786
585.149828	0.246875
585.361151	0.247107
585.572456	0.246846
585.783742	0.246662
585.995011	0.246410
586.206261	0.246984
586.417493	0.247012
586.628706	0.246885
586.839902	0.246671
587.051079	0.246736
587.262238	0.246808
587.473379	0.247184
587.684502	0.247635
587.895606	0.248097
588.106692	0.248365
588.317760	0.248596
588.528810	0.248737
588.739841	0.248948
588.950855	0.249310
589.161850	0.249760
589.372827	0.249842
589.583785	0.250143
589.794726	0.250425
590.005648	0.249946
590.216552	0.249985
590.427437	0.250132
590.638305	0.250073
590.849154	0.249940
591.059985	0.249973
591.270798	0.250100
591.481592	0.250134
591.692369	0.250171
591.903127	0.250650
592.113867	0.250810
592.324588	0.251003
592.535292	0.251104
592.745977	0.251352
592.956644	0.251431
593.167293	0.251222
593.377923	0.251157
593.588536	0.251258
593.799130	0.251558
594.009706	0.251947
594.220263	0.252243
594.430803	0.252738
594.641324	0.252551
594.851827	0.253001
595.062312	0.253209
595.272778	0.253512
595.483227	0.253604
595.693657	0.253761
595.904069	0.253468
596.114462	0.253491
596.324838	0.253450
596.535195	0.253791
596.745534	0.253987
596.955855	0.254377
597.166157	0.254642
597.376441	0.254576
597.586707	0.254693
597.796955	0.255058
598.007185	0.255179
598.217396	0.255508
598.427589	0.255438
598.637764	0.255335
598.847921	0.255575
599.058060	0.255609
599.268180	0.255960
599.478282	0.255803
599.688366	0.255987
599.898431	0.256194
600.108479	0.255831
600.318508	0.256481
600.528519	0.256686
600.738511	0.256833
600.948486	0.256843
601.158442	0.256790
601.368380	0.257195
601.578300	0.257239
601.788202	0.257059
601.998085	0.257826
602.207950	0.257782
602.417797	0.258430
602.627626	0.258567
602.837436	0.258936
603.047228	0.259193
603.257002	0.259239
603.466758	0.259241
603.676496	0.259534
603.886215	0.259521
604.095916	0.259741
604.305599	0.259232
604.515264	0.259304
604.724910	0.259476
604.934538	0.259676
605.144148	0.260127
605.353740	0.260405
605.563314	0.260807
605.772869	0.260605
605.982406	0.260556
606.191925	0.261306
606.401425	0.261303
606.610908	0.261381
606.820372	0.262000
607.029818	0.262066
607.239246	0.262040
607.448655	0.262215
607.658047	0.262267
607.867420	0.262196
608.076775	0.261790
608.286111	0.261950
608.495430	0.262043
608.704730	0.261513
608.914012	0.261414
609.123275	0.261652
609.332521	0.261582
609.541748	0.261979
609.750957	0.262515
609.960148	0.262902
610.169321	0.263234
610.378475	0.263225
610.587611	0.263470
610.796729	0.263553
611.005829	0.263715
611.214910	0.263652
611.423974	0.263667
611.633019	0.263465
611.842045	0.263427
612.051054	0.263447
612.260044	0.264086
612.469017	0.264261
612.677970	0.264346
612.886906	0.264617
613.095824	0.265042
613.304723	0.265363
613.513604	0.265784
613.722467	0.265961
613.931311	0.265979
614.140138	0.265696
614.348946	0.265914
614.557736	0.266141
614.766507	0.266354
614.975261	0.266266
615.183996	0.266362
615.392713	0.266482
615.601412	0.266575
615.810092	0.266408
616.018754	0.266370
616.227399	0.266203
616.436024	0.266486
616.644632	0.266184
616.853222	0.266578
617.061793	0.266501
617.270346	0.266559
617.478880	0.266743
617.687397	0.267133
617.895895	0.267645
618.104375	0.268168
618.312837	0.267955
618.521281	0.268459
618.729706	0.268634
618.938113	0.269022
619.146502	0.269175
619.354873	0.269384
619.563226	0.269618
619.771560	0.270064
619.979876	0.270080
620.188174	0.270332
620.396453	0.270214
620.604715	0.270264
620.812958	0.270309
621.021183	0.270563
621.229390	0.270686
621.437578	0.270822
621.645748	0.270304
621.853900	0.270391
622.062034	0.270592
622.270150	0.270870
622.478247	0.270509
622.686326	0.270580
622.894387	0.270447
623.102430	0.270279
623.310454	0.270628
623.518461	0.270920
623.726449	0.271173
623.934418	0.271081
624.142370	0.271131
624.350303	0.271411
624.558218	0.271689
624.766115	0.271953
624.973994	0.272500
625.181855	0.272741
625.389697	0.272910
625.597521	0.273270
625.805327	0.273854
626.013114	0.274199
626.220883	0.274680
626.428634	0.274681
626.636367	0.274921
626.844082	0.274886
627.051778	0.274757
627.259457	0.275131
627.467117	0.274747
627.674758	0.274810
627.882382	0.274751
628.089987	0.274580
628.297574	0.274607
628.505143	0.274927
628.712694	0.275059
628.920226	0.275088
629.127740	0.274951
629.335236	0.275127
629.542714	0.275167
629.750174	0.275572
629.957615	0.275969
630.165038	0.276277
630.372443	0.276412
630.579829	0.276561
630.787198	0.276591
630.994548	0.276804
631.201880	0.276935
631.409194	0.276905
631.616489	0.276945
631.823766	0.276865
632.031025	0.277216
632.238266	0.277045
632.445489	0.277297
632.652693	0.277602
632.859879	0.277450
633.067047	0.277726
633.274197	0.278159
633.481329	0.278059
633.688442	0.278604
633.895537	0.278595
634.102614	0.278962
634.309672	0.278801
634.516713	0.278918
634.723735	0.279085
634.930739	0.279053
635.137724	0.278956
635.344692	0.279176
635.551641	0.279202
635.758572	0.279238
635.965485	0.279458
636.172379	0.279713
636.379256	0.280295
636.586114	0.280538
636.792954	0.280986
636.999775	0.281326
637.206579	0.281678
637.413364	0.281755
637.620131	0.282003
637.826880	0.281960
638.033610	0.281806
638.240323	0.281442
638.447017	0.281842
638.653692	0.281644
638.860350	0.281606
639.066990	0.281698
639.273611	0.281809
639.480214	0.281792
639.686798	0.281681
639.893365	0.282288
640.099913	0.282707
640.306443	0.282631
640.512955	0.283024
640.719449	0.283064
640.925924	0.283182
641.132381	0.283332
641.338820	0.283754
641.545241	0.284383
641.751644	0.284337
641.958028	0.284377
642.164394	0.284798
642.370742	0.285036
642.577071	0.285411
642.783383	0.285543
642.989676	0.285729
643.195951	0.285783
643.402207	0.285584
643.608446	0.285893
643.814666	0.285861
644.020868	0.285811
644.227052	0.286033
644.433218	0.286599
644.639365	0.286706
644.845494	0.286859
645.051605	0.287078
645.257698	0.287418
645.463772	0.287441
645.669828	0.287838
645.875866	0.288124
646.081886	0.287846
646.287888	0.287671
646.493871	0.288006
646.699836	0.288138
646.905783	0.288121
647.111712	0.288312
647.317622	0.288502
647.523514	0.288587
647.729388	0.288581
647.935244	0.289125
648.141082	0.289251
648.346901	0.289345
648.552702	0.289520
648.758485	0.289616
648.964250	0.289815
649.169996	0.290260
649.375724	0.290443
649.581434	0.290676
649.787126	0.290725
649.992800	0.290937
650.198455	0.291108
650.404092	0.291099
650.609711	0.291223
650.815311	0.291282
651.020894	0.291098
651.226458	0.291142
651.432004	0.291393
651.637532	0.291547
651.843041	0.291634
652.048532	0.291779
652.254006	0.292110
652.459460	0.292442
652.664897	0.292514
652.870315	0.292984
653.075716	0.293176
653.281097	0.293338
653.486461	0.293595
653.691807	0.293632
653.897134	0.293901
654.102443	0.294225
654.307734	0.294275
654.513006	0.294390
654.718261	0.294482
654.923497	0.294674
655.128715	0.294872
655.333915	0.295248
655.539096	0.295468
655.744259	0.295533
655.949404	0.295350
656.154531	0.295563
656.359640	0.295751
656.564730	0.295760
656.769802	0.295909
656.974856	0.295978
657.179892	0.295953
657.384909	0.296241
657.589908	0.296163
657.794889	0.296457
657.999852	0.296703
658.204797	0.297060
658.409723	0.297261
658.614631	0.297604
658.819521	0.297238
659.024393	0.297096
659.229246	0.297178
659.434081	0.297611
659.638898	0.297689
659.843697	0.297899
660.048478	0.297972
660.253240	0.298210
660.457984	0.298154
660.662710	0.298934
660.867417	0.299384
661.072107	0.299465
661.276778	0.299352
661.481431	0.299806
661.686066	0.299955
661.890682	0.300137
662.095281	0.300162
662.299861	0.300374
662.504422	0.300486
662.708966	0.300575
662.913491	0.301016
663.117999	0.301202
663.322488	0.301198
663.526958	0.301440
663.731411	0.301527
663.935845	0.301774
664.140261	0.302172
664.344659	0.302381
664.549038	0.302637
664.753400	0.302902
664.957743	0.303291
665.162068	0.303955
665.366375	0.304159
665.570663	0.304441
665.774933	0.304581
665.979185	0.304587
666.183419	0.305006
666.387635	0.305300
666.591832	0.305354
666.796011	0.305546
667.000172	0.305361
667.204315	0.305506
667.408439	0.305722
667.612545	0.306115
667.816634	0.306458
668.020703	0.306474
668.224755	0.306670
668.428788	0.307138
668.632803	0.307414
668.836800	0.307587
669.040779	0.307818
669.244739	0.307751
669.448681	0.307711
669.652605	0.307670
669.856511	0.307812
670.060399	0.307848
670.264268	0.307709
670.468119	0.307916
670.671952	0.308179
670.875767	0.308318
671.079563	0.308810
671.283341	0.309245
671.487101	0.309589
671.690843	0.309679
671.894567	0.309941
672.098272	0.310102
672.301959	0.310017
672.505628	0.310114
672.709278	0.310364
672.912911	0.310176
673.116525	0.310404
673.320121	0.310681
673.523699	0.311068
673.727258	0.311022
673.930799	0.311255
674.134322	0.311808
674.337827	0.311985
674.541314	0.311989
674.744782	0.312702
674.948232	0.312617
675.151664	0.312839
675.355078	0.312951
675.558474	0.313626
675.761851	0.313816
675.965210	0.313995
676.168551	0.314313
676.371873	0.314840
676.575178	0.314744
676.778464	0.315071
676.981732	0.315125
677.184981	0.315312
677.388213	0.315475
677.591426	0.315828
677.794621	0.315627
677.997798	0.315783
678.200956	0.315615
678.404097	0.315919
678.607219	0.316049
678.810323	0.316415
679.013408	0.316616
679.216476	0.316549
679.419525	0.316436
679.622556	0.316631
679.825569	0.316676
680.028563	0.317143
680.231540	0.317157
680.434498	0.317420
680.637438	0.317380
680.840359	0.317528
681.043263	0.317633
681.246148	0.317870
681.449015	0.318340
681.651864	0.318422
681.854694	0.318580
682.057506	0.319236
682.260301	0.319437
682.463076	0.319785
682.665834	0.320067
682.868573	0.320539
683.071295	0.320991
683.273998	0.321088
683.476682	0.321538
683.679349	0.321752
683.881997	0.321640
684.084627	0.322146
684.287239	0.322322
684.489833	0.322403
684.692408	0.322304
684.894965	0.322252
685.097504	0.322643
685.300025	0.322769
685.502527	0.322896
685.705012	0.323089
685.907478	0.322956
686.109925	0.323221
686.312355	0.323421
686.514766	0.323761
686.717159	0.323990
686.919534	0.323973
687.121891	0.324253
687.324230	0.324330
687.526550	0.324584
687.728852	0.324491
687.931136	0.324683
688.133401	0.324834
688.335649	0.324823
688.537878	0.324902
688.740089	0.325321
688.942281	0.325248
689.144456	0.325317
689.346612	0.325222
689.548750	0.325679
689.750870	0.325917
689.952971	0.326059
690.155055	0.326413
690.357120	0.326851
690.559167	0.326897
690.761195	0.327150
690.963206	0.327320
691.165198	0.327640
691.367172	0.327780
691.569128	0.327590
691.771065	0.327882
691.972984	0.327961
692.174885	0.327959
692.376768	0.328032
692.578633	0.328163
692.780479	0.328394
692.982308	0.328426
693.184118	0.328463
693.385909	0.328241
