sample name	sample
index	1292
start time	 04-29-2021  03:10:46 PM


Wavelength (nm)	Absorbance
494.344910	-0.350487
494.563924	-0.350487
494.782919	-0.350487
495.001897	0.396145
495.220856	-0.036941
495.439797	-0.054899
495.658719	-0.028456
495.877624	0.000812
496.096510	-0.030238
496.315378	-0.010160
496.534227	0.007277
496.753059	-0.007962
496.971872	0.007886
497.190667	0.105579
497.409444	0.118193
497.628203	0.120941
497.846943	0.118919
498.065665	0.120181
498.284369	0.121905
498.503055	0.122002
498.721723	0.123453
498.940372	0.123094
499.159003	0.122816
499.377616	0.123347
499.596210	0.122924
499.814787	0.124225
500.033345	0.124967
500.251885	0.124591
500.470406	0.124810
500.688910	0.124551
500.907395	0.124804
501.125862	0.124545
501.344311	0.124093
501.562742	0.125393
501.781154	0.125297
501.999548	0.125182
502.217924	0.125459
502.436282	0.125074
502.654621	0.124946
502.872942	0.126064
503.091245	0.125824
503.309530	0.126352
503.527797	0.126153
503.746045	0.126271
503.964275	0.126455
504.182487	0.125741
504.400681	0.126963
504.618856	0.126805
504.837013	0.126938
505.055152	0.127135
505.273273	0.126860
505.491376	0.125352
505.709460	0.124926
505.927526	0.124582
506.145574	0.124854
506.363604	0.122580
506.581615	0.122793
506.799608	0.123133
507.017583	0.123789
507.235540	0.124895
507.453478	0.126794
507.671399	0.127631
507.889301	0.126856
508.107185	0.127314
508.325050	0.129312
508.542898	0.129419
508.760727	0.128971
508.978538	0.128869
509.196330	0.128654
509.414105	0.128965
509.631861	0.128741
509.849599	0.129672
510.067319	0.130082
510.285021	0.129396
510.502704	0.130845
510.720369	0.130651
510.938016	0.131312
511.155645	0.130985
511.373255	0.129531
511.590848	0.130027
511.808422	0.130493
512.025977	0.130492
512.243515	0.131583
512.461034	0.130885
512.678536	0.130955
512.896018	0.130832
513.113483	0.131186
513.330930	0.132308
513.548358	0.132473
513.765768	0.132509
513.983160	0.132529
514.200533	0.131561
514.417889	0.132604
514.635226	0.132322
514.852545	0.132486
515.069845	0.133284
515.287128	0.133757
515.504392	0.133758
515.721638	0.134272
515.938866	0.134112
516.156075	0.135511
516.373267	0.134703
516.590440	0.135493
516.807594	0.135248
517.024731	0.136352
517.241850	0.136205
517.458950	0.136507
517.676032	0.136886
517.893095	0.137893
518.110141	0.136915
518.327168	0.137305
518.544177	0.137134
518.761168	0.137865
518.978141	0.137543
519.195095	0.138538
519.412031	0.138833
519.628949	0.138706
519.845849	0.138169
520.062731	0.139349
520.279594	0.138721
520.496439	0.138774
520.713266	0.138798
520.930074	0.138328
521.146865	0.137251
521.363637	0.137653
521.580391	0.138332
521.797127	0.139053
522.013844	0.139393
522.230543	0.140934
522.447224	0.141365
522.663887	0.141899
522.880532	0.142752
523.097158	0.143759
523.313766	0.144271
523.530356	0.144462
523.746928	0.144518
523.963481	0.144993
524.180017	0.145656
524.396534	0.146645
524.613032	0.146838
524.829513	0.146332
525.045975	0.146510
525.262420	0.146361
525.478845	0.147671
525.695253	0.148499
525.911643	0.148549
526.128014	0.147959
526.344367	0.147390
526.560702	0.146944
526.777018	0.147812
526.993316	0.147989
527.209597	0.148471
527.425858	0.147287
527.642102	0.146717
527.858328	0.146740
528.074535	0.147160
528.290724	0.148970
528.506894	0.149578
528.723047	0.149229
528.939181	0.149699
529.155297	0.150169
529.371395	0.150518
529.587475	0.151833
529.803536	0.152513
530.019579	0.152664
530.235604	0.151808
530.451611	0.152521
530.667600	0.153679
530.883570	0.153676
531.099522	0.154025
531.315456	0.154992
531.531372	0.154988
531.747269	0.154532
531.963148	0.154899
532.179009	0.155460
532.394852	0.155846
532.610676	0.156313
532.826482	0.156382
533.042271	0.156404
533.258040	0.155852
533.473792	0.156475
533.689525	0.157904
533.905240	0.158362
534.120937	0.158615
534.336616	0.158904
534.552277	0.158836
534.767919	0.159760
534.983543	0.160345
535.199149	0.161042
535.414736	0.161402
535.630306	0.161424
535.845857	0.161753
536.061390	0.161545
536.276904	0.161814
536.492401	0.162154
536.707879	0.162440
536.923339	0.162725
537.138781	0.162961
537.354204	0.163418
537.569610	0.163660
537.784997	0.163882
538.000366	0.164714
538.215716	0.165135
538.431049	0.165973
538.646363	0.166153
538.861659	0.166813
539.076937	0.167438
539.292196	0.167182
539.507438	0.167663
539.722661	0.168561
539.937866	0.169353
540.153052	0.169773
540.368221	0.169763
540.583371	0.170922
540.798503	0.170684
541.013617	0.170718
541.228712	0.171288
541.443789	0.171551
541.658848	0.171151
541.873889	0.171188
542.088912	0.171509
542.303916	0.171234
542.518902	0.170709
542.733870	0.171028
542.948820	0.171157
543.163752	0.171542
543.378665	0.171663
543.593560	0.172362
543.808437	0.172337
544.023295	0.172530
544.238136	0.173201
544.452958	0.173533
544.667762	0.173762
544.882548	0.173672
545.097315	0.173332
545.312064	0.173682
545.526795	0.173525
545.741508	0.173875
545.956203	0.173932
546.170879	0.174511
546.385537	0.174984
546.600177	0.175306
546.814799	0.175763
547.029402	0.175964
547.243988	0.176287
547.458555	0.176590
547.673103	0.176644
547.887634	0.176815
548.102146	0.176674
548.316640	0.176999
548.531116	0.176919
548.745574	0.177522
548.960013	0.178206
549.174435	0.178138
549.388838	0.178670
549.603222	0.179218
549.817589	0.179296
550.031937	0.179103
550.246267	0.179076
550.460579	0.179642
550.674873	0.179740
550.889148	0.179915
551.103405	0.180179
551.317644	0.180123
551.531865	0.180422
551.746068	0.180529
551.960252	0.181758
552.174418	0.181632
552.388566	0.182056
552.602696	0.182338
552.816807	0.182119
553.030900	0.182109
553.244975	0.182216
553.459032	0.181848
553.673070	0.182532
553.887091	0.182371
554.101093	0.182619
554.315077	0.182636
554.529042	0.182915
554.742990	0.183569
554.956919	0.183949
555.170830	0.184599
555.384722	0.185572
555.598597	0.186082
555.812453	0.185914
556.026291	0.186272
556.240111	0.186500
556.453913	0.186261
556.667696	0.185898
556.881461	0.186315
557.095208	0.186102
557.308937	0.185929
557.522647	0.185313
557.736339	0.185410
557.950013	0.185659
558.163669	0.185581
558.377307	0.185601
558.590926	0.186222
558.804527	0.186272
559.018110	0.186091
559.231675	0.185888
559.445221	0.186133
559.658749	0.186613
559.872259	0.186560
560.085751	0.186567
560.299225	0.187264
560.512680	0.187008
560.726117	0.187397
560.939536	0.187939
561.152937	0.188163
561.366319	0.188296
561.579683	0.188088
561.793029	0.188455
562.006357	0.188658
562.219667	0.188687
562.432958	0.188898
562.646231	0.188820
562.859486	0.189289
563.072723	0.189718
563.285941	0.189956
563.499141	0.190190
563.712323	0.190361
563.925487	0.190364
564.138632	0.190315
564.351760	0.190635
564.564869	0.190987
564.777960	0.190918
564.991032	0.191045
565.204087	0.191060
565.417123	0.191373
565.630141	0.191317
565.843140	0.192088
566.056122	0.192501
566.269085	0.193234
566.482030	0.192847
566.694957	0.192637
566.907866	0.192645
567.120756	0.193081
567.333628	0.192499
567.546482	0.192601
567.759318	0.192000
567.972135	0.192378
568.184935	0.191916
568.397716	0.192416
568.610478	0.193029
568.823223	0.193646
569.035949	0.193890
569.248657	0.194671
569.461347	0.194774
569.674019	0.194749
569.886672	0.194318
570.099308	0.194019
570.311925	0.194140
570.524523	0.193636
570.737104	0.193244
570.949666	0.193288
571.162210	0.193608
571.374736	0.194154
571.587244	0.195014
571.799733	0.195377
572.012205	0.195999
572.224658	0.195960
572.437092	0.196309
572.649509	0.195933
572.861907	0.196222
573.074287	0.195831
573.286649	0.195481
573.498993	0.195292
573.711318	0.194959
573.923625	0.195160
574.135914	0.195028
574.348185	0.195259
574.560438	0.196158
574.772672	0.195946
574.984888	0.196166
575.197086	0.196024
575.409266	0.196399
575.621427	0.196620
575.833570	0.196426
576.045695	0.196484
576.257802	0.196650
576.469890	0.196434
576.681961	0.196268
576.894013	0.196421
577.106046	0.197103
577.318062	0.196894
577.530059	0.197216
577.742039	0.197480
577.954000	0.197954
578.165942	0.197864
578.377867	0.198324
578.589773	0.198725
578.801661	0.198870
579.013531	0.198727
579.225382	0.198840
579.437216	0.198603
579.649031	0.198397
579.860828	0.198370
580.072606	0.198625
580.284367	0.198563
580.496109	0.199080
580.707833	0.199424
580.919539	0.199560
581.131227	0.199874
581.342896	0.200607
581.554547	0.200884
581.766180	0.201029
581.977795	0.201230
582.189391	0.201418
582.400969	0.201043
582.612529	0.201131
582.824071	0.201238
583.035595	0.201455
583.247100	0.201677
583.458587	0.202246
583.670056	0.202409
583.881506	0.202564
584.092939	0.202759
584.304353	0.203073
584.515749	0.202896
584.727127	0.203503
584.938486	0.203677
585.149828	0.203480
585.361151	0.203349
585.572456	0.203443
585.783742	0.203498
585.995011	0.203819
586.206261	0.203738
586.417493	0.204197
586.628706	0.204181
586.839902	0.204288
587.051079	0.204722
587.262238	0.205076
587.473379	0.205339
587.684502	0.205373
587.895606	0.205306
588.106692	0.205891
588.317760	0.206095
588.528810	0.205761
588.739841	0.205844
588.950855	0.206058
589.161850	0.205941
589.372827	0.206321
589.583785	0.206969
589.794726	0.207324
590.005648	0.207326
590.216552	0.207464
590.427437	0.208189
590.638305	0.208580
590.849154	0.208713
591.059985	0.209093
591.270798	0.209269
591.481592	0.209606
591.692369	0.209246
591.903127	0.209485
592.113867	0.209647
592.324588	0.209288
592.535292	0.209357
592.745977	0.209436
592.956644	0.209655
593.167293	0.209543
593.377923	0.209075
593.588536	0.209367
593.799130	0.209582
594.009706	0.209596
594.220263	0.210052
594.430803	0.210067
594.641324	0.210118
594.851827	0.210059
595.062312	0.210164
595.272778	0.210245
595.483227	0.210359
595.693657	0.210272
595.904069	0.210463
596.114462	0.210698
596.324838	0.210716
596.535195	0.210814
596.745534	0.211225
596.955855	0.211421
597.166157	0.211731
597.376441	0.212394
597.586707	0.212897
597.796955	0.213232
598.007185	0.213666
598.217396	0.214047
598.427589	0.214546
598.637764	0.214733
598.847921	0.214933
599.058060	0.215259
599.268180	0.214985
599.478282	0.214974
599.688366	0.214868
599.898431	0.214634
600.108479	0.214686
600.318508	0.214611
600.528519	0.214612
600.738511	0.214731
600.948486	0.214706
601.158442	0.214902
601.368380	0.214802
601.578300	0.214823
601.788202	0.215010
601.998085	0.215262
602.207950	0.215573
602.417797	0.215663
602.627626	0.215890
602.837436	0.216319
603.047228	0.216580
603.257002	0.216952
603.466758	0.217336
603.676496	0.217330
603.886215	0.217610
604.095916	0.217854
604.305599	0.217907
604.515264	0.218097
604.724910	0.218291
604.934538	0.218577
605.144148	0.218667
605.353740	0.218889
605.563314	0.219100
605.772869	0.218898
605.982406	0.218581
606.191925	0.218788
606.401425	0.218761
606.610908	0.218561
606.820372	0.218453
607.029818	0.218513
607.239246	0.218437
607.448655	0.218624
607.658047	0.219042
607.867420	0.219311
608.076775	0.219672
608.286111	0.220022
608.495430	0.220510
608.704730	0.220941
608.914012	0.221145
609.123275	0.221474
609.332521	0.221663
609.541748	0.222024
609.750957	0.222080
609.960148	0.222350
610.169321	0.222209
610.378475	0.222237
610.587611	0.222144
610.796729	0.222245
611.005829	0.222361
611.214910	0.222698
611.423974	0.222430
611.633019	0.222761
611.842045	0.222422
612.051054	0.222731
612.260044	0.222685
612.469017	0.222888
612.677970	0.223362
612.886906	0.223428
613.095824	0.223274
613.304723	0.223865
613.513604	0.223871
613.722467	0.224388
613.931311	0.224597
614.140138	0.224749
614.348946	0.224781
614.557736	0.224681
614.766507	0.224948
614.975261	0.224987
615.183996	0.224680
615.392713	0.225002
615.601412	0.224952
615.810092	0.225068
616.018754	0.225297
616.227399	0.225626
616.436024	0.225707
616.644632	0.225522
616.853222	0.225886
617.061793	0.226261
617.270346	0.226080
617.478880	0.226180
617.687397	0.226305
617.895895	0.226544
618.104375	0.226405
618.312837	0.226602
618.521281	0.226978
618.729706	0.227177
618.938113	0.227025
619.146502	0.227299
619.354873	0.227235
619.563226	0.227236
619.771560	0.227194
619.979876	0.227394
620.188174	0.227302
620.396453	0.227651
620.604715	0.227723
620.812958	0.227875
621.021183	0.227843
621.229390	0.228271
621.437578	0.228473
621.645748	0.228520
621.853900	0.228558
622.062034	0.228688
622.270150	0.228485
622.478247	0.228384
622.686326	0.228660
622.894387	0.228875
623.102430	0.229032
623.310454	0.229159
623.518461	0.229687
623.726449	0.229833
623.934418	0.230024
624.142370	0.229918
624.350303	0.229968
624.558218	0.229972
624.766115	0.230146
624.973994	0.229976
625.181855	0.229867
625.389697	0.230018
625.597521	0.230394
625.805327	0.230630
626.013114	0.231075
626.220883	0.231579
626.428634	0.231515
626.636367	0.231995
626.844082	0.232507
627.051778	0.232707
627.259457	0.232724
627.467117	0.232736
627.674758	0.232921
627.882382	0.233126
628.089987	0.233431
628.297574	0.233832
628.505143	0.233464
628.712694	0.233435
628.920226	0.233335
629.127740	0.233202
629.335236	0.233165
629.542714	0.233388
629.750174	0.233437
629.957615	0.233379
630.165038	0.233388
630.372443	0.233678
630.579829	0.233460
630.787198	0.233963
630.994548	0.234345
631.201880	0.234376
631.409194	0.234260
631.616489	0.234457
631.823766	0.234310
632.031025	0.234529
632.238266	0.234761
632.445489	0.235107
632.652693	0.235352
632.859879	0.235266
633.067047	0.235518
633.274197	0.235626
633.481329	0.235543
633.688442	0.235686
633.895537	0.235807
634.102614	0.235729
634.309672	0.236206
634.516713	0.236146
634.723735	0.236263
634.930739	0.236444
635.137724	0.236518
635.344692	0.236880
635.551641	0.237143
635.758572	0.237377
635.965485	0.237485
636.172379	0.237525
636.379256	0.237725
636.586114	0.237983
636.792954	0.238201
636.999775	0.238416
637.206579	0.238753
637.413364	0.238984
637.620131	0.239157
637.826880	0.239511
638.033610	0.239524
638.240323	0.239863
638.447017	0.240137
638.653692	0.240304
638.860350	0.240603
639.066990	0.240671
639.273611	0.240709
639.480214	0.240734
639.686798	0.240795
639.893365	0.240789
640.099913	0.240925
640.306443	0.240921
640.512955	0.240870
640.719449	0.241078
640.925924	0.241206
641.132381	0.241634
641.338820	0.241959
641.545241	0.242321
641.751644	0.242598
641.958028	0.242905
642.164394	0.243329
642.370742	0.243805
642.577071	0.244063
642.783383	0.244368
642.989676	0.244467
643.195951	0.244734
643.402207	0.244829
643.608446	0.245131
643.814666	0.245076
644.020868	0.245067
644.227052	0.245120
644.433218	0.245039
644.639365	0.244934
644.845494	0.244983
645.051605	0.245046
645.257698	0.245144
645.463772	0.245344
645.669828	0.245473
645.875866	0.245611
646.081886	0.245657
646.287888	0.245868
646.493871	0.246213
646.699836	0.246233
646.905783	0.246285
647.111712	0.246469
647.317622	0.246421
647.523514	0.246468
647.729388	0.246512
647.935244	0.246786
648.141082	0.247090
648.346901	0.246847
648.552702	0.247196
648.758485	0.247581
648.964250	0.248193
649.169996	0.248533
649.375724	0.248733
649.581434	0.249091
649.787126	0.249358
649.992800	0.249383
650.198455	0.250086
650.404092	0.250370
650.609711	0.250525
650.815311	0.250440
651.020894	0.250489
651.226458	0.250912
651.432004	0.250823
651.637532	0.250850
651.843041	0.251144
652.048532	0.250945
652.254006	0.250684
652.459460	0.250747
652.664897	0.250447
652.870315	0.250709
653.075716	0.250635
653.281097	0.250842
653.486461	0.250971
653.691807	0.251024
653.897134	0.251181
654.102443	0.251557
654.307734	0.251593
654.513006	0.251945
654.718261	0.252156
654.923497	0.252194
655.128715	0.252413
655.333915	0.252611
655.539096	0.252645
655.744259	0.252776
655.949404	0.252976
656.154531	0.253074
656.359640	0.253330
656.564730	0.253692
656.769802	0.254240
656.974856	0.254355
657.179892	0.254723
657.384909	0.255073
657.589908	0.255328
657.794889	0.255705
657.999852	0.256055
658.204797	0.256360
658.409723	0.256334
658.614631	0.256455
658.819521	0.256823
659.024393	0.256991
659.229246	0.257500
659.434081	0.257807
659.638898	0.258148
659.843697	0.258368
660.048478	0.258297
660.253240	0.258306
660.457984	0.258370
660.662710	0.258568
660.867417	0.258685
661.072107	0.258553
661.276778	0.258583
661.481431	0.258527
661.686066	0.259072
661.890682	0.259667
662.095281	0.259964
662.299861	0.260523
662.504422	0.260754
662.708966	0.260737
662.913491	0.260800
663.117999	0.261038
663.322488	0.261491
663.526958	0.261288
663.731411	0.261246
663.935845	0.261435
664.140261	0.261496
664.344659	0.261595
664.549038	0.261863
664.753400	0.262417
664.957743	0.262991
665.162068	0.263083
665.366375	0.263414
665.570663	0.263571
665.774933	0.264086
665.979185	0.264017
666.183419	0.264186
666.387635	0.264721
666.591832	0.264761
666.796011	0.264526
667.000172	0.264514
667.204315	0.264380
667.408439	0.264473
667.612545	0.264246
667.816634	0.264547
668.020703	0.264604
668.224755	0.264511
668.428788	0.264550
668.632803	0.264779
668.836800	0.265022
669.040779	0.265450
669.244739	0.265714
669.448681	0.266096
669.652605	0.266176
669.856511	0.266590
670.060399	0.266977
670.264268	0.267107
670.468119	0.267787
670.671952	0.267838
670.875767	0.268016
671.079563	0.268253
671.283341	0.268317
671.487101	0.268996
671.690843	0.269255
671.894567	0.269173
672.098272	0.269574
672.301959	0.269400
672.505628	0.269577
672.709278	0.269883
672.912911	0.270234
673.116525	0.270558
673.320121	0.270352
673.523699	0.270608
673.727258	0.270807
673.930799	0.270733
674.134322	0.270824
674.337827	0.270858
674.541314	0.270889
674.744782	0.271018
674.948232	0.270970
675.151664	0.271058
675.355078	0.271079
675.558474	0.271485
675.761851	0.272020
675.965210	0.272281
676.168551	0.272969
676.371873	0.273148
676.575178	0.273162
676.778464	0.273615
676.981732	0.273944
677.184981	0.274265
677.388213	0.274538
677.591426	0.274517
677.794621	0.274781
677.997798	0.275026
678.200956	0.275477
678.404097	0.275835
678.607219	0.275927
678.810323	0.276373
679.013408	0.276492
679.216476	0.276669
679.419525	0.276887
679.622556	0.276991
679.825569	0.277002
680.028563	0.276952
680.231540	0.277351
680.434498	0.277651
680.637438	0.277687
680.840359	0.277819
681.043263	0.277800
681.246148	0.278062
681.449015	0.278351
681.651864	0.278422
681.854694	0.278579
682.057506	0.278606
682.260301	0.278838
682.463076	0.278888
682.665834	0.279224
682.868573	0.279711
683.071295	0.279845
683.273998	0.280170
683.476682	0.280470
683.679349	0.280775
683.881997	0.281110
684.084627	0.281439
684.287239	0.281677
684.489833	0.281739
684.692408	0.281683
684.894965	0.281961
685.097504	0.282128
685.300025	0.282366
685.502527	0.282405
685.705012	0.282462
685.907478	0.282414
686.109925	0.282638
686.312355	0.283015
686.514766	0.283364
686.717159	0.283683
686.919534	0.283835
687.121891	0.283879
687.324230	0.284241
687.526550	0.284421
687.728852	0.284764
687.931136	0.284960
688.133401	0.285094
688.335649	0.285079
688.537878	0.285195
688.740089	0.285426
688.942281	0.285714
689.144456	0.285859
689.346612	0.286083
689.548750	0.286098
689.750870	0.286228
689.952971	0.286348
690.155055	0.286775
690.357120	0.287013
690.559167	0.286958
690.761195	0.287014
690.963206	0.287117
691.165198	0.287149
691.367172	0.287472
691.569128	0.287566
691.771065	0.287612
691.972984	0.287761
692.174885	0.287714
692.376768	0.287911
692.578633	0.287923
692.780479	0.287878
692.982308	0.287983
693.184118	0.287977
693.385909	0.287958
