sample name	sample
index	1143
start time	 04-22-2021  03:09:36 PM


Wavelength (nm)	Absorbance
494.344910	-0.344756
494.563924	-0.344756
494.782919	-0.344756
495.001897	NaN
495.220856	-0.699652
495.439797	-0.798538
495.658719	-0.913051
495.877624	-0.971352
496.096510	-1.254894
496.315378	-0.825579
496.534227	-0.519094
496.753059	-0.267831
496.971872	-0.133470
497.190667	0.086969
497.409444	0.090092
497.628203	0.089920
497.846943	0.088112
498.065665	0.086704
498.284369	0.086984
498.503055	0.087413
498.721723	0.087874
498.940372	0.089152
499.159003	0.089111
499.377616	0.089972
499.596210	0.089224
499.814787	0.089874
500.033345	0.090642
500.251885	0.090348
500.470406	0.088962
500.688910	0.088689
500.907395	0.088455
501.125862	0.088758
501.344311	0.089958
501.562742	0.090664
501.781154	0.091644
501.999548	0.092272
502.217924	0.092034
502.436282	0.093012
502.654621	0.092618
502.872942	0.092369
503.091245	0.091913
503.309530	0.091546
503.527797	0.091075
503.746045	0.089865
503.964275	0.089908
504.182487	0.091223
504.400681	0.090545
504.618856	0.091063
504.837013	0.091805
505.055152	0.091947
505.273273	0.091082
505.491376	0.092272
505.709460	0.093587
505.927526	0.092574
506.145574	0.091734
506.363604	0.091499
506.581615	0.091483
506.799608	0.091368
507.017583	0.091135
507.235540	0.090815
507.453478	0.089296
507.671399	0.087793
507.889301	0.087492
508.107185	0.088852
508.325050	0.089215
508.542898	0.088452
508.760727	0.087765
508.978538	0.088650
509.196330	0.088158
509.414105	0.088326
509.631861	0.089720
509.849599	0.091634
510.067319	0.091413
510.285021	0.091575
510.502704	0.092130
510.720369	0.091907
510.938016	0.091811
511.155645	0.092322
511.373255	0.092992
511.590848	0.092991
511.808422	0.091148
512.025977	0.091435
512.243515	0.091927
512.461034	0.091612
512.678536	0.091867
512.896018	0.091964
513.113483	0.091746
513.330930	0.090779
513.548358	0.090405
513.765768	0.090909
513.983160	0.090449
514.200533	0.089066
514.417889	0.088204
514.635226	0.088735
514.852545	0.087995
515.069845	0.087979
515.287128	0.089372
515.504392	0.088964
515.721638	0.088938
515.938866	0.088127
516.156075	0.088500
516.373267	0.089567
516.590440	0.089174
516.807594	0.089778
517.024731	0.090199
517.241850	0.089345
517.458950	0.089491
517.676032	0.089599
517.893095	0.090266
518.110141	0.090376
518.327168	0.089762
518.544177	0.089500
518.761168	0.089304
518.978141	0.089561
519.195095	0.089211
519.412031	0.088833
519.628949	0.089048
519.845849	0.088255
520.062731	0.087907
520.279594	0.088125
520.496439	0.088197
520.713266	0.088177
520.930074	0.088028
521.146865	0.088534
521.363637	0.088603
521.580391	0.087539
521.797127	0.087937
522.013844	0.088845
522.230543	0.089152
522.447224	0.089117
522.663887	0.088665
522.880532	0.088508
523.097158	0.087849
523.313766	0.087732
523.530356	0.088551
523.746928	0.088752
523.963481	0.087700
524.180017	0.087270
524.396534	0.087565
524.613032	0.088181
524.829513	0.088546
525.045975	0.088823
525.262420	0.089248
525.478845	0.089246
525.695253	0.089198
525.911643	0.089421
526.128014	0.089099
526.344367	0.088688
526.560702	0.087875
526.777018	0.087278
526.993316	0.087031
527.209597	0.087085
527.425858	0.086325
527.642102	0.085925
527.858328	0.085829
528.074535	0.086430
528.290724	0.086496
528.506894	0.086668
528.723047	0.086366
528.939181	0.086562
529.155297	0.086453
529.371395	0.086962
529.587475	0.087377
529.803536	0.087653
530.019579	0.087650
530.235604	0.087752
530.451611	0.087896
530.667600	0.088029
530.883570	0.087966
531.099522	0.087607
531.315456	0.087072
531.531372	0.086592
531.747269	0.086526
531.963148	0.086415
532.179009	0.087013
532.394852	0.087031
532.610676	0.087211
532.826482	0.087149
533.042271	0.087926
533.258040	0.088406
533.473792	0.087939
533.689525	0.088310
533.905240	0.088335
534.120937	0.087957
534.336616	0.088204
534.552277	0.087618
534.767919	0.087807
534.983543	0.087274
535.199149	0.087328
535.414736	0.088208
535.630306	0.087691
535.845857	0.087509
536.061390	0.087407
536.276904	0.087557
536.492401	0.087700
536.707879	0.087345
536.923339	0.087615
537.138781	0.087564
537.354204	0.086978
537.569610	0.087460
537.784997	0.087341
538.000366	0.086756
538.215716	0.086589
538.431049	0.086946
538.646363	0.087456
538.861659	0.087010
539.076937	0.087444
539.292196	0.088106
539.507438	0.088130
539.722661	0.088400
539.937866	0.089259
540.153052	0.089062
540.368221	0.088845
540.583371	0.088820
540.798503	0.089091
541.013617	0.089034
541.228712	0.088550
541.443789	0.088300
541.658848	0.088140
541.873889	0.088055
542.088912	0.088307
542.303916	0.088338
542.518902	0.088100
542.733870	0.088116
542.948820	0.087807
543.163752	0.088269
543.378665	0.088069
543.593560	0.087973
543.808437	0.087600
544.023295	0.087650
544.238136	0.088524
544.452958	0.088810
544.667762	0.088672
544.882548	0.088779
545.097315	0.088644
545.312064	0.089119
545.526795	0.089472
545.741508	0.089537
545.956203	0.089098
546.170879	0.088504
546.385537	0.088612
546.600177	0.088434
546.814799	0.088088
547.029402	0.088572
547.243988	0.088357
547.458555	0.088769
547.673103	0.088765
547.887634	0.088916
548.102146	0.089082
548.316640	0.089135
548.531116	0.089713
548.745574	0.089480
548.960013	0.088948
549.174435	0.088575
549.388838	0.088163
549.603222	0.087644
549.817589	0.088003
550.031937	0.087516
550.246267	0.086867
550.460579	0.086525
550.674873	0.087400
550.889148	0.087396
551.103405	0.087860
551.317644	0.087898
551.531865	0.088497
551.746068	0.088075
551.960252	0.088176
552.174418	0.088382
552.388566	0.088056
552.602696	0.087655
552.816807	0.088067
553.030900	0.087839
553.244975	0.087393
553.459032	0.086871
553.673070	0.087127
553.887091	0.087220
554.101093	0.087147
554.315077	0.087574
554.529042	0.087797
554.742990	0.087744
554.956919	0.087771
555.170830	0.088148
555.384722	0.088398
555.598597	0.088484
555.812453	0.088370
556.026291	0.088507
556.240111	0.088781
556.453913	0.088007
556.667696	0.087639
556.881461	0.087588
557.095208	0.087489
557.308937	0.087797
557.522647	0.087460
557.736339	0.087609
557.950013	0.087448
558.163669	0.087198
558.377307	0.087733
558.590926	0.087718
558.804527	0.088040
559.018110	0.087829
559.231675	0.087433
559.445221	0.087291
559.658749	0.087015
559.872259	0.086727
560.085751	0.086604
560.299225	0.086480
560.512680	0.086483
560.726117	0.086253
560.939536	0.085925
561.152937	0.086011
561.366319	0.086341
561.579683	0.086349
561.793029	0.086948
562.006357	0.086981
562.219667	0.087282
562.432958	0.087235
562.646231	0.087010
562.859486	0.087473
563.072723	0.087567
563.285941	0.087434
563.499141	0.087731
563.712323	0.087203
563.925487	0.087160
564.138632	0.086843
564.351760	0.086847
564.564869	0.087096
564.777960	0.087198
564.991032	0.086913
565.204087	0.086701
565.417123	0.086612
565.630141	0.086918
565.843140	0.086293
566.056122	0.086283
566.269085	0.086360
566.482030	0.085991
566.694957	0.085707
566.907866	0.086039
567.120756	0.086071
567.333628	0.086207
567.546482	0.086037
567.759318	0.086590
567.972135	0.086487
568.184935	0.086728
568.397716	0.087011
568.610478	0.087119
568.823223	0.087092
569.035949	0.087177
569.248657	0.086921
569.461347	0.087108
569.674019	0.087051
569.886672	0.087138
570.099308	0.087042
570.311925	0.087042
570.524523	0.087167
570.737104	0.087239
570.949666	0.087333
571.162210	0.087764
571.374736	0.087634
571.587244	0.087721
571.799733	0.087535
572.012205	0.087232
572.224658	0.087279
572.437092	0.087168
572.649509	0.086881
572.861907	0.087105
573.074287	0.086316
573.286649	0.086160
573.498993	0.086104
573.711318	0.086331
573.923625	0.086194
574.135914	0.086037
574.348185	0.086029
574.560438	0.085886
574.772672	0.085584
574.984888	0.085676
575.197086	0.085817
575.409266	0.085895
575.621427	0.085606
575.833570	0.085863
576.045695	0.085926
576.257802	0.085817
576.469890	0.085879
576.681961	0.085843
576.894013	0.086081
577.106046	0.086077
577.318062	0.085820
577.530059	0.086229
577.742039	0.086028
577.954000	0.085790
578.165942	0.085981
578.377867	0.086126
578.589773	0.086254
578.801661	0.086373
579.013531	0.086169
579.225382	0.086278
579.437216	0.086141
579.649031	0.086421
579.860828	0.086624
580.072606	0.086411
580.284367	0.086222
580.496109	0.086017
580.707833	0.085873
580.919539	0.086053
581.131227	0.085949
581.342896	0.085990
581.554547	0.085698
581.766180	0.085695
581.977795	0.085817
582.189391	0.085804
582.400969	0.085872
582.612529	0.085780
582.824071	0.085702
583.035595	0.085868
583.247100	0.085402
583.458587	0.085499
583.670056	0.085655
583.881506	0.085436
584.092939	0.085710
584.304353	0.085588
584.515749	0.085930
584.727127	0.086129
584.938486	0.086074
585.149828	0.086418
585.361151	0.086247
585.572456	0.086142
585.783742	0.086358
585.995011	0.086383
586.206261	0.086609
586.417493	0.086412
586.628706	0.086202
586.839902	0.086189
587.051079	0.086018
587.262238	0.085846
587.473379	0.085622
587.684502	0.085412
587.895606	0.085626
588.106692	0.085214
588.317760	0.085382
588.528810	0.085446
588.739841	0.085395
588.950855	0.085680
589.161850	0.085743
589.372827	0.086053
589.583785	0.086350
589.794726	0.086104
590.005648	0.086577
590.216552	0.086237
590.427437	0.086391
590.638305	0.086319
590.849154	0.085848
591.059985	0.085958
591.270798	0.085580
591.481592	0.085535
591.692369	0.085329
591.903127	0.084975
592.113867	0.085358
592.324588	0.085232
592.535292	0.085374
592.745977	0.085737
592.956644	0.085707
593.167293	0.085815
593.377923	0.085624
593.588536	0.085787
593.799130	0.085862
594.009706	0.085869
594.220263	0.085947
594.430803	0.085749
594.641324	0.085949
594.851827	0.086324
595.062312	0.086177
595.272778	0.086682
595.483227	0.086725
595.693657	0.086801
595.904069	0.086643
596.114462	0.086566
596.324838	0.086641
596.535195	0.086419
596.745534	0.086147
596.955855	0.086358
597.166157	0.086090
597.376441	0.085638
597.586707	0.085612
597.796955	0.085464
598.007185	0.085685
598.217396	0.085561
598.427589	0.085509
598.637764	0.085913
598.847921	0.086321
599.058060	0.086355
599.268180	0.086564
599.478282	0.086543
599.688366	0.086351
599.898431	0.085918
600.108479	0.086123
600.318508	0.086065
600.528519	0.085547
600.738511	0.085026
600.948486	0.084717
601.158442	0.084855
601.368380	0.084584
601.578300	0.084673
601.788202	0.085042
601.998085	0.084875
602.207950	0.084621
602.417797	0.084651
602.627626	0.084321
602.837436	0.084403
603.047228	0.084316
603.257002	0.084565
603.466758	0.084583
603.676496	0.084233
603.886215	0.084112
604.095916	0.084421
604.305599	0.084396
604.515264	0.084825
604.724910	0.084718
604.934538	0.084945
605.144148	0.084823
605.353740	0.084748
605.563314	0.084898
605.772869	0.085186
605.982406	0.085095
606.191925	0.085137
606.401425	0.084815
606.610908	0.084797
606.820372	0.084586
607.029818	0.084705
607.239246	0.084722
607.448655	0.084492
607.658047	0.084473
607.867420	0.084639
608.076775	0.084263
608.286111	0.084470
608.495430	0.084442
608.704730	0.084317
608.914012	0.084197
609.123275	0.084278
609.332521	0.084541
609.541748	0.084367
609.750957	0.084074
609.960148	0.084460
610.169321	0.084536
610.378475	0.084502
610.587611	0.084539
610.796729	0.084362
611.005829	0.084326
611.214910	0.084157
611.423974	0.084018
611.633019	0.084050
611.842045	0.083927
612.051054	0.083920
612.260044	0.083977
612.469017	0.084246
612.677970	0.084570
612.886906	0.084557
613.095824	0.084443
613.304723	0.084650
613.513604	0.084535
613.722467	0.084498
613.931311	0.084445
614.140138	0.084246
614.348946	0.084187
614.557736	0.084025
614.766507	0.084222
614.975261	0.084212
615.183996	0.084066
615.392713	0.084366
615.601412	0.084396
615.810092	0.084226
616.018754	0.084186
616.227399	0.083943
616.436024	0.083852
616.644632	0.083505
616.853222	0.083504
617.061793	0.083469
617.270346	0.083249
617.478880	0.083392
617.687397	0.083666
617.895895	0.084059
618.104375	0.084200
618.312837	0.084273
618.521281	0.084523
618.729706	0.084824
618.938113	0.084904
619.146502	0.084968
619.354873	0.084920
619.563226	0.084722
619.771560	0.084741
619.979876	0.084449
620.188174	0.084512
620.396453	0.084426
620.604715	0.084241
620.812958	0.084296
621.021183	0.084231
621.229390	0.084186
621.437578	0.084352
621.645748	0.083916
621.853900	0.083961
622.062034	0.083605
622.270150	0.083453
622.478247	0.083435
622.686326	0.083443
622.894387	0.083510
623.102430	0.083334
623.310454	0.083432
623.518461	0.083715
623.726449	0.083830
623.934418	0.083890
624.142370	0.083944
624.350303	0.083866
624.558218	0.083929
624.766115	0.083643
624.973994	0.083823
625.181855	0.083502
625.389697	0.083411
625.597521	0.083396
625.805327	0.083533
626.013114	0.083537
626.220883	0.083543
626.428634	0.083511
626.636367	0.083620
626.844082	0.083481
627.051778	0.083394
627.259457	0.083198
627.467117	0.082979
627.674758	0.083065
627.882382	0.083151
628.089987	0.083020
628.297574	0.082953
628.505143	0.083101
628.712694	0.082981
628.920226	0.083358
629.127740	0.083779
629.335236	0.084118
629.542714	0.084154
629.750174	0.084219
629.957615	0.084496
630.165038	0.084600
630.372443	0.084540
630.579829	0.084850
630.787198	0.084654
630.994548	0.084412
631.201880	0.084489
631.409194	0.084437
631.616489	0.084268
631.823766	0.084307
632.031025	0.084184
632.238266	0.084071
632.445489	0.083850
632.652693	0.083856
632.859879	0.083880
633.067047	0.083405
633.274197	0.083377
633.481329	0.083372
633.688442	0.083204
633.895537	0.083021
634.102614	0.082997
634.309672	0.083059
634.516713	0.082947
634.723735	0.082992
634.930739	0.083281
635.137724	0.083432
635.344692	0.083488
635.551641	0.083657
635.758572	0.083805
635.965485	0.084043
636.172379	0.084209
636.379256	0.084305
636.586114	0.084126
636.792954	0.084003
636.999775	0.083989
637.206579	0.083954
637.413364	0.083794
637.620131	0.083922
637.826880	0.083770
638.033610	0.083737
638.240323	0.083835
638.447017	0.084066
638.653692	0.084244
638.860350	0.084325
639.066990	0.084338
639.273611	0.084395
639.480214	0.084261
639.686798	0.084279
639.893365	0.084445
640.099913	0.084330
640.306443	0.084300
640.512955	0.084248
640.719449	0.084348
640.925924	0.084685
641.132381	0.084832
641.338820	0.085031
641.545241	0.085551
641.751644	0.085558
641.958028	0.085788
642.164394	0.085979
642.370742	0.086199
642.577071	0.085965
642.783383	0.085748
642.989676	0.085756
643.195951	0.085773
643.402207	0.085448
643.608446	0.085363
643.814666	0.085278
644.020868	0.085177
644.227052	0.084861
644.433218	0.084812
644.639365	0.084835
644.845494	0.084753
645.051605	0.084771
645.257698	0.084648
645.463772	0.084622
645.669828	0.084675
645.875866	0.084849
646.081886	0.085025
646.287888	0.085078
646.493871	0.085172
646.699836	0.085170
646.905783	0.085165
647.111712	0.085188
647.317622	0.085266
647.523514	0.085156
647.729388	0.084947
647.935244	0.084975
648.141082	0.084832
648.346901	0.084643
648.552702	0.084637
648.758485	0.084587
648.964250	0.084915
649.169996	0.085048
649.375724	0.084982
649.581434	0.084953
649.787126	0.084858
649.992800	0.085213
650.198455	0.085413
650.404092	0.085550
650.609711	0.085671
650.815311	0.085152
651.020894	0.084742
651.226458	0.084872
651.432004	0.084928
651.637532	0.084837
651.843041	0.084692
652.048532	0.084676
652.254006	0.084658
652.459460	0.084437
652.664897	0.084797
652.870315	0.085215
653.075716	0.085473
653.281097	0.085708
653.486461	0.086026
653.691807	0.086213
653.897134	0.086318
654.102443	0.086260
654.307734	0.086229
654.513006	0.086023
654.718261	0.085833
654.923497	0.085496
655.128715	0.085305
655.333915	0.085082
655.539096	0.084971
655.744259	0.084805
655.949404	0.084567
656.154531	0.084577
656.359640	0.084690
656.564730	0.084679
656.769802	0.084857
656.974856	0.084900
657.179892	0.084993
657.384909	0.084961
657.589908	0.085045
657.794889	0.085310
657.999852	0.085357
658.204797	0.085485
658.409723	0.085663
658.614631	0.085774
658.819521	0.085930
659.024393	0.086123
659.229246	0.086145
659.434081	0.086194
659.638898	0.086205
659.843697	0.086419
660.048478	0.086461
660.253240	0.086239
660.457984	0.085978
660.662710	0.085685
660.867417	0.085441
661.072107	0.085288
661.276778	0.085050
661.481431	0.084984
661.686066	0.084951
661.890682	0.084787
662.095281	0.085045
662.299861	0.085285
662.504422	0.085368
662.708966	0.085650
662.913491	0.085935
663.117999	0.086271
663.322488	0.086556
663.526958	0.086423
663.731411	0.086559
663.935845	0.086361
664.140261	0.086242
664.344659	0.086386
664.549038	0.086079
664.753400	0.086105
664.957743	0.086090
665.162068	0.085946
665.366375	0.086013
665.570663	0.086225
665.774933	0.086284
665.979185	0.086280
666.183419	0.086303
666.387635	0.086488
666.591832	0.086767
666.796011	0.086786
667.000172	0.086947
667.204315	0.087210
667.408439	0.087117
667.612545	0.087120
667.816634	0.087361
668.020703	0.087358
668.224755	0.087309
668.428788	0.087084
668.632803	0.087105
668.836800	0.087017
669.040779	0.086880
669.244739	0.086704
669.448681	0.086639
669.652605	0.086554
669.856511	0.086511
670.060399	0.086654
670.264268	0.086822
670.468119	0.086910
670.671952	0.086915
670.875767	0.086950
671.079563	0.087165
671.283341	0.087148
671.487101	0.087080
671.690843	0.087335
671.894567	0.087396
672.098272	0.087219
672.301959	0.087006
672.505628	0.087103
672.709278	0.087129
672.912911	0.087110
673.116525	0.087313
673.320121	0.087349
673.523699	0.087150
673.727258	0.087103
673.930799	0.087088
674.134322	0.087230
674.337827	0.087154
674.541314	0.087249
674.744782	0.087271
674.948232	0.087184
675.151664	0.087327
675.355078	0.087406
675.558474	0.087508
675.761851	0.087416
675.965210	0.087184
676.168551	0.087187
676.371873	0.087108
676.575178	0.087059
676.778464	0.087045
676.981732	0.087016
677.184981	0.086954
677.388213	0.086818
677.591426	0.086764
677.794621	0.087017
677.997798	0.087216
678.200956	0.087234
678.404097	0.087327
678.607219	0.087265
678.810323	0.087075
679.013408	0.087180
679.216476	0.087283
679.419525	0.087516
679.622556	0.087608
679.825569	0.087593
680.028563	0.087611
680.231540	0.087622
680.434498	0.087945
680.637438	0.088245
680.840359	0.088236
681.043263	0.088194
681.246148	0.088278
681.449015	0.088096
681.651864	0.088176
681.854694	0.088239
682.057506	0.088256
682.260301	0.088310
682.463076	0.088209
682.665834	0.088305
682.868573	0.088525
683.071295	0.088553
683.273998	0.088736
683.476682	0.088631
683.679349	0.088709
683.881997	0.088787
684.084627	0.088894
684.287239	0.088924
684.489833	0.088944
684.692408	0.088757
684.894965	0.088724
685.097504	0.088766
685.300025	0.089006
685.502527	0.088958
685.705012	0.088991
685.907478	0.088957
686.109925	0.089102
686.312355	0.089157
686.514766	0.089135
686.717159	0.089016
686.919534	0.088973
687.121891	0.088715
687.324230	0.088715
687.526550	0.088522
687.728852	0.088178
687.931136	0.088132
688.133401	0.087988
688.335649	0.088190
688.537878	0.088224
688.740089	0.088298
688.942281	0.088251
689.144456	0.088131
689.346612	0.088156
689.548750	0.088150
689.750870	0.088054
689.952971	0.088058
690.155055	0.087870
690.357120	0.087897
690.559167	0.087806
690.761195	0.087701
690.963206	0.087831
691.165198	0.087786
691.367172	0.087990
691.569128	0.087910
691.771065	0.087716
691.972984	0.087830
692.174885	0.087790
692.376768	0.087823
692.578633	0.087839
692.780479	0.087867
692.982308	0.087925
693.184118	0.087849
693.385909	0.087927
