sample name	sample
index	478
start time	 03-11-2021  12:53:04 PM


Wavelength (nm)	Absorbance
494.344910	-0.032306
494.563924	-0.032306
494.782919	-0.032306
495.001897	0.218418
495.220856	0.155910
495.439797	0.109179
495.658719	0.081468
495.877624	0.057139
496.096510	0.048741
496.315378	-0.031091
496.534227	-0.012625
496.753059	0.048207
496.971872	-0.066859
497.190667	0.062498
497.409444	0.072299
497.628203	0.076485
497.846943	0.077652
498.065665	0.077987
498.284369	0.078040
498.503055	0.077922
498.721723	0.077193
498.940372	0.077668
499.159003	0.077256
499.377616	0.078497
499.596210	0.077592
499.814787	0.076111
500.033345	0.076056
500.251885	0.075421
500.470406	0.075342
500.688910	0.075249
500.907395	0.075720
501.125862	0.075850
501.344311	0.075159
501.562742	0.076124
501.781154	0.078029
501.999548	0.077567
502.217924	0.077341
502.436282	0.076613
502.654621	0.077703
502.872942	0.077541
503.091245	0.077069
503.309530	0.076105
503.527797	0.075665
503.746045	0.075361
503.964275	0.074621
504.182487	0.075905
504.400681	0.076369
504.618856	0.075421
504.837013	0.076042
505.055152	0.076202
505.273273	0.076147
505.491376	0.075740
505.709460	0.075782
505.927526	0.075799
506.145574	0.075853
506.363604	0.075973
506.581615	0.076462
506.799608	0.076328
507.017583	0.076744
507.235540	0.077931
507.453478	0.078185
507.671399	0.078653
507.889301	0.079418
508.107185	0.079712
508.325050	0.079879
508.542898	0.079416
508.760727	0.079224
508.978538	0.079088
509.196330	0.078771
509.414105	0.079409
509.631861	0.078772
509.849599	0.079178
510.067319	0.079547
510.285021	0.079510
510.502704	0.079879
510.720369	0.080399
510.938016	0.080011
511.155645	0.080418
511.373255	0.080528
511.590848	0.080630
511.808422	0.080500
512.025977	0.080268
512.243515	0.080587
512.461034	0.080628
512.678536	0.079551
512.896018	0.078941
513.113483	0.079282
513.330930	0.078734
513.548358	0.078810
513.765768	0.078811
513.983160	0.078744
514.200533	0.077892
514.417889	0.078062
514.635226	0.078568
514.852545	0.079403
515.069845	0.079139
515.287128	0.079384
515.504392	0.079204
515.721638	0.079540
515.938866	0.079118
516.156075	0.079782
516.373267	0.078787
516.590440	0.078717
516.807594	0.078828
517.024731	0.078987
517.241850	0.079547
517.458950	0.080290
517.676032	0.080545
517.893095	0.080896
518.110141	0.080889
518.327168	0.082163
518.544177	0.082460
518.761168	0.082192
518.978141	0.082453
519.195095	0.082055
519.412031	0.081724
519.628949	0.081454
519.845849	0.081335
520.062731	0.081402
520.279594	0.081227
520.496439	0.081254
520.713266	0.081773
520.930074	0.080929
521.146865	0.081248
521.363637	0.080919
521.580391	0.080920
521.797127	0.081050
522.013844	0.081634
522.230543	0.082016
522.447224	0.082343
522.663887	0.082100
522.880532	0.082755
523.097158	0.082302
523.313766	0.082998
523.530356	0.083389
523.746928	0.083803
523.963481	0.083280
524.180017	0.083348
524.396534	0.083347
524.613032	0.083260
524.829513	0.083458
525.045975	0.084215
525.262420	0.084423
525.478845	0.084702
525.695253	0.084495
525.911643	0.084900
526.128014	0.085024
526.344367	0.084915
526.560702	0.085739
526.777018	0.085726
526.993316	0.085927
527.209597	0.085715
527.425858	0.084973
527.642102	0.085245
527.858328	0.085984
528.074535	0.086306
528.290724	0.086231
528.506894	0.086288
528.723047	0.086345
528.939181	0.085767
529.155297	0.086196
529.371395	0.086568
529.587475	0.086468
529.803536	0.086084
530.019579	0.085576
530.235604	0.086473
530.451611	0.086746
530.667600	0.086949
530.883570	0.087123
531.099522	0.086915
531.315456	0.086994
531.531372	0.087152
531.747269	0.087266
531.963148	0.087785
532.179009	0.087098
532.394852	0.086806
532.610676	0.086608
532.826482	0.086790
533.042271	0.086893
533.258040	0.087631
533.473792	0.087992
533.689525	0.088050
533.905240	0.087891
534.120937	0.088192
534.336616	0.088372
534.552277	0.089062
534.767919	0.089209
534.983543	0.089698
535.199149	0.089039
535.414736	0.088774
535.630306	0.088847
535.845857	0.089564
536.061390	0.089491
536.276904	0.089550
536.492401	0.089524
536.707879	0.089578
536.923339	0.089322
537.138781	0.089639
537.354204	0.090148
537.569610	0.090200
537.784997	0.090118
538.000366	0.090739
538.215716	0.090735
538.431049	0.091121
538.646363	0.091579
538.861659	0.091436
539.076937	0.091713
539.292196	0.091995
539.507438	0.091882
539.722661	0.091413
539.937866	0.091576
540.153052	0.091839
540.368221	0.091766
540.583371	0.091545
540.798503	0.092029
541.013617	0.092393
541.228712	0.092058
541.443789	0.092406
541.658848	0.093561
541.873889	0.093620
542.088912	0.093845
542.303916	0.093900
542.518902	0.094390
542.733870	0.094782
542.948820	0.094775
543.163752	0.095087
543.378665	0.095236
543.593560	0.094738
543.808437	0.094717
544.023295	0.094707
544.238136	0.094625
544.452958	0.094847
544.667762	0.094885
544.882548	0.094947
545.097315	0.095171
545.312064	0.094845
545.526795	0.095288
545.741508	0.095585
545.956203	0.095640
546.170879	0.096151
546.385537	0.096277
546.600177	0.096333
546.814799	0.096495
547.029402	0.096643
547.243988	0.096940
547.458555	0.096595
547.673103	0.096973
547.887634	0.096807
548.102146	0.096632
548.316640	0.096330
548.531116	0.096706
548.745574	0.096804
548.960013	0.096733
549.174435	0.097292
549.388838	0.097250
549.603222	0.096863
549.817589	0.097337
550.031937	0.097512
550.246267	0.097612
550.460579	0.097490
550.674873	0.097266
550.889148	0.097482
551.103405	0.097368
551.317644	0.097683
551.531865	0.098022
551.746068	0.098173
551.960252	0.098033
552.174418	0.098089
552.388566	0.097906
552.602696	0.098325
552.816807	0.098286
553.030900	0.098573
553.244975	0.098693
553.459032	0.098593
553.673070	0.098675
553.887091	0.099313
554.101093	0.099618
554.315077	0.100132
554.529042	0.100031
554.742990	0.100097
554.956919	0.099571
555.170830	0.099722
555.384722	0.099996
555.598597	0.099838
555.812453	0.099465
556.026291	0.099456
556.240111	0.099083
556.453913	0.099349
556.667696	0.099192
556.881461	0.099535
557.095208	0.099959
557.308937	0.100225
557.522647	0.100427
557.736339	0.100297
557.950013	0.100192
558.163669	0.100567
558.377307	0.100780
558.590926	0.100777
558.804527	0.100936
559.018110	0.100658
559.231675	0.100533
559.445221	0.100760
559.658749	0.101292
559.872259	0.101786
560.085751	0.101602
560.299225	0.101392
560.512680	0.101849
560.726117	0.102008
560.939536	0.101800
561.152937	0.101716
561.366319	0.101599
561.579683	0.101562
561.793029	0.101477
562.006357	0.101607
562.219667	0.102194
562.432958	0.102270
562.646231	0.102217
562.859486	0.102622
563.072723	0.102942
563.285941	0.103405
563.499141	0.103354
563.712323	0.103518
563.925487	0.103650
564.138632	0.103586
564.351760	0.103796
564.564869	0.104129
564.777960	0.104186
564.991032	0.104267
565.204087	0.104033
565.417123	0.104061
565.630141	0.103636
565.843140	0.104021
566.056122	0.103667
566.269085	0.103928
566.482030	0.103747
566.694957	0.103760
566.907866	0.103726
567.120756	0.103730
567.333628	0.103653
567.546482	0.104342
567.759318	0.104384
567.972135	0.104791
568.184935	0.104531
568.397716	0.104679
568.610478	0.104945
568.823223	0.104605
569.035949	0.104890
569.248657	0.105488
569.461347	0.105183
569.674019	0.105090
569.886672	0.104834
570.099308	0.104846
570.311925	0.104965
570.524523	0.104972
570.737104	0.105080
570.949666	0.105096
571.162210	0.105212
571.374736	0.105661
571.587244	0.105802
571.799733	0.106163
572.012205	0.106196
572.224658	0.106429
572.437092	0.106374
572.649509	0.106710
572.861907	0.106658
573.074287	0.106524
573.286649	0.106531
573.498993	0.106664
573.711318	0.106717
573.923625	0.107132
574.135914	0.107220
574.348185	0.107455
574.560438	0.107379
574.772672	0.107531
574.984888	0.107207
575.197086	0.107095
575.409266	0.107046
575.621427	0.106874
575.833570	0.106591
576.045695	0.106370
576.257802	0.106444
576.469890	0.106782
576.681961	0.106557
576.894013	0.106834
577.106046	0.106980
577.318062	0.106802
577.530059	0.106728
577.742039	0.106869
577.954000	0.107170
578.165942	0.107212
578.377867	0.107133
578.589773	0.107226
578.801661	0.107595
579.013531	0.107789
579.225382	0.107978
579.437216	0.108409
579.649031	0.108469
579.860828	0.108342
580.072606	0.108452
580.284367	0.108698
580.496109	0.108873
580.707833	0.108536
580.919539	0.108256
581.131227	0.108299
581.342896	0.108104
581.554547	0.108256
581.766180	0.108578
581.977795	0.108024
582.189391	0.108179
582.400969	0.108591
582.612529	0.108674
582.824071	0.108766
583.035595	0.109015
583.247100	0.109368
583.458587	0.109806
583.670056	0.110089
583.881506	0.110749
584.092939	0.111021
584.304353	0.111145
584.515749	0.111658
584.727127	0.112045
584.938486	0.112230
585.149828	0.112210
585.361151	0.112297
585.572456	0.112386
585.783742	0.112448
585.995011	0.111984
586.206261	0.112058
586.417493	0.111959
586.628706	0.112285
586.839902	0.112253
587.051079	0.112362
587.262238	0.111993
587.473379	0.111340
587.684502	0.111310
587.895606	0.111470
588.106692	0.111614
588.317760	0.111690
588.528810	0.111630
588.739841	0.111572
588.950855	0.111826
589.161850	0.112335
589.372827	0.112740
589.583785	0.112877
589.794726	0.113077
590.005648	0.112661
590.216552	0.112621
590.427437	0.112509
590.638305	0.112882
590.849154	0.112885
591.059985	0.112616
591.270798	0.113038
591.481592	0.113093
591.692369	0.113153
591.903127	0.113754
592.113867	0.113828
592.324588	0.114084
592.535292	0.113859
592.745977	0.114037
592.956644	0.114174
593.167293	0.113684
593.377923	0.113738
593.588536	0.113634
593.799130	0.113642
594.009706	0.113916
594.220263	0.113982
594.430803	0.114122
594.641324	0.113848
594.851827	0.113996
595.062312	0.114244
595.272778	0.114305
595.483227	0.114431
595.693657	0.114305
595.904069	0.114067
596.114462	0.114001
596.324838	0.114028
596.535195	0.114242
596.745534	0.114381
596.955855	0.114495
597.166157	0.114506
597.376441	0.114572
597.586707	0.114730
597.796955	0.115237
598.007185	0.115513
598.217396	0.115778
598.427589	0.115955
598.637764	0.115811
598.847921	0.115854
599.058060	0.115929
599.268180	0.116387
599.478282	0.116496
599.688366	0.116434
599.898431	0.116519
600.108479	0.116672
600.318508	0.116501
600.528519	0.116605
600.738511	0.117055
600.948486	0.117403
601.158442	0.117198
601.368380	0.117466
601.578300	0.117421
601.788202	0.117408
601.998085	0.117430
602.207950	0.118025
602.417797	0.118094
602.627626	0.118058
602.837436	0.117942
603.047228	0.118122
603.257002	0.118036
603.466758	0.118110
603.676496	0.118236
603.886215	0.118469
604.095916	0.118228
604.305599	0.118257
604.515264	0.118207
604.724910	0.118593
604.934538	0.118593
605.144148	0.118705
605.353740	0.118827
605.563314	0.119031
605.772869	0.118972
605.982406	0.119252
606.191925	0.119504
606.401425	0.119558
606.610908	0.119468
606.820372	0.119768
607.029818	0.119884
607.239246	0.119705
607.448655	0.119625
607.658047	0.119527
607.867420	0.119133
608.076775	0.119277
608.286111	0.119295
608.495430	0.119261
608.704730	0.119231
608.914012	0.119414
609.123275	0.119700
609.332521	0.119686
609.541748	0.120038
609.750957	0.120502
609.960148	0.120607
610.169321	0.120805
610.378475	0.120764
610.587611	0.120855
610.796729	0.120806
611.005829	0.120867
611.214910	0.120901
611.423974	0.120926
611.633019	0.121081
611.842045	0.121155
612.051054	0.121173
612.260044	0.121350
612.469017	0.121728
612.677970	0.121582
612.886906	0.121462
613.095824	0.121553
613.304723	0.121299
613.513604	0.121212
613.722467	0.120906
613.931311	0.120950
614.140138	0.121019
614.348946	0.120803
614.557736	0.120979
614.766507	0.121327
614.975261	0.121568
615.183996	0.121931
615.392713	0.122133
615.601412	0.122505
615.810092	0.122623
616.018754	0.122564
616.227399	0.122522
616.436024	0.122673
616.644632	0.122741
616.853222	0.122679
617.061793	0.122552
617.270346	0.122438
617.478880	0.122521
617.687397	0.122642
617.895895	0.123059
618.104375	0.123343
618.312837	0.123342
618.521281	0.123503
618.729706	0.123683
618.938113	0.123902
619.146502	0.124305
619.354873	0.124161
619.563226	0.124381
619.771560	0.124430
619.979876	0.124643
620.188174	0.124801
620.396453	0.124875
620.604715	0.124868
620.812958	0.125153
621.021183	0.125040
621.229390	0.125380
621.437578	0.125275
621.645748	0.125272
621.853900	0.125000
622.062034	0.125064
622.270150	0.125133
622.478247	0.125320
622.686326	0.125084
622.894387	0.125043
623.102430	0.125042
623.310454	0.125191
623.518461	0.125318
623.726449	0.125685
623.934418	0.125592
624.142370	0.125656
624.350303	0.125583
624.558218	0.126038
624.766115	0.126144
624.973994	0.125968
625.181855	0.125824
625.389697	0.125744
625.597521	0.125614
625.805327	0.125762
626.013114	0.125635
626.220883	0.125677
626.428634	0.125234
626.636367	0.125296
626.844082	0.125570
627.051778	0.125732
627.259457	0.125701
627.467117	0.125751
627.674758	0.125861
627.882382	0.125776
628.089987	0.126004
628.297574	0.126313
628.505143	0.126451
628.712694	0.126569
628.920226	0.126995
629.127740	0.127134
629.335236	0.127167
629.542714	0.127288
629.750174	0.127622
629.957615	0.127559
630.165038	0.127651
630.372443	0.127768
630.579829	0.128094
630.787198	0.127948
630.994548	0.128228
631.201880	0.128309
631.409194	0.128439
631.616489	0.128406
631.823766	0.128496
632.031025	0.128420
632.238266	0.128317
632.445489	0.128084
632.652693	0.128204
632.859879	0.128165
633.067047	0.128179
633.274197	0.128161
633.481329	0.128489
633.688442	0.128640
633.895537	0.128726
634.102614	0.128859
634.309672	0.129133
634.516713	0.129122
634.723735	0.128916
634.930739	0.129014
635.137724	0.129142
635.344692	0.129116
635.551641	0.129145
635.758572	0.129115
635.965485	0.129148
636.172379	0.128854
636.379256	0.128795
636.586114	0.129065
636.792954	0.129139
636.999775	0.129387
637.206579	0.129574
637.413364	0.129595
637.620131	0.129592
637.826880	0.129768
638.033610	0.130007
638.240323	0.130283
638.447017	0.130420
638.653692	0.130634
638.860350	0.130589
639.066990	0.130440
639.273611	0.130596
639.480214	0.130934
639.686798	0.131050
639.893365	0.131247
640.099913	0.130929
640.306443	0.131042
640.512955	0.131236
640.719449	0.131257
640.925924	0.131328
641.132381	0.131347
641.338820	0.131385
641.545241	0.131518
641.751644	0.131449
641.958028	0.131925
642.164394	0.131833
642.370742	0.131775
642.577071	0.131799
642.783383	0.131887
642.989676	0.131849
643.195951	0.132046
643.402207	0.132076
643.608446	0.132243
643.814666	0.132193
644.020868	0.132480
644.227052	0.132526
644.433218	0.132650
644.639365	0.132859
644.845494	0.132829
645.051605	0.132624
645.257698	0.132590
645.463772	0.132710
645.669828	0.132668
645.875866	0.132625
646.081886	0.132637
646.287888	0.132498
646.493871	0.132270
646.699836	0.132577
646.905783	0.132674
647.111712	0.132728
647.317622	0.132733
647.523514	0.132883
647.729388	0.132942
647.935244	0.133070
648.141082	0.133377
648.346901	0.133539
648.552702	0.133614
648.758485	0.133784
648.964250	0.134018
649.169996	0.134082
649.375724	0.134109
649.581434	0.134139
649.787126	0.134208
649.992800	0.134103
650.198455	0.134409
650.404092	0.134435
650.609711	0.134668
650.815311	0.134681
651.020894	0.134844
651.226458	0.134844
651.432004	0.135117
651.637532	0.135258
651.843041	0.135503
652.048532	0.135555
652.254006	0.135851
652.459460	0.135912
652.664897	0.136222
652.870315	0.136278
653.075716	0.136510
653.281097	0.136607
653.486461	0.136614
653.691807	0.136549
653.897134	0.136566
654.102443	0.136445
654.307734	0.136569
654.513006	0.136450
654.718261	0.136521
654.923497	0.136678
655.128715	0.136535
655.333915	0.136653
655.539096	0.136892
655.744259	0.137094
655.949404	0.137321
656.154531	0.137553
656.359640	0.137671
656.564730	0.137609
656.769802	0.137705
656.974856	0.137897
657.179892	0.138123
657.384909	0.138185
657.589908	0.138270
657.794889	0.138392
657.999852	0.138315
658.204797	0.138259
658.409723	0.138518
658.614631	0.138717
658.819521	0.139125
659.024393	0.139072
659.229246	0.139228
659.434081	0.139178
659.638898	0.139249
659.843697	0.139300
660.048478	0.139578
660.253240	0.139801
660.457984	0.139712
660.662710	0.139466
660.867417	0.139557
661.072107	0.139524
661.276778	0.139501
661.481431	0.139338
661.686066	0.139457
661.890682	0.139291
662.095281	0.139007
662.299861	0.139108
662.504422	0.139128
662.708966	0.139202
662.913491	0.139495
663.117999	0.139569
663.322488	0.139966
663.526958	0.140000
663.731411	0.140219
663.935845	0.140641
664.140261	0.140762
664.344659	0.141043
664.549038	0.141137
664.753400	0.140950
664.957743	0.141282
665.162068	0.141276
665.366375	0.141256
665.570663	0.141251
665.774933	0.141174
665.979185	0.141112
666.183419	0.141165
666.387635	0.141421
666.591832	0.141597
666.796011	0.141599
667.000172	0.141669
667.204315	0.141910
667.408439	0.142030
667.612545	0.142126
667.816634	0.142458
668.020703	0.142420
668.224755	0.142374
668.428788	0.142217
668.632803	0.142383
668.836800	0.142348
669.040779	0.142401
669.244739	0.142653
669.448681	0.142673
669.652605	0.142579
669.856511	0.142582
670.060399	0.142519
670.264268	0.142864
670.468119	0.142765
670.671952	0.142911
670.875767	0.142979
671.079563	0.142851
671.283341	0.142963
671.487101	0.143074
671.690843	0.143450
671.894567	0.143569
672.098272	0.143734
672.301959	0.143905
672.505628	0.144179
672.709278	0.144458
672.912911	0.144740
673.116525	0.145016
673.320121	0.145174
673.523699	0.145145
673.727258	0.145468
673.930799	0.145656
674.134322	0.145820
674.337827	0.145632
674.541314	0.145732
674.744782	0.145853
674.948232	0.145867
675.151664	0.145717
675.355078	0.145885
675.558474	0.145894
675.761851	0.145743
675.965210	0.145788
676.168551	0.146062
676.371873	0.146071
676.575178	0.145982
676.778464	0.146352
676.981732	0.146587
677.184981	0.146595
677.388213	0.146765
677.591426	0.146719
677.794621	0.146832
677.997798	0.146724
678.200956	0.146625
678.404097	0.146832
678.607219	0.146460
678.810323	0.146621
679.013408	0.146746
679.216476	0.146823
679.419525	0.146910
679.622556	0.147109
679.825569	0.147356
680.028563	0.147658
680.231540	0.147812
680.434498	0.148073
680.637438	0.148198
680.840359	0.148626
681.043263	0.148497
681.246148	0.148777
681.449015	0.148950
681.651864	0.149125
681.854694	0.149016
682.057506	0.149188
682.260301	0.149351
682.463076	0.149623
682.665834	0.149329
682.868573	0.149681
683.071295	0.149640
683.273998	0.149670
683.476682	0.149660
683.679349	0.150016
683.881997	0.150050
684.084627	0.150158
684.287239	0.150063
684.489833	0.150240
684.692408	0.150161
684.894965	0.150654
685.097504	0.150752
685.300025	0.151029
685.502527	0.150968
685.705012	0.151132
685.907478	0.151294
686.109925	0.151423
686.312355	0.151497
686.514766	0.151813
686.717159	0.151731
686.919534	0.151756
687.121891	0.151655
687.324230	0.151954
687.526550	0.151876
687.728852	0.151813
687.931136	0.151779
688.133401	0.151999
688.335649	0.151850
688.537878	0.151814
688.740089	0.151971
688.942281	0.152133
689.144456	0.151857
689.346612	0.151864
689.548750	0.151841
689.750870	0.151939
689.952971	0.151672
690.155055	0.151944
690.357120	0.152000
690.559167	0.151998
690.761195	0.151870
690.963206	0.152064
691.165198	0.152219
691.367172	0.152155
691.569128	0.152194
691.771065	0.152474
691.972984	0.152415
692.174885	0.152634
692.376768	0.152664
692.578633	0.152748
692.780479	0.152882
692.982308	0.152929
693.184118	0.153126
693.385909	0.153308
