sample name	sample
index	1407
start time	 05-10-2021  11:29:18 AM


Wavelength (nm)	Absorbance
494.344910	0.064948
494.563924	0.064948
494.782919	0.064948
495.001897	0.243721
495.220856	0.037427
495.439797	0.035411
495.658719	0.020018
495.877624	0.010490
496.096510	-0.008659
496.315378	-0.004883
496.534227	-0.000491
496.753059	0.011032
496.971872	0.015192
497.190667	0.089924
497.409444	0.116995
497.628203	0.126396
497.846943	0.132464
498.065665	0.137214
498.284369	0.139624
498.503055	0.140269
498.721723	0.139566
498.940372	0.139872
499.159003	0.139528
499.377616	0.139551
499.596210	0.140148
499.814787	0.140416
500.033345	0.140204
500.251885	0.140164
500.470406	0.139817
500.688910	0.142116
500.907395	0.142977
501.125862	0.142922
501.344311	0.142592
501.562742	0.143371
501.781154	0.143377
501.999548	0.143012
502.217924	0.142765
502.436282	0.143553
502.654621	0.142435
502.872942	0.143330
503.091245	0.143710
503.309530	0.145179
503.527797	0.145161
503.746045	0.144604
503.964275	0.144973
504.182487	0.146042
504.400681	0.145601
504.618856	0.146633
504.837013	0.145573
505.055152	0.146545
505.273273	0.146593
505.491376	0.147447
505.709460	0.147896
505.927526	0.148022
506.145574	0.147482
506.363604	0.148165
506.581615	0.148034
506.799608	0.148407
507.017583	0.148393
507.235540	0.148462
507.453478	0.147780
507.671399	0.148075
507.889301	0.147212
508.107185	0.146993
508.325050	0.147029
508.542898	0.146487
508.760727	0.146641
508.978538	0.145798
509.196330	0.145546
509.414105	0.144909
509.631861	0.145489
509.849599	0.146480
510.067319	0.148020
510.285021	0.147706
510.502704	0.148443
510.720369	0.148630
510.938016	0.149717
511.155645	0.149437
511.373255	0.150129
511.590848	0.150348
511.808422	0.149856
512.025977	0.149886
512.243515	0.150067
512.461034	0.149188
512.678536	0.148489
512.896018	0.148929
513.113483	0.150029
513.330930	0.149886
513.548358	0.149504
513.765768	0.150330
513.983160	0.149668
514.200533	0.150479
514.417889	0.151409
514.635226	0.152317
514.852545	0.151866
515.069845	0.150668
515.287128	0.150845
515.504392	0.151731
515.721638	0.151415
515.938866	0.151579
516.156075	0.150950
516.373267	0.150223
516.590440	0.150338
516.807594	0.150675
517.024731	0.151067
517.241850	0.150350
517.458950	0.150103
517.676032	0.151252
517.893095	0.150804
518.110141	0.151115
518.327168	0.152292
518.544177	0.153057
518.761168	0.153072
518.978141	0.153100
519.195095	0.154293
519.412031	0.155081
519.628949	0.154413
519.845849	0.154583
520.062731	0.154607
520.279594	0.154619
520.496439	0.155072
520.713266	0.154789
520.930074	0.155538
521.146865	0.155087
521.363637	0.153868
521.580391	0.154542
521.797127	0.155676
522.013844	0.157184
522.230543	0.157417
522.447224	0.156791
522.663887	0.156891
522.880532	0.156702
523.097158	0.157403
523.313766	0.157911
523.530356	0.157887
523.746928	0.157657
523.963481	0.156826
524.180017	0.156723
524.396534	0.157143
524.613032	0.158152
524.829513	0.158684
525.045975	0.159235
525.262420	0.160227
525.478845	0.160640
525.695253	0.160410
525.911643	0.160615
526.128014	0.160481
526.344367	0.160400
526.560702	0.160408
526.777018	0.161291
526.993316	0.161740
527.209597	0.161514
527.425858	0.161349
527.642102	0.161913
527.858328	0.161562
528.074535	0.162490
528.290724	0.162842
528.506894	0.162667
528.723047	0.161700
528.939181	0.161674
529.155297	0.161304
529.371395	0.162175
529.587475	0.162933
529.803536	0.163979
530.019579	0.164450
530.235604	0.164992
530.451611	0.165615
530.667600	0.166222
530.883570	0.166120
531.099522	0.166258
531.315456	0.165891
531.531372	0.165489
531.747269	0.165712
531.963148	0.165553
532.179009	0.165918
532.394852	0.166012
532.610676	0.165926
532.826482	0.166218
533.042271	0.167301
533.258040	0.167349
533.473792	0.167830
533.689525	0.168405
533.905240	0.168229
534.120937	0.168412
534.336616	0.169066
534.552277	0.169342
534.767919	0.169215
534.983543	0.169320
535.199149	0.169698
535.414736	0.170084
535.630306	0.170368
535.845857	0.170912
536.061390	0.170861
536.276904	0.170993
536.492401	0.171724
536.707879	0.172118
536.923339	0.171780
537.138781	0.171961
537.354204	0.172025
537.569610	0.171783
537.784997	0.172336
538.000366	0.172153
538.215716	0.172270
538.431049	0.172187
538.646363	0.172638
538.861659	0.173143
539.076937	0.173480
539.292196	0.173476
539.507438	0.173516
539.722661	0.173066
539.937866	0.173405
540.153052	0.172984
540.368221	0.173364
540.583371	0.173452
540.798503	0.173885
541.013617	0.174160
541.228712	0.174447
541.443789	0.174884
541.658848	0.175873
541.873889	0.176083
542.088912	0.177129
542.303916	0.177120
542.518902	0.177639
542.733870	0.177711
542.948820	0.177684
543.163752	0.177321
543.378665	0.177150
543.593560	0.176494
543.808437	0.177067
544.023295	0.176584
544.238136	0.177163
544.452958	0.176931
544.667762	0.176752
544.882548	0.177066
545.097315	0.177616
545.312064	0.178570
545.526795	0.179220
545.741508	0.179428
545.956203	0.179622
546.170879	0.179499
546.385537	0.180075
546.600177	0.180854
546.814799	0.181380
547.029402	0.181432
547.243988	0.181310
547.458555	0.181435
547.673103	0.181299
547.887634	0.181983
548.102146	0.182209
548.316640	0.181871
548.531116	0.181519
548.745574	0.181711
548.960013	0.181961
549.174435	0.182395
549.388838	0.182532
549.603222	0.182453
549.817589	0.182242
550.031937	0.182627
550.246267	0.183349
550.460579	0.183709
550.674873	0.183431
550.889148	0.183582
551.103405	0.183183
551.317644	0.183193
551.531865	0.183570
551.746068	0.183711
551.960252	0.183491
552.174418	0.183136
552.388566	0.183521
552.602696	0.183945
552.816807	0.183592
553.030900	0.183944
553.244975	0.183932
553.459032	0.183905
553.673070	0.183812
553.887091	0.184107
554.101093	0.184330
554.315077	0.183978
554.529042	0.183997
554.742990	0.184955
554.956919	0.184895
555.170830	0.185104
555.384722	0.185383
555.598597	0.185898
555.812453	0.186147
556.026291	0.186490
556.240111	0.186922
556.453913	0.187130
556.667696	0.187312
556.881461	0.187815
557.095208	0.188109
557.308937	0.187935
557.522647	0.187981
557.736339	0.187766
557.950013	0.187679
558.163669	0.187889
558.377307	0.187752
558.590926	0.187984
558.804527	0.188014
559.018110	0.188233
559.231675	0.188735
559.445221	0.188910
559.658749	0.189464
559.872259	0.189488
560.085751	0.189685
560.299225	0.189760
560.512680	0.189655
560.726117	0.189825
560.939536	0.189781
561.152937	0.189844
561.366319	0.189698
561.579683	0.189588
561.793029	0.189805
562.006357	0.189596
562.219667	0.189780
562.432958	0.189488
562.646231	0.189407
562.859486	0.189742
563.072723	0.189874
563.285941	0.189973
563.499141	0.190094
563.712323	0.190592
563.925487	0.191226
564.138632	0.191697
564.351760	0.192130
564.564869	0.191771
564.777960	0.192010
564.991032	0.192134
565.204087	0.192454
565.417123	0.192787
565.630141	0.192763
565.843140	0.192340
566.056122	0.192523
566.269085	0.192435
566.482030	0.193063
566.694957	0.192937
566.907866	0.192976
567.120756	0.193057
567.333628	0.192999
567.546482	0.192909
567.759318	0.193465
567.972135	0.193071
568.184935	0.193227
568.397716	0.193087
568.610478	0.193156
568.823223	0.193333
569.035949	0.193678
569.248657	0.193551
569.461347	0.193633
569.674019	0.193542
569.886672	0.194195
570.099308	0.194362
570.311925	0.194927
570.524523	0.195088
570.737104	0.195295
570.949666	0.195311
571.162210	0.195721
571.374736	0.196245
571.587244	0.196479
571.799733	0.196271
572.012205	0.196819
572.224658	0.196617
572.437092	0.196549
572.649509	0.196407
572.861907	0.196703
573.074287	0.196902
573.286649	0.196566
573.498993	0.196618
573.711318	0.197050
573.923625	0.196673
574.135914	0.197165
574.348185	0.197312
574.560438	0.197745
574.772672	0.197645
574.984888	0.197183
575.197086	0.197227
575.409266	0.196738
575.621427	0.196671
575.833570	0.196704
576.045695	0.196753
576.257802	0.197114
576.469890	0.197076
576.681961	0.197301
576.894013	0.197755
577.106046	0.198073
577.318062	0.198994
577.530059	0.198895
577.742039	0.199482
577.954000	0.199450
578.165942	0.199827
578.377867	0.200088
578.589773	0.200036
578.801661	0.200410
579.013531	0.200651
579.225382	0.200505
579.437216	0.200372
579.649031	0.200709
579.860828	0.200989
580.072606	0.200587
580.284367	0.200857
580.496109	0.200890
580.707833	0.201136
580.919539	0.201005
581.131227	0.201168
581.342896	0.201404
581.554547	0.201392
581.766180	0.201284
581.977795	0.202027
582.189391	0.201809
582.400969	0.202091
582.612529	0.201855
582.824071	0.202257
583.035595	0.202537
583.247100	0.203048
583.458587	0.203240
583.670056	0.203562
583.881506	0.202933
584.092939	0.203325
584.304353	0.203850
584.515749	0.204254
584.727127	0.204499
584.938486	0.204996
585.149828	0.205216
585.361151	0.205115
585.572456	0.205449
585.783742	0.205955
585.995011	0.205839
586.206261	0.205592
586.417493	0.205342
586.628706	0.205134
586.839902	0.204709
587.051079	0.204799
587.262238	0.204536
587.473379	0.204784
587.684502	0.205040
587.895606	0.205460
588.106692	0.205576
588.317760	0.205748
588.528810	0.206317
588.739841	0.206778
588.950855	0.206576
589.161850	0.207204
589.372827	0.206725
589.583785	0.206789
589.794726	0.206655
590.005648	0.206778
590.216552	0.207062
590.427437	0.206767
590.638305	0.206917
590.849154	0.207287
591.059985	0.207369
591.270798	0.207618
591.481592	0.207574
591.692369	0.207899
591.903127	0.207975
592.113867	0.208106
592.324588	0.208519
592.535292	0.208206
592.745977	0.208525
592.956644	0.208561
593.167293	0.208469
593.377923	0.208733
593.588536	0.208881
593.799130	0.208981
594.009706	0.209155
594.220263	0.209545
594.430803	0.209793
594.641324	0.209581
594.851827	0.209640
595.062312	0.209974
595.272778	0.210002
595.483227	0.209972
595.693657	0.210321
595.904069	0.210342
596.114462	0.209989
596.324838	0.210185
596.535195	0.210477
596.745534	0.210593
596.955855	0.210243
597.166157	0.210500
597.376441	0.210951
597.586707	0.210901
597.796955	0.211300
598.007185	0.211622
598.217396	0.211673
598.427589	0.211805
598.637764	0.211661
598.847921	0.211977
599.058060	0.211891
599.268180	0.211737
599.478282	0.211916
599.688366	0.211955
599.898431	0.212004
600.108479	0.211986
600.318508	0.212109
600.528519	0.212386
600.738511	0.212602
600.948486	0.212703
601.158442	0.212865
601.368380	0.212798
601.578300	0.212617
601.788202	0.212610
601.998085	0.212770
602.207950	0.212277
602.417797	0.212563
602.627626	0.212884
602.837436	0.213188
603.047228	0.213409
603.257002	0.213291
603.466758	0.213457
603.676496	0.213771
603.886215	0.213471
604.095916	0.213914
604.305599	0.214028
604.515264	0.214120
604.724910	0.213946
604.934538	0.213907
605.144148	0.214516
605.353740	0.215001
605.563314	0.215188
605.772869	0.215795
605.982406	0.216120
606.191925	0.216440
606.401425	0.216640
606.610908	0.216790
606.820372	0.217092
607.029818	0.216977
607.239246	0.216810
607.448655	0.216831
607.658047	0.216847
607.867420	0.216771
608.076775	0.216680
608.286111	0.216772
608.495430	0.217033
608.704730	0.216905
608.914012	0.217275
609.123275	0.217580
609.332521	0.217898
609.541748	0.218047
609.750957	0.218144
609.960148	0.218280
610.169321	0.218175
610.378475	0.218234
610.587611	0.218443
610.796729	0.218283
611.005829	0.218096
611.214910	0.217976
611.423974	0.217872
611.633019	0.218169
611.842045	0.218230
612.051054	0.218007
612.260044	0.218304
612.469017	0.218433
612.677970	0.218476
612.886906	0.218822
613.095824	0.218724
613.304723	0.218919
613.513604	0.218592
613.722467	0.218593
613.931311	0.219097
614.140138	0.219085
614.348946	0.219009
614.557736	0.219177
614.766507	0.218879
614.975261	0.219070
615.183996	0.218981
615.392713	0.219172
615.601412	0.219478
615.810092	0.219429
616.018754	0.219551
616.227399	0.219729
616.436024	0.219550
616.644632	0.220092
616.853222	0.219990
617.061793	0.220242
617.270346	0.220622
617.478880	0.220427
617.687397	0.220761
617.895895	0.220899
618.104375	0.220854
618.312837	0.221407
618.521281	0.221215
618.729706	0.221671
618.938113	0.221878
619.146502	0.222029
619.354873	0.222273
619.563226	0.222363
619.771560	0.222236
619.979876	0.222267
620.188174	0.222447
620.396453	0.222749
620.604715	0.222716
620.812958	0.223063
621.021183	0.223100
621.229390	0.223253
621.437578	0.223167
621.645748	0.223456
621.853900	0.223548
622.062034	0.223343
622.270150	0.223455
622.478247	0.223675
622.686326	0.223374
622.894387	0.223560
623.102430	0.223791
623.310454	0.223884
623.518461	0.224191
623.726449	0.224570
623.934418	0.224816
624.142370	0.225033
624.350303	0.224999
624.558218	0.225516
624.766115	0.225604
624.973994	0.225580
625.181855	0.225836
625.389697	0.225688
625.597521	0.225683
625.805327	0.225903
626.013114	0.225870
626.220883	0.226160
626.428634	0.225896
626.636367	0.225921
626.844082	0.225953
627.051778	0.225945
627.259457	0.226168
627.467117	0.226308
627.674758	0.226187
627.882382	0.226297
628.089987	0.226095
628.297574	0.226065
628.505143	0.226035
628.712694	0.225941
628.920226	0.226225
629.127740	0.226123
629.335236	0.226151
629.542714	0.226574
629.750174	0.226407
629.957615	0.226575
630.165038	0.226843
630.372443	0.226858
630.579829	0.227013
630.787198	0.227015
630.994548	0.227179
631.201880	0.227187
631.409194	0.226869
631.616489	0.226953
631.823766	0.226976
632.031025	0.227344
632.238266	0.227459
632.445489	0.227541
632.652693	0.227561
632.859879	0.227639
633.067047	0.227979
633.274197	0.228327
633.481329	0.228652
633.688442	0.228909
633.895537	0.228593
634.102614	0.228765
634.309672	0.228836
634.516713	0.228920
634.723735	0.229120
634.930739	0.229054
635.137724	0.229091
635.344692	0.229160
635.551641	0.229171
635.758572	0.229691
635.965485	0.230122
636.172379	0.230457
636.379256	0.230949
636.586114	0.231161
636.792954	0.231447
636.999775	0.231658
637.206579	0.231875
637.413364	0.232396
637.620131	0.232630
637.826880	0.232422
638.033610	0.232518
638.240323	0.232183
638.447017	0.232265
638.653692	0.232528
638.860350	0.232814
639.066990	0.232930
639.273611	0.232791
639.480214	0.233072
639.686798	0.233424
639.893365	0.233683
640.099913	0.234106
640.306443	0.234217
640.512955	0.234103
640.719449	0.233988
640.925924	0.234170
641.132381	0.234374
641.338820	0.234038
641.545241	0.234279
641.751644	0.234207
641.958028	0.234095
642.164394	0.234345
642.370742	0.234476
642.577071	0.234685
642.783383	0.234713
642.989676	0.234831
643.195951	0.234894
643.402207	0.234983
643.608446	0.235289
643.814666	0.235451
644.020868	0.235469
644.227052	0.235670
644.433218	0.235881
644.639365	0.236072
644.845494	0.236000
645.051605	0.236383
645.257698	0.236357
645.463772	0.236482
645.669828	0.236697
645.875866	0.236964
646.081886	0.237024
646.287888	0.236915
646.493871	0.237053
646.699836	0.237241
646.905783	0.237000
647.111712	0.236993
647.317622	0.237033
647.523514	0.236986
647.729388	0.236683
647.935244	0.236733
648.141082	0.236892
648.346901	0.236863
648.552702	0.237019
648.758485	0.237297
648.964250	0.237577
649.169996	0.237575
649.375724	0.237669
649.581434	0.237715
649.787126	0.237962
649.992800	0.238120
650.198455	0.238260
650.404092	0.237951
650.609711	0.238186
650.815311	0.238220
651.020894	0.238185
651.226458	0.238517
651.432004	0.238753
651.637532	0.238762
651.843041	0.238846
652.048532	0.238719
652.254006	0.239115
652.459460	0.239157
652.664897	0.239150
652.870315	0.239230
653.075716	0.239300
653.281097	0.239480
653.486461	0.239643
653.691807	0.239551
653.897134	0.239913
654.102443	0.240218
654.307734	0.240471
654.513006	0.240829
654.718261	0.241301
654.923497	0.241470
655.128715	0.241542
655.333915	0.241686
655.539096	0.242074
655.744259	0.242268
655.949404	0.242301
656.154531	0.242143
656.359640	0.242049
656.564730	0.242189
656.769802	0.242339
656.974856	0.242358
657.179892	0.242635
657.384909	0.242536
657.589908	0.242669
657.794889	0.242736
657.999852	0.243007
658.204797	0.243240
658.409723	0.243314
658.614631	0.243289
658.819521	0.243522
659.024393	0.243659
659.229246	0.244070
659.434081	0.244443
659.638898	0.244807
659.843697	0.244916
660.048478	0.245155
660.253240	0.245501
660.457984	0.245793
660.662710	0.245996
660.867417	0.245949
661.072107	0.246110
661.276778	0.245967
661.481431	0.246051
661.686066	0.245957
661.890682	0.245889
662.095281	0.245874
662.299861	0.245877
662.504422	0.246146
662.708966	0.246066
662.913491	0.246394
663.117999	0.246386
663.322488	0.246505
663.526958	0.247045
663.731411	0.247361
663.935845	0.247424
664.140261	0.247593
664.344659	0.247357
664.549038	0.247640
664.753400	0.247469
664.957743	0.247470
665.162068	0.247682
665.366375	0.247571
665.570663	0.247606
665.774933	0.247598
665.979185	0.247489
666.183419	0.247795
666.387635	0.247928
666.591832	0.248047
666.796011	0.248144
667.000172	0.248093
667.204315	0.248264
667.408439	0.248594
667.612545	0.248782
667.816634	0.249235
668.020703	0.249398
668.224755	0.249667
668.428788	0.249701
668.632803	0.250087
668.836800	0.250328
669.040779	0.250642
669.244739	0.250775
669.448681	0.250867
669.652605	0.250910
669.856511	0.251391
670.060399	0.251775
670.264268	0.252161
670.468119	0.252393
670.671952	0.252517
670.875767	0.252677
671.079563	0.252839
671.283341	0.253336
671.487101	0.253396
671.690843	0.253429
671.894567	0.253327
672.098272	0.253250
672.301959	0.253356
672.505628	0.253614
672.709278	0.253809
672.912911	0.253894
673.116525	0.253828
673.320121	0.254098
673.523699	0.254133
673.727258	0.254309
673.930799	0.254721
674.134322	0.254931
674.337827	0.254819
674.541314	0.254735
674.744782	0.254723
674.948232	0.254928
675.151664	0.255260
675.355078	0.255249
675.558474	0.255466
675.761851	0.255508
675.965210	0.255628
676.168551	0.255961
676.371873	0.256089
676.575178	0.256458
676.778464	0.256525
676.981732	0.256662
677.184981	0.256781
677.388213	0.256720
677.591426	0.256900
677.794621	0.257227
677.997798	0.257564
678.200956	0.257944
678.404097	0.257944
678.607219	0.258242
678.810323	0.258102
679.013408	0.258477
679.216476	0.259072
679.419525	0.258879
679.622556	0.258862
679.825569	0.258633
680.028563	0.258644
680.231540	0.258749
680.434498	0.258893
680.637438	0.259224
680.840359	0.259277
681.043263	0.259074
681.246148	0.259425
681.449015	0.259404
681.651864	0.259411
681.854694	0.259640
682.057506	0.259712
682.260301	0.259790
682.463076	0.259879
682.665834	0.259894
682.868573	0.260020
683.071295	0.260203
683.273998	0.260410
683.476682	0.260940
683.679349	0.260785
683.881997	0.260862
684.084627	0.260835
684.287239	0.260862
684.489833	0.261124
684.692408	0.260948
684.894965	0.261030
685.097504	0.261073
685.300025	0.261196
685.502527	0.261485
685.705012	0.261876
685.907478	0.262226
686.109925	0.262556
686.312355	0.262628
686.514766	0.263170
686.717159	0.263425
686.919534	0.263644
687.121891	0.263652
687.324230	0.263865
687.526550	0.263838
687.728852	0.263852
687.931136	0.263771
688.133401	0.263883
688.335649	0.263895
688.537878	0.263685
688.740089	0.263738
688.942281	0.263631
689.144456	0.263601
689.346612	0.263499
689.548750	0.263225
689.750870	0.263373
689.952971	0.263380
690.155055	0.263149
690.357120	0.263149
690.559167	0.263365
690.761195	0.263596
690.963206	0.263806
691.165198	0.264019
691.367172	0.264300
691.569128	0.264299
691.771065	0.264705
691.972984	0.265012
692.174885	0.265533
692.376768	0.265706
692.578633	0.265781
692.780479	0.265744
692.982308	0.266126
693.184118	0.266465
693.385909	0.266670
