sample name	sample
index	1455
start time	 05-10-2021  01:40:32 PM


Wavelength (nm)	Absorbance
494.344910	-0.012072
494.563924	-0.012072
494.782919	-0.012072
495.001897	0.013595
495.220856	-0.008128
495.439797	-0.013021
495.658719	-0.011066
495.877624	-0.015250
496.096510	-0.011987
496.315378	-0.010381
496.534227	-0.002032
496.753059	-0.003248
496.971872	0.002015
497.190667	0.070589
497.409444	0.112099
497.628203	0.127055
497.846943	0.137263
498.065665	0.141153
498.284369	0.145645
498.503055	0.148659
498.721723	0.151781
498.940372	0.152994
499.159003	0.153907
499.377616	0.153745
499.596210	0.153260
499.814787	0.153103
500.033345	0.153676
500.251885	0.154177
500.470406	0.153829
500.688910	0.152974
500.907395	0.153564
501.125862	0.153397
501.344311	0.153837
501.562742	0.154361
501.781154	0.154087
501.999548	0.153226
502.217924	0.152727
502.436282	0.152932
502.654621	0.153273
502.872942	0.153381
503.091245	0.154647
503.309530	0.155513
503.527797	0.155185
503.746045	0.156229
503.964275	0.157620
504.182487	0.157562
504.400681	0.157621
504.618856	0.158043
504.837013	0.157950
505.055152	0.157037
505.273273	0.156228
505.491376	0.156289
505.709460	0.155671
505.927526	0.154865
506.145574	0.154963
506.363604	0.154156
506.581615	0.154501
506.799608	0.155008
507.017583	0.154340
507.235540	0.154550
507.453478	0.154372
507.671399	0.154556
507.889301	0.154641
508.107185	0.154727
508.325050	0.155379
508.542898	0.155146
508.760727	0.154600
508.978538	0.156325
509.196330	0.157239
509.414105	0.158919
509.631861	0.159061
509.849599	0.158768
510.067319	0.159105
510.285021	0.159784
510.502704	0.160115
510.720369	0.159937
510.938016	0.159122
511.155645	0.159142
511.373255	0.158621
511.590848	0.158707
511.808422	0.159488
512.025977	0.159543
512.243515	0.158716
512.461034	0.158796
512.678536	0.159330
512.896018	0.160889
513.113483	0.160510
513.330930	0.161583
513.548358	0.162708
513.765768	0.163050
513.983160	0.162870
514.200533	0.163112
514.417889	0.163439
514.635226	0.164242
514.852545	0.163538
515.069845	0.164228
515.287128	0.163420
515.504392	0.163212
515.721638	0.163207
515.938866	0.163368
516.156075	0.163485
516.373267	0.163901
516.590440	0.163256
516.807594	0.162998
517.024731	0.162778
517.241850	0.163112
517.458950	0.162104
517.676032	0.162974
517.893095	0.163023
518.110141	0.163863
518.327168	0.163043
518.544177	0.163197
518.761168	0.163997
518.978141	0.163260
519.195095	0.163097
519.412031	0.164562
519.628949	0.164565
519.845849	0.165814
520.062731	0.165869
520.279594	0.166246
520.496439	0.167163
520.713266	0.166600
520.930074	0.167677
521.146865	0.167687
521.363637	0.167073
521.580391	0.167064
521.797127	0.166324
522.013844	0.167075
522.230543	0.167355
522.447224	0.167344
522.663887	0.167827
522.880532	0.168103
523.097158	0.168734
523.313766	0.169674
523.530356	0.169504
523.746928	0.169817
523.963481	0.169886
524.180017	0.170576
524.396534	0.170758
524.613032	0.170685
524.829513	0.171049
525.045975	0.171572
525.262420	0.171561
525.478845	0.172085
525.695253	0.172921
525.911643	0.172765
526.128014	0.173553
526.344367	0.173888
526.560702	0.174778
526.777018	0.174119
526.993316	0.173960
527.209597	0.174660
527.425858	0.175300
527.642102	0.174552
527.858328	0.174856
528.074535	0.174307
528.290724	0.174043
528.506894	0.173701
528.723047	0.174996
528.939181	0.175269
529.155297	0.174850
529.371395	0.174874
529.587475	0.175066
529.803536	0.174789
530.019579	0.175297
530.235604	0.175535
530.451611	0.175926
530.667600	0.175095
530.883570	0.174967
531.099522	0.174889
531.315456	0.174998
531.531372	0.175450
531.747269	0.176119
531.963148	0.175648
532.179009	0.176375
532.394852	0.176789
532.610676	0.177674
532.826482	0.178085
533.042271	0.178756
533.258040	0.178662
533.473792	0.178751
533.689525	0.179101
533.905240	0.179295
534.120937	0.179047
534.336616	0.179557
534.552277	0.179574
534.767919	0.179722
534.983543	0.179592
535.199149	0.180201
535.414736	0.180910
535.630306	0.180384
535.845857	0.181256
536.061390	0.181536
536.276904	0.182138
536.492401	0.182065
536.707879	0.182486
536.923339	0.182936
537.138781	0.183244
537.354204	0.183018
537.569610	0.183509
537.784997	0.184122
538.000366	0.184323
538.215716	0.183599
538.431049	0.184185
538.646363	0.184369
538.861659	0.183988
539.076937	0.183792
539.292196	0.183878
539.507438	0.184082
539.722661	0.183574
539.937866	0.184036
540.153052	0.184153
540.368221	0.184341
540.583371	0.184351
540.798503	0.184897
541.013617	0.185073
541.228712	0.185552
541.443789	0.185772
541.658848	0.185878
541.873889	0.185994
542.088912	0.185962
542.303916	0.186186
542.518902	0.186444
542.733870	0.186627
542.948820	0.186905
543.163752	0.187068
543.378665	0.187656
543.593560	0.188170
543.808437	0.187686
544.023295	0.187812
544.238136	0.187720
544.452958	0.188070
544.667762	0.188574
544.882548	0.188776
545.097315	0.189250
545.312064	0.189001
545.526795	0.189036
545.741508	0.189422
545.956203	0.190259
546.170879	0.189880
546.385537	0.190492
546.600177	0.190338
546.814799	0.190300
547.029402	0.190556
547.243988	0.190462
547.458555	0.190530
547.673103	0.191503
547.887634	0.191188
548.102146	0.192392
548.316640	0.192355
548.531116	0.192460
548.745574	0.192736
548.960013	0.192899
549.174435	0.193589
549.388838	0.193808
549.603222	0.193460
549.817589	0.194023
550.031937	0.193946
550.246267	0.194190
550.460579	0.194314
550.674873	0.194583
550.889148	0.194360
551.103405	0.194348
551.317644	0.194576
551.531865	0.194542
551.746068	0.194457
551.960252	0.194341
552.174418	0.193919
552.388566	0.194411
552.602696	0.194390
552.816807	0.194929
553.030900	0.194559
553.244975	0.194587
553.459032	0.195243
553.673070	0.195621
553.887091	0.195768
554.101093	0.196111
554.315077	0.196363
554.529042	0.196620
554.742990	0.196292
554.956919	0.197029
555.170830	0.196669
555.384722	0.196375
555.598597	0.196625
555.812453	0.196622
556.026291	0.196440
556.240111	0.196691
556.453913	0.196251
556.667696	0.196575
556.881461	0.196210
557.095208	0.196835
557.308937	0.197265
557.522647	0.196900
557.736339	0.197320
557.950013	0.197746
558.163669	0.197812
558.377307	0.198533
558.590926	0.198478
558.804527	0.198832
559.018110	0.198877
559.231675	0.198888
559.445221	0.199234
559.658749	0.199115
559.872259	0.199047
560.085751	0.198762
560.299225	0.198573
560.512680	0.198767
560.726117	0.199049
560.939536	0.199060
561.152937	0.198920
561.366319	0.199127
561.579683	0.199399
561.793029	0.199694
562.006357	0.199921
562.219667	0.200183
562.432958	0.200174
562.646231	0.200327
562.859486	0.200548
563.072723	0.200500
563.285941	0.200189
563.499141	0.200547
563.712323	0.200807
563.925487	0.200823
564.138632	0.200772
564.351760	0.200840
564.564869	0.200759
564.777960	0.201100
564.991032	0.201564
565.204087	0.201826
565.417123	0.201846
565.630141	0.201551
565.843140	0.201521
566.056122	0.201780
566.269085	0.201816
566.482030	0.201540
566.694957	0.201257
566.907866	0.201242
567.120756	0.201268
567.333628	0.200938
567.546482	0.201323
567.759318	0.201485
567.972135	0.201290
568.184935	0.201776
568.397716	0.202017
568.610478	0.202261
568.823223	0.202313
569.035949	0.202567
569.248657	0.202635
569.461347	0.202717
569.674019	0.203100
569.886672	0.203312
570.099308	0.202779
570.311925	0.203075
570.524523	0.203123
570.737104	0.202986
570.949666	0.202719
571.162210	0.202893
571.374736	0.202978
571.587244	0.202828
571.799733	0.202965
572.012205	0.203537
572.224658	0.203654
572.437092	0.203592
572.649509	0.203521
572.861907	0.204170
573.074287	0.204414
573.286649	0.204392
573.498993	0.204761
573.711318	0.205119
573.923625	0.205317
574.135914	0.205417
574.348185	0.205812
574.560438	0.206282
574.772672	0.206568
574.984888	0.206487
575.197086	0.206810
575.409266	0.206852
575.621427	0.206808
575.833570	0.206891
576.045695	0.206778
576.257802	0.206741
576.469890	0.207031
576.681961	0.206714
576.894013	0.207150
577.106046	0.207072
577.318062	0.207060
577.530059	0.207035
577.742039	0.206895
577.954000	0.207051
578.165942	0.207031
578.377867	0.206984
578.589773	0.207076
578.801661	0.207312
579.013531	0.207452
579.225382	0.207348
579.437216	0.207761
579.649031	0.207891
579.860828	0.208035
580.072606	0.208067
580.284367	0.207989
580.496109	0.208216
580.707833	0.208348
580.919539	0.208356
581.131227	0.208823
581.342896	0.208753
581.554547	0.208980
581.766180	0.209313
581.977795	0.209922
582.189391	0.210385
582.400969	0.210482
582.612529	0.210376
582.824071	0.210303
583.035595	0.210766
583.247100	0.211153
583.458587	0.211079
583.670056	0.211412
583.881506	0.211165
584.092939	0.211310
584.304353	0.211653
584.515749	0.212169
584.727127	0.212767
584.938486	0.212412
585.149828	0.212392
585.361151	0.213189
585.572456	0.213430
585.783742	0.213640
585.995011	0.213959
586.206261	0.213958
586.417493	0.213952
586.628706	0.214075
586.839902	0.214281
587.051079	0.214409
587.262238	0.214366
587.473379	0.214141
587.684502	0.214282
587.895606	0.214061
588.106692	0.214124
588.317760	0.214143
588.528810	0.214223
588.739841	0.214411
588.950855	0.214662
589.161850	0.214071
589.372827	0.214150
589.583785	0.214142
589.794726	0.214504
590.005648	0.214781
590.216552	0.214772
590.427437	0.214849
590.638305	0.214885
590.849154	0.214869
591.059985	0.215919
591.270798	0.216413
591.481592	0.216798
591.692369	0.216829
591.903127	0.217009
592.113867	0.217287
592.324588	0.217489
592.535292	0.217644
592.745977	0.218055
592.956644	0.217776
593.167293	0.217868
593.377923	0.217987
593.588536	0.218153
593.799130	0.218171
594.009706	0.218106
594.220263	0.218123
594.430803	0.218167
594.641324	0.218288
594.851827	0.218480
595.062312	0.218224
595.272778	0.218252
595.483227	0.217993
595.693657	0.217903
595.904069	0.217975
596.114462	0.218195
596.324838	0.218291
596.535195	0.218141
596.745534	0.218229
596.955855	0.218273
597.166157	0.218341
597.376441	0.218725
597.586707	0.218990
597.796955	0.219310
598.007185	0.219271
598.217396	0.219305
598.427589	0.219362
598.637764	0.219392
598.847921	0.219614
599.058060	0.219731
599.268180	0.219838
599.478282	0.220117
599.688366	0.220166
599.898431	0.220522
600.108479	0.220814
600.318508	0.221070
600.528519	0.220975
600.738511	0.221360
600.948486	0.221128
601.158442	0.221424
601.368380	0.221797
601.578300	0.222156
601.788202	0.222186
601.998085	0.222222
602.207950	0.222553
602.417797	0.222890
602.627626	0.222773
602.837436	0.223113
603.047228	0.223011
603.257002	0.222495
603.466758	0.222082
603.676496	0.221953
603.886215	0.221881
604.095916	0.221481
604.305599	0.221623
604.515264	0.221766
604.724910	0.221813
604.934538	0.221827
605.144148	0.221980
605.353740	0.222454
605.563314	0.222722
605.772869	0.222925
605.982406	0.223058
606.191925	0.222864
606.401425	0.222876
606.610908	0.223159
606.820372	0.223375
607.029818	0.223493
607.239246	0.223640
607.448655	0.223822
607.658047	0.223930
607.867420	0.224190
608.076775	0.224726
608.286111	0.225044
608.495430	0.225167
608.704730	0.225340
608.914012	0.225585
609.123275	0.225732
609.332521	0.225855
609.541748	0.226178
609.750957	0.226347
609.960148	0.226295
610.169321	0.226383
610.378475	0.226619
610.587611	0.226683
610.796729	0.226839
611.005829	0.226858
611.214910	0.227042
611.423974	0.226825
611.633019	0.226959
611.842045	0.226916
612.051054	0.227241
612.260044	0.227365
612.469017	0.227529
612.677970	0.227542
612.886906	0.227599
613.095824	0.227621
613.304723	0.227899
613.513604	0.227883
613.722467	0.228187
613.931311	0.227738
614.140138	0.228204
614.348946	0.228386
614.557736	0.228705
614.766507	0.228525
614.975261	0.228538
615.183996	0.228776
615.392713	0.228834
615.601412	0.228994
615.810092	0.229497
616.018754	0.228950
616.227399	0.228956
616.436024	0.228648
616.644632	0.229538
616.853222	0.229699
617.061793	0.229928
617.270346	0.230111
617.478880	0.230092
617.687397	0.230155
617.895895	0.230272
618.104375	0.230322
618.312837	0.230974
618.521281	0.230683
618.729706	0.230692
618.938113	0.230722
619.146502	0.231160
619.354873	0.231345
619.563226	0.231341
619.771560	0.231515
619.979876	0.231731
620.188174	0.231689
620.396453	0.231603
620.604715	0.231745
620.812958	0.231746
621.021183	0.231448
621.229390	0.231213
621.437578	0.231410
621.645748	0.231830
621.853900	0.231897
622.062034	0.232021
622.270150	0.232230
622.478247	0.232237
622.686326	0.232563
622.894387	0.232758
623.102430	0.233018
623.310454	0.233281
623.518461	0.233096
623.726449	0.233152
623.934418	0.233142
624.142370	0.233098
624.350303	0.233236
624.558218	0.232767
624.766115	0.232876
624.973994	0.233199
625.181855	0.233227
625.389697	0.233434
625.597521	0.233570
625.805327	0.233436
626.013114	0.233694
626.220883	0.233714
626.428634	0.234126
626.636367	0.234146
626.844082	0.233877
627.051778	0.233724
627.259457	0.233725
627.467117	0.233594
627.674758	0.233837
627.882382	0.233881
628.089987	0.234116
628.297574	0.234168
628.505143	0.234233
628.712694	0.234647
628.920226	0.234993
629.127740	0.235192
629.335236	0.235526
629.542714	0.235660
629.750174	0.235533
629.957615	0.235499
630.165038	0.235788
630.372443	0.236035
630.579829	0.235941
630.787198	0.235674
630.994548	0.235377
631.201880	0.235515
631.409194	0.235637
631.616489	0.235681
631.823766	0.235664
632.031025	0.235340
632.238266	0.235318
632.445489	0.235629
632.652693	0.235989
632.859879	0.236617
633.067047	0.236413
633.274197	0.236284
633.481329	0.236628
633.688442	0.237238
633.895537	0.237765
634.102614	0.237832
634.309672	0.237798
634.516713	0.237944
634.723735	0.237776
634.930739	0.238153
635.137724	0.238410
635.344692	0.238766
635.551641	0.238581
635.758572	0.238409
635.965485	0.238567
636.172379	0.238591
636.379256	0.238782
636.586114	0.239116
636.792954	0.238999
636.999775	0.239334
637.206579	0.239209
637.413364	0.239358
637.620131	0.239547
637.826880	0.239646
638.033610	0.239816
638.240323	0.239760
638.447017	0.239842
638.653692	0.240274
638.860350	0.240099
639.066990	0.240287
639.273611	0.240518
639.480214	0.240835
639.686798	0.241100
639.893365	0.241440
640.099913	0.241476
640.306443	0.241595
640.512955	0.241740
640.719449	0.242050
640.925924	0.242081
641.132381	0.242013
641.338820	0.242076
641.545241	0.241935
641.751644	0.241854
641.958028	0.242108
642.164394	0.242273
642.370742	0.242102
642.577071	0.242028
642.783383	0.242299
642.989676	0.242555
643.195951	0.242567
643.402207	0.242916
643.608446	0.243014
643.814666	0.243286
644.020868	0.243508
644.227052	0.243405
644.433218	0.243891
644.639365	0.243907
644.845494	0.243947
645.051605	0.244201
645.257698	0.244361
645.463772	0.244512
645.669828	0.244294
645.875866	0.244265
646.081886	0.244802
646.287888	0.244557
646.493871	0.244649
646.699836	0.244745
646.905783	0.244600
647.111712	0.244563
647.317622	0.244864
647.523514	0.244989
647.729388	0.244911
647.935244	0.244616
648.141082	0.244592
648.346901	0.244717
648.552702	0.244835
648.758485	0.245042
648.964250	0.245256
649.169996	0.245129
649.375724	0.245257
649.581434	0.245381
649.787126	0.245947
649.992800	0.246116
650.198455	0.246202
650.404092	0.246255
650.609711	0.246260
650.815311	0.246184
651.020894	0.246357
651.226458	0.246238
651.432004	0.246402
651.637532	0.246205
651.843041	0.246489
652.048532	0.246611
652.254006	0.246710
652.459460	0.246704
652.664897	0.246821
652.870315	0.246987
653.075716	0.247500
653.281097	0.248003
653.486461	0.248251
653.691807	0.248271
653.897134	0.248288
654.102443	0.248541
654.307734	0.248901
654.513006	0.249337
654.718261	0.249570
654.923497	0.249686
655.128715	0.249788
655.333915	0.250054
655.539096	0.250370
655.744259	0.250970
655.949404	0.251268
656.154531	0.251565
656.359640	0.251514
656.564730	0.251537
656.769802	0.251663
656.974856	0.251554
657.179892	0.251677
657.384909	0.251772
657.589908	0.251377
657.794889	0.251352
657.999852	0.251515
658.204797	0.251739
658.409723	0.252001
658.614631	0.252191
658.819521	0.252150
659.024393	0.252325
659.229246	0.252238
659.434081	0.252552
659.638898	0.252647
659.843697	0.252532
660.048478	0.252553
660.253240	0.252617
660.457984	0.252444
660.662710	0.252720
660.867417	0.252846
661.072107	0.253168
661.276778	0.253414
661.481431	0.253387
661.686066	0.253731
661.890682	0.253911
662.095281	0.253804
662.299861	0.254049
662.504422	0.254145
662.708966	0.254002
662.913491	0.254423
663.117999	0.254311
663.322488	0.254710
663.526958	0.254854
663.731411	0.255115
663.935845	0.255197
664.140261	0.255468
664.344659	0.255810
664.549038	0.256004
664.753400	0.255793
664.957743	0.256168
665.162068	0.256092
665.366375	0.255941
665.570663	0.255647
665.774933	0.255777
665.979185	0.255850
666.183419	0.255883
666.387635	0.255904
666.591832	0.256034
666.796011	0.256078
667.000172	0.256163
667.204315	0.256365
667.408439	0.256738
667.612545	0.257058
667.816634	0.257019
668.020703	0.256786
668.224755	0.256887
668.428788	0.257077
668.632803	0.257096
668.836800	0.257303
669.040779	0.257427
669.244739	0.257557
669.448681	0.257780
669.652605	0.258129
669.856511	0.258373
670.060399	0.258595
670.264268	0.258611
670.468119	0.258841
670.671952	0.258996
670.875767	0.259255
671.079563	0.259530
671.283341	0.259589
671.487101	0.259814
671.690843	0.260128
671.894567	0.260382
672.098272	0.260491
672.301959	0.260631
672.505628	0.260780
672.709278	0.261055
672.912911	0.260961
673.116525	0.261171
673.320121	0.261048
673.523699	0.261098
673.727258	0.261385
673.930799	0.261792
674.134322	0.261883
674.337827	0.262026
674.541314	0.261978
674.744782	0.262362
674.948232	0.262299
675.151664	0.262430
675.355078	0.262782
675.558474	0.262669
675.761851	0.262687
675.965210	0.262835
676.168551	0.263191
676.371873	0.263294
676.575178	0.263302
676.778464	0.263374
676.981732	0.263374
677.184981	0.263262
677.388213	0.263558
677.591426	0.263620
677.794621	0.263640
677.997798	0.263437
678.200956	0.263522
678.404097	0.263490
678.607219	0.263805
678.810323	0.264221
679.013408	0.264643
679.216476	0.264837
679.419525	0.264911
679.622556	0.265271
679.825569	0.265444
680.028563	0.265545
680.231540	0.265773
680.434498	0.265791
680.637438	0.265794
680.840359	0.265625
681.043263	0.265581
681.246148	0.265739
681.449015	0.265465
681.651864	0.265503
681.854694	0.265667
682.057506	0.265707
682.260301	0.265967
682.463076	0.266289
682.665834	0.266399
682.868573	0.266502
683.071295	0.266738
683.273998	0.267376
683.476682	0.267724
683.679349	0.267881
683.881997	0.268363
684.084627	0.268312
684.287239	0.268433
684.489833	0.268484
684.692408	0.268651
684.894965	0.268521
685.097504	0.268127
685.300025	0.268382
685.502527	0.268477
685.705012	0.268252
685.907478	0.268341
686.109925	0.268298
686.312355	0.268513
686.514766	0.268604
686.717159	0.268718
686.919534	0.268873
687.121891	0.268680
687.324230	0.268644
687.526550	0.268617
687.728852	0.268813
687.931136	0.268723
688.133401	0.268777
688.335649	0.268887
688.537878	0.268963
688.740089	0.269059
688.942281	0.269035
689.144456	0.269271
689.346612	0.269606
689.548750	0.269697
689.750870	0.270033
689.952971	0.270000
690.155055	0.270279
690.357120	0.270287
690.559167	0.270445
690.761195	0.271039
690.963206	0.271177
691.165198	0.271191
691.367172	0.271338
691.569128	0.271189
691.771065	0.271412
691.972984	0.271240
692.174885	0.271824
692.376768	0.272126
692.578633	0.271929
692.780479	0.271810
692.982308	0.271930
693.184118	0.272126
693.385909	0.272158
