sample name	sample
index	1503
start time	 05-18-2021  02:36:43 PM


Wavelength (nm)	Absorbance
494.344910	0.033306
494.563924	0.033306
494.782919	0.033306
495.001897	0.012380
495.220856	-0.000701
495.439797	0.031697
495.658719	0.028098
495.877624	-0.002381
496.096510	0.004546
496.315378	-0.005505
496.534227	-0.004829
496.753059	0.003779
496.971872	0.019075
497.190667	0.062040
497.409444	0.065911
497.628203	0.073556
497.846943	0.077217
498.065665	0.076568
498.284369	0.077197
498.503055	0.077776
498.721723	0.076836
498.940372	0.077246
499.159003	0.077793
499.377616	0.078770
499.596210	0.078766
499.814787	0.079024
500.033345	0.078351
500.251885	0.078229
500.470406	0.078707
500.688910	0.078831
500.907395	0.077928
501.125862	0.078401
501.344311	0.077207
501.562742	0.075969
501.781154	0.075409
501.999548	0.077255
502.217924	0.077386
502.436282	0.076142
502.654621	0.076754
502.872942	0.077264
503.091245	0.077693
503.309530	0.078543
503.527797	0.079293
503.746045	0.079562
503.964275	0.078898
504.182487	0.078905
504.400681	0.080386
504.618856	0.080279
504.837013	0.080846
505.055152	0.080727
505.273273	0.080015
505.491376	0.079638
505.709460	0.080592
505.927526	0.080439
506.145574	0.081048
506.363604	0.080890
506.581615	0.080386
506.799608	0.079754
507.017583	0.079202
507.235540	0.079944
507.453478	0.080455
507.671399	0.078582
507.889301	0.078330
508.107185	0.077798
508.325050	0.077401
508.542898	0.078059
508.760727	0.078303
508.978538	0.078200
509.196330	0.078205
509.414105	0.078269
509.631861	0.079194
509.849599	0.079334
510.067319	0.079043
510.285021	0.079257
510.502704	0.078841
510.720369	0.078557
510.938016	0.078398
511.155645	0.078928
511.373255	0.078336
511.590848	0.079261
511.808422	0.079702
512.025977	0.079831
512.243515	0.080292
512.461034	0.080659
512.678536	0.081204
512.896018	0.081238
513.113483	0.081210
513.330930	0.080818
513.548358	0.079908
513.765768	0.079938
513.983160	0.080300
514.200533	0.079878
514.417889	0.079909
514.635226	0.080323
514.852545	0.080824
515.069845	0.080549
515.287128	0.081948
515.504392	0.082022
515.721638	0.081734
515.938866	0.082205
516.156075	0.081952
516.373267	0.082336
516.590440	0.081765
516.807594	0.081758
517.024731	0.082021
517.241850	0.081439
517.458950	0.081756
517.676032	0.081531
517.893095	0.081877
518.110141	0.082217
518.327168	0.082530
518.544177	0.083350
518.761168	0.083414
518.978141	0.083523
519.195095	0.084186
519.412031	0.084812
519.628949	0.085764
519.845849	0.085600
520.062731	0.085805
520.279594	0.085568
520.496439	0.085881
520.713266	0.086268
520.930074	0.086546
521.146865	0.086600
521.363637	0.085792
521.580391	0.085576
521.797127	0.085522
522.013844	0.085797
522.230543	0.086008
522.447224	0.086095
522.663887	0.086184
522.880532	0.085988
523.097158	0.085904
523.313766	0.086148
523.530356	0.086110
523.746928	0.086650
523.963481	0.086857
524.180017	0.087164
524.396534	0.087081
524.613032	0.087150
524.829513	0.088164
525.045975	0.088875
525.262420	0.089808
525.478845	0.090501
525.695253	0.090564
525.911643	0.090634
526.128014	0.090538
526.344367	0.090524
526.560702	0.091253
526.777018	0.090784
526.993316	0.090930
527.209597	0.090594
527.425858	0.090806
527.642102	0.090847
527.858328	0.091237
528.074535	0.091135
528.290724	0.091707
528.506894	0.091229
528.723047	0.091645
528.939181	0.091407
529.155297	0.091896
529.371395	0.091597
529.587475	0.091894
529.803536	0.091827
530.019579	0.092237
530.235604	0.092363
530.451611	0.092854
530.667600	0.093100
530.883570	0.093424
531.099522	0.093897
531.315456	0.094791
531.531372	0.095033
531.747269	0.095568
531.963148	0.095854
532.179009	0.095970
532.394852	0.096347
532.610676	0.096416
532.826482	0.096585
533.042271	0.097109
533.258040	0.097086
533.473792	0.097669
533.689525	0.097840
533.905240	0.098735
534.120937	0.098516
534.336616	0.099053
534.552277	0.099514
534.767919	0.099705
534.983543	0.099589
535.199149	0.100006
535.414736	0.099909
535.630306	0.100038
535.845857	0.100083
536.061390	0.100689
536.276904	0.100577
536.492401	0.100655
536.707879	0.101321
536.923339	0.101000
537.138781	0.100866
537.354204	0.101046
537.569610	0.101086
537.784997	0.101279
538.000366	0.101619
538.215716	0.101557
538.431049	0.101942
538.646363	0.102238
538.861659	0.102458
539.076937	0.102864
539.292196	0.103392
539.507438	0.103605
539.722661	0.103470
539.937866	0.104051
540.153052	0.104311
540.368221	0.103799
540.583371	0.103419
540.798503	0.103907
541.013617	0.103927
541.228712	0.103469
541.443789	0.103250
541.658848	0.103005
541.873889	0.102465
542.088912	0.102477
542.303916	0.103216
542.518902	0.103666
542.733870	0.103506
542.948820	0.103863
543.163752	0.104268
543.378665	0.105031
543.593560	0.105670
543.808437	0.106130
544.023295	0.106124
544.238136	0.106151
544.452958	0.105830
544.667762	0.106631
544.882548	0.106191
545.097315	0.106420
545.312064	0.106504
545.526795	0.106371
545.741508	0.106170
545.956203	0.106770
546.170879	0.106504
546.385537	0.106913
546.600177	0.106796
546.814799	0.107515
547.029402	0.107605
547.243988	0.107736
547.458555	0.108308
547.673103	0.108716
547.887634	0.108766
548.102146	0.109388
548.316640	0.109722
548.531116	0.109679
548.745574	0.109621
548.960013	0.110053
549.174435	0.110392
549.388838	0.110376
549.603222	0.110479
549.817589	0.110726
550.031937	0.110738
550.246267	0.111153
550.460579	0.111007
550.674873	0.111081
550.889148	0.111117
551.103405	0.111214
551.317644	0.111428
551.531865	0.111753
551.746068	0.111410
551.960252	0.111474
552.174418	0.111088
552.388566	0.111640
552.602696	0.111726
552.816807	0.111791
553.030900	0.111448
553.244975	0.111604
553.459032	0.111098
553.673070	0.111362
553.887091	0.111569
554.101093	0.111983
554.315077	0.112095
554.529042	0.112236
554.742990	0.111977
554.956919	0.112343
555.170830	0.112126
555.384722	0.112735
555.598597	0.113005
555.812453	0.113143
556.026291	0.112698
556.240111	0.112387
556.453913	0.112538
556.667696	0.112916
556.881461	0.113098
557.095208	0.113159
557.308937	0.113354
557.522647	0.113382
557.736339	0.113796
557.950013	0.114070
558.163669	0.114416
558.377307	0.114532
558.590926	0.114483
558.804527	0.114463
559.018110	0.114697
559.231675	0.114816
559.445221	0.115104
559.658749	0.114977
559.872259	0.115737
560.085751	0.115719
560.299225	0.116005
560.512680	0.116575
560.726117	0.116709
560.939536	0.116951
561.152937	0.117165
561.366319	0.117644
561.579683	0.117524
561.793029	0.117289
562.006357	0.117318
562.219667	0.117026
562.432958	0.116774
562.646231	0.116872
562.859486	0.116384
563.072723	0.116025
563.285941	0.115487
563.499141	0.115352
563.712323	0.115132
563.925487	0.114939
564.138632	0.115167
564.351760	0.114949
564.564869	0.115046
564.777960	0.115528
564.991032	0.115681
565.204087	0.115878
565.417123	0.116335
565.630141	0.116364
565.843140	0.116762
566.056122	0.116702
566.269085	0.117205
566.482030	0.117006
566.694957	0.116896
566.907866	0.117089
567.120756	0.116916
567.333628	0.116941
567.546482	0.116635
567.759318	0.117005
567.972135	0.117273
568.184935	0.117425
568.397716	0.117798
568.610478	0.118374
568.823223	0.118565
569.035949	0.118955
569.248657	0.119072
569.461347	0.119737
569.674019	0.119397
569.886672	0.119526
570.099308	0.119175
570.311925	0.118906
570.524523	0.118687
570.737104	0.118708
570.949666	0.118935
571.162210	0.118994
571.374736	0.118814
571.587244	0.118977
571.799733	0.118991
572.012205	0.118997
572.224658	0.119266
572.437092	0.119297
572.649509	0.119125
572.861907	0.118596
573.074287	0.118720
573.286649	0.119046
573.498993	0.119158
573.711318	0.119217
573.923625	0.119625
574.135914	0.120016
574.348185	0.120014
574.560438	0.120339
574.772672	0.120753
574.984888	0.120421
575.197086	0.120583
575.409266	0.120789
575.621427	0.120961
575.833570	0.121175
576.045695	0.121226
576.257802	0.121373
576.469890	0.121402
576.681961	0.121857
576.894013	0.122287
577.106046	0.122332
577.318062	0.122215
577.530059	0.122120
577.742039	0.122313
577.954000	0.122531
578.165942	0.122668
578.377867	0.122588
578.589773	0.122524
578.801661	0.122832
579.013531	0.122908
579.225382	0.123569
579.437216	0.124098
579.649031	0.124076
579.860828	0.124074
580.072606	0.124541
580.284367	0.124876
580.496109	0.124959
580.707833	0.124869
580.919539	0.125317
581.131227	0.125547
581.342896	0.125508
581.554547	0.125523
581.766180	0.125521
581.977795	0.125360
582.189391	0.125628
582.400969	0.125832
582.612529	0.126087
582.824071	0.125713
583.035595	0.125561
583.247100	0.125435
583.458587	0.125650
583.670056	0.125536
583.881506	0.125881
584.092939	0.125674
584.304353	0.126019
584.515749	0.125897
584.727127	0.126212
584.938486	0.126310
585.149828	0.126544
585.361151	0.127011
585.572456	0.127285
585.783742	0.127447
585.995011	0.127736
586.206261	0.127511
586.417493	0.127941
586.628706	0.127941
586.839902	0.127857
587.051079	0.127924
587.262238	0.127558
587.473379	0.127632
587.684502	0.127381
587.895606	0.127289
588.106692	0.127740
588.317760	0.127637
588.528810	0.127932
588.739841	0.128007
588.950855	0.128156
589.161850	0.128193
589.372827	0.128370
589.583785	0.128508
589.794726	0.128597
590.005648	0.128619
590.216552	0.128860
590.427437	0.128631
590.638305	0.129011
590.849154	0.129411
591.059985	0.129501
591.270798	0.129772
591.481592	0.130127
591.692369	0.130711
591.903127	0.130570
592.113867	0.130718
592.324588	0.131036
592.535292	0.131029
592.745977	0.131000
592.956644	0.131283
593.167293	0.131346
593.377923	0.131630
593.588536	0.131563
593.799130	0.131958
594.009706	0.132034
594.220263	0.132132
594.430803	0.132391
594.641324	0.132486
594.851827	0.132609
595.062312	0.132703
595.272778	0.132649
595.483227	0.132581
595.693657	0.132828
595.904069	0.133026
596.114462	0.133507
596.324838	0.133263
596.535195	0.133507
596.745534	0.133744
596.955855	0.133836
597.166157	0.134022
597.376441	0.134299
597.586707	0.134262
597.796955	0.134406
598.007185	0.134881
598.217396	0.135382
598.427589	0.135460
598.637764	0.136010
598.847921	0.136329
599.058060	0.136545
599.268180	0.136852
599.478282	0.136901
599.688366	0.137194
599.898431	0.136862
600.108479	0.136661
600.318508	0.136668
600.528519	0.136357
600.738511	0.136443
600.948486	0.136596
601.158442	0.136468
601.368380	0.136539
601.578300	0.136367
601.788202	0.136411
601.998085	0.136786
602.207950	0.137044
602.417797	0.137215
602.627626	0.137237
602.837436	0.137433
603.047228	0.137807
603.257002	0.138206
603.466758	0.138696
603.676496	0.138740
603.886215	0.139080
604.095916	0.139041
604.305599	0.139288
604.515264	0.139725
604.724910	0.139553
604.934538	0.139699
605.144148	0.139828
605.353740	0.139711
605.563314	0.139898
605.772869	0.139951
605.982406	0.140562
606.191925	0.140525
606.401425	0.140561
606.610908	0.140814
606.820372	0.140586
607.029818	0.140640
607.239246	0.140866
607.448655	0.141193
607.658047	0.141438
607.867420	0.141226
608.076775	0.141475
608.286111	0.141445
608.495430	0.141574
608.704730	0.142024
608.914012	0.142430
609.123275	0.142577
609.332521	0.142912
609.541748	0.142881
609.750957	0.142824
609.960148	0.142973
610.169321	0.142834
610.378475	0.142807
610.587611	0.142629
610.796729	0.142116
611.005829	0.142215
611.214910	0.141726
611.423974	0.141751
611.633019	0.141879
611.842045	0.141914
612.051054	0.142233
612.260044	0.142396
612.469017	0.143157
612.677970	0.143393
612.886906	0.142999
613.095824	0.143340
613.304723	0.143165
613.513604	0.143586
613.722467	0.143560
613.931311	0.143376
614.140138	0.143477
614.348946	0.143223
614.557736	0.143578
614.766507	0.144224
614.975261	0.144223
615.183996	0.144466
615.392713	0.144419
615.601412	0.144747
615.810092	0.145182
616.018754	0.145311
616.227399	0.145088
616.436024	0.144912
616.644632	0.144682
616.853222	0.144736
617.061793	0.144929
617.270346	0.144950
617.478880	0.144955
617.687397	0.145218
617.895895	0.145076
618.104375	0.145561
618.312837	0.145944
618.521281	0.146417
618.729706	0.146580
618.938113	0.146393
619.146502	0.146688
619.354873	0.146849
619.563226	0.146599
619.771560	0.146836
619.979876	0.146703
620.188174	0.146480
620.396453	0.146356
620.604715	0.146472
620.812958	0.147082
621.021183	0.147482
621.229390	0.147618
621.437578	0.148143
621.645748	0.148627
621.853900	0.149014
622.062034	0.149802
622.270150	0.150250
622.478247	0.150449
622.686326	0.150835
622.894387	0.150534
623.102430	0.150718
623.310454	0.150828
623.518461	0.150848
623.726449	0.150954
623.934418	0.150798
624.142370	0.150894
624.350303	0.151271
624.558218	0.151135
624.766115	0.151381
624.973994	0.151481
625.181855	0.151538
625.389697	0.151539
625.597521	0.151463
625.805327	0.151335
626.013114	0.151320
626.220883	0.151271
626.428634	0.151333
626.636367	0.151762
626.844082	0.151864
627.051778	0.152056
627.259457	0.152302
627.467117	0.152515
627.674758	0.152602
627.882382	0.152566
628.089987	0.152494
628.297574	0.152605
628.505143	0.152421
628.712694	0.152507
628.920226	0.152698
629.127740	0.152789
629.335236	0.152805
629.542714	0.152993
629.750174	0.153119
629.957615	0.153331
630.165038	0.153578
630.372443	0.153868
630.579829	0.153753
630.787198	0.153702
630.994548	0.153661
631.201880	0.154060
631.409194	0.154519
631.616489	0.154844
631.823766	0.155088
632.031025	0.155138
632.238266	0.155090
632.445489	0.155398
632.652693	0.155594
632.859879	0.155939
633.067047	0.155824
633.274197	0.155809
633.481329	0.155964
633.688442	0.156097
633.895537	0.156335
634.102614	0.156629
634.309672	0.156976
634.516713	0.156918
634.723735	0.156958
634.930739	0.156881
635.137724	0.156862
635.344692	0.157005
635.551641	0.157271
635.758572	0.157441
635.965485	0.157454
636.172379	0.157469
636.379256	0.157860
636.586114	0.158180
636.792954	0.158680
636.999775	0.159013
637.206579	0.159053
637.413364	0.159196
637.620131	0.159044
637.826880	0.159089
638.033610	0.159074
638.240323	0.158980
638.447017	0.158968
638.653692	0.158966
638.860350	0.158698
639.066990	0.158717
639.273611	0.158707
639.480214	0.158810
639.686798	0.158909
639.893365	0.159140
640.099913	0.159311
640.306443	0.159201
640.512955	0.159363
640.719449	0.159736
640.925924	0.160086
641.132381	0.160446
641.338820	0.160638
641.545241	0.160870
641.751644	0.161037
641.958028	0.161121
642.164394	0.161400
642.370742	0.161455
642.577071	0.161560
642.783383	0.161363
642.989676	0.161165
643.195951	0.161386
643.402207	0.161339
643.608446	0.161199
643.814666	0.161491
644.020868	0.161620
644.227052	0.161944
644.433218	0.162163
644.639365	0.162687
644.845494	0.162955
645.051605	0.162903
645.257698	0.163206
645.463772	0.163603
645.669828	0.163904
645.875866	0.164151
646.081886	0.164096
646.287888	0.164140
646.493871	0.164022
646.699836	0.164059
646.905783	0.164309
647.111712	0.164469
647.317622	0.164828
647.523514	0.164489
647.729388	0.164473
647.935244	0.164731
648.141082	0.165049
648.346901	0.165260
648.552702	0.165473
648.758485	0.165624
648.964250	0.165894
649.169996	0.165780
649.375724	0.166158
649.581434	0.166389
649.787126	0.166408
649.992800	0.166435
650.198455	0.166566
650.404092	0.166532
650.609711	0.166775
650.815311	0.166426
651.020894	0.166477
651.226458	0.166433
651.432004	0.166578
651.637532	0.166748
651.843041	0.166733
652.048532	0.167012
652.254006	0.167416
652.459460	0.167299
652.664897	0.167617
652.870315	0.167911
653.075716	0.168362
653.281097	0.168581
653.486461	0.168852
653.691807	0.169358
653.897134	0.169324
654.102443	0.169415
654.307734	0.169827
654.513006	0.170287
654.718261	0.170358
654.923497	0.170465
655.128715	0.170738
655.333915	0.170879
655.539096	0.170936
655.744259	0.171197
655.949404	0.171402
656.154531	0.171421
656.359640	0.171439
656.564730	0.171866
656.769802	0.172076
656.974856	0.171988
657.179892	0.172057
657.384909	0.172050
657.589908	0.172050
657.794889	0.172001
657.999852	0.172220
658.204797	0.172312
658.409723	0.172417
658.614631	0.172509
658.819521	0.172911
659.024393	0.173108
659.229246	0.173379
659.434081	0.173469
659.638898	0.173877
659.843697	0.173905
660.048478	0.174071
660.253240	0.173802
660.457984	0.173863
660.662710	0.173729
660.867417	0.173795
661.072107	0.173930
661.276778	0.174060
661.481431	0.174043
661.686066	0.174410
661.890682	0.174681
662.095281	0.175028
662.299861	0.175356
662.504422	0.175618
662.708966	0.175754
662.913491	0.175638
663.117999	0.176111
663.322488	0.176282
663.526958	0.176477
663.731411	0.176477
663.935845	0.176749
664.140261	0.176750
664.344659	0.176923
664.549038	0.177037
664.753400	0.177478
664.957743	0.177639
665.162068	0.177732
665.366375	0.177667
665.570663	0.177925
665.774933	0.177950
665.979185	0.177913
666.183419	0.178129
666.387635	0.178174
666.591832	0.178151
666.796011	0.178408
667.000172	0.178517
667.204315	0.178816
667.408439	0.179143
667.612545	0.179363
667.816634	0.179938
668.020703	0.180123
668.224755	0.180554
668.428788	0.180690
668.632803	0.180718
668.836800	0.181178
669.040779	0.181206
669.244739	0.181306
669.448681	0.181261
669.652605	0.181118
669.856511	0.181214
670.060399	0.181202
670.264268	0.181580
670.468119	0.181717
670.671952	0.182022
670.875767	0.182328
671.079563	0.182719
671.283341	0.183347
671.487101	0.183872
671.690843	0.184301
671.894567	0.184764
672.098272	0.185175
672.301959	0.185548
672.505628	0.185495
672.709278	0.185746
672.912911	0.185898
673.116525	0.186062
673.320121	0.186244
673.523699	0.186043
673.727258	0.186304
673.930799	0.186089
674.134322	0.185985
674.337827	0.186146
674.541314	0.186392
674.744782	0.186264
674.948232	0.186321
675.151664	0.186345
675.355078	0.186658
675.558474	0.186721
675.761851	0.187015
675.965210	0.187216
676.168551	0.187313
676.371873	0.187405
676.575178	0.187233
676.778464	0.187255
676.981732	0.187347
677.184981	0.187422
677.388213	0.187559
677.591426	0.187791
677.794621	0.187986
677.997798	0.188202
678.200956	0.188382
678.404097	0.189065
678.607219	0.189358
678.810323	0.189509
679.013408	0.189724
679.216476	0.190012
679.419525	0.190136
679.622556	0.190331
679.825569	0.190457
680.028563	0.190494
680.231540	0.190495
680.434498	0.190611
680.637438	0.190751
680.840359	0.191310
681.043263	0.191458
681.246148	0.191669
681.449015	0.191725
681.651864	0.192081
681.854694	0.192300
682.057506	0.192293
682.260301	0.192252
682.463076	0.192373
682.665834	0.192229
682.868573	0.192274
683.071295	0.192292
683.273998	0.192533
683.476682	0.192568
683.679349	0.192750
683.881997	0.193081
684.084627	0.193547
684.287239	0.193693
684.489833	0.193731
684.692408	0.193694
684.894965	0.193840
685.097504	0.193795
685.300025	0.193967
685.502527	0.194004
685.705012	0.194072
685.907478	0.193909
686.109925	0.193990
686.312355	0.194159
686.514766	0.194470
686.717159	0.194487
686.919534	0.194861
687.121891	0.194777
687.324230	0.194677
687.526550	0.194889
687.728852	0.195053
687.931136	0.195301
688.133401	0.195384
688.335649	0.195699
688.537878	0.195787
688.740089	0.195586
688.942281	0.195792
689.144456	0.196195
689.346612	0.196079
689.548750	0.196152
689.750870	0.196323
689.952971	0.196432
690.155055	0.196416
690.357120	0.196660
690.559167	0.197050
690.761195	0.197130
690.963206	0.197219
691.165198	0.197790
691.367172	0.197994
691.569128	0.197876
691.771065	0.198047
691.972984	0.197910
692.174885	0.198005
692.376768	0.198065
692.578633	0.198191
692.780479	0.198249
692.982308	0.197893
693.184118	0.197996
693.385909	0.198145
