sample name	sample
index	900
start time	 04-08-2021  03:32:49 PM


Wavelength (nm)	Absorbance
494.344910	NaN
494.563924	NaN
494.782919	NaN
495.001897	NaN
495.220856	-0.219584
495.439797	-0.214966
495.658719	-0.107100
495.877624	0.011075
496.096510	-0.188587
496.315378	-0.194697
496.534227	-0.090699
496.753059	0.083449
496.971872	0.173728
497.190667	0.145878
497.409444	0.153780
497.628203	0.149990
497.846943	0.153543
498.065665	0.155467
498.284369	0.154402
498.503055	0.154675
498.721723	0.154143
498.940372	0.152776
499.159003	0.153831
499.377616	0.154260
499.596210	0.155172
499.814787	0.153616
500.033345	0.152775
500.251885	0.153885
500.470406	0.152495
500.688910	0.152675
500.907395	0.153456
501.125862	0.152729
501.344311	0.151554
501.562742	0.151125
501.781154	0.151719
501.999548	0.152349
502.217924	0.152232
502.436282	0.154051
502.654621	0.154191
502.872942	0.154439
503.091245	0.155426
503.309530	0.156327
503.527797	0.156850
503.746045	0.156697
503.964275	0.157202
504.182487	0.157119
504.400681	0.156958
504.618856	0.157129
504.837013	0.156461
505.055152	0.155289
505.273273	0.155792
505.491376	0.155769
505.709460	0.156410
505.927526	0.155688
506.145574	0.156369
506.363604	0.156080
506.581615	0.156015
506.799608	0.156602
507.017583	0.156911
507.235540	0.155860
507.453478	0.156089
507.671399	0.155914
507.889301	0.156097
508.107185	0.155646
508.325050	0.155125
508.542898	0.155227
508.760727	0.155799
508.978538	0.156547
509.196330	0.158270
509.414105	0.158359
509.631861	0.158626
509.849599	0.159100
510.067319	0.158867
510.285021	0.159296
510.502704	0.160617
510.720369	0.160479
510.938016	0.160200
511.155645	0.159272
511.373255	0.160417
511.590848	0.160825
511.808422	0.161096
512.025977	0.162318
512.243515	0.163265
512.461034	0.162898
512.678536	0.163235
512.896018	0.163700
513.113483	0.165069
513.330930	0.165063
513.548358	0.164852
513.765768	0.165114
513.983160	0.164992
514.200533	0.165224
514.417889	0.164790
514.635226	0.164573
514.852545	0.165163
515.069845	0.164208
515.287128	0.163902
515.504392	0.164829
515.721638	0.165192
515.938866	0.165891
516.156075	0.165440
516.373267	0.166084
516.590440	0.166444
516.807594	0.165941
517.024731	0.166114
517.241850	0.166679
517.458950	0.165989
517.676032	0.165752
517.893095	0.165934
518.110141	0.167246
518.327168	0.167636
518.544177	0.168256
518.761168	0.168917
518.978141	0.170071
519.195095	0.170906
519.412031	0.171783
519.628949	0.172415
519.845849	0.172459
520.062731	0.171461
520.279594	0.171171
520.496439	0.171600
520.713266	0.171642
520.930074	0.170841
521.146865	0.170476
521.363637	0.170654
521.580391	0.171921
521.797127	0.172028
522.013844	0.173392
522.230543	0.174200
522.447224	0.174902
522.663887	0.175822
522.880532	0.176571
523.097158	0.176955
523.313766	0.176888
523.530356	0.176409
523.746928	0.177195
523.963481	0.176669
524.180017	0.176558
524.396534	0.176651
524.613032	0.176663
524.829513	0.177016
525.045975	0.176763
525.262420	0.177602
525.478845	0.177974
525.695253	0.178641
525.911643	0.178662
526.128014	0.179574
526.344367	0.179086
526.560702	0.179525
526.777018	0.179645
526.993316	0.179922
527.209597	0.179799
527.425858	0.179523
527.642102	0.178886
527.858328	0.179745
528.074535	0.179849
528.290724	0.180550
528.506894	0.180504
528.723047	0.180954
528.939181	0.181766
529.155297	0.181654
529.371395	0.181625
529.587475	0.182244
529.803536	0.181966
530.019579	0.181849
530.235604	0.181854
530.451611	0.182231
530.667600	0.182686
530.883570	0.182658
531.099522	0.183967
531.315456	0.184968
531.531372	0.185512
531.747269	0.186447
531.963148	0.187156
532.179009	0.187931
532.394852	0.187672
532.610676	0.187631
532.826482	0.188332
533.042271	0.187379
533.258040	0.187636
533.473792	0.187741
533.689525	0.187964
533.905240	0.188438
534.120937	0.188354
534.336616	0.189387
534.552277	0.190699
534.767919	0.191342
534.983543	0.192352
535.199149	0.192965
535.414736	0.193135
535.630306	0.193600
535.845857	0.194037
536.061390	0.194339
536.276904	0.194267
536.492401	0.194132
536.707879	0.194193
536.923339	0.194835
537.138781	0.195205
537.354204	0.195913
537.569610	0.195995
537.784997	0.196598
538.000366	0.197633
538.215716	0.198130
538.431049	0.198373
538.646363	0.198646
538.861659	0.199237
539.076937	0.199595
539.292196	0.199469
539.507438	0.200102
539.722661	0.200206
539.937866	0.199725
540.153052	0.200013
540.368221	0.200198
540.583371	0.200700
540.798503	0.201090
541.013617	0.200707
541.228712	0.200797
541.443789	0.200697
541.658848	0.200748
541.873889	0.201301
542.088912	0.201455
542.303916	0.202020
542.518902	0.202127
542.733870	0.201875
542.948820	0.202575
543.163752	0.202975
543.378665	0.203511
543.593560	0.203621
543.808437	0.204002
544.023295	0.204603
544.238136	0.204104
544.452958	0.204017
544.667762	0.204775
544.882548	0.204960
545.097315	0.206004
545.312064	0.206591
545.526795	0.207177
545.741508	0.207591
545.956203	0.208071
546.170879	0.209027
546.385537	0.209656
546.600177	0.209329
546.814799	0.209721
547.029402	0.209471
547.243988	0.209251
547.458555	0.209712
547.673103	0.210266
547.887634	0.210277
548.102146	0.210555
548.316640	0.210507
548.531116	0.211508
548.745574	0.211875
548.960013	0.212201
549.174435	0.212419
549.388838	0.212638
549.603222	0.212584
549.817589	0.212847
550.031937	0.212948
550.246267	0.213358
550.460579	0.213593
550.674873	0.213840
550.889148	0.214026
551.103405	0.213950
551.317644	0.213795
551.531865	0.214377
551.746068	0.214591
551.960252	0.215016
552.174418	0.215469
552.388566	0.215351
552.602696	0.215115
552.816807	0.215583
553.030900	0.216192
553.244975	0.216807
553.459032	0.216775
553.673070	0.217590
553.887091	0.218034
554.101093	0.218038
554.315077	0.218143
554.529042	0.218756
554.742990	0.218912
554.956919	0.219697
555.170830	0.219980
555.384722	0.220172
555.598597	0.219958
555.812453	0.220098
556.026291	0.220481
556.240111	0.220412
556.453913	0.220547
556.667696	0.220556
556.881461	0.220411
557.095208	0.220347
557.308937	0.220880
557.522647	0.220858
557.736339	0.220630
557.950013	0.220660
558.163669	0.221531
558.377307	0.221831
558.590926	0.222476
558.804527	0.222928
559.018110	0.223413
559.231675	0.223086
559.445221	0.223372
559.658749	0.223660
559.872259	0.223973
560.085751	0.224198
560.299225	0.224475
560.512680	0.224354
560.726117	0.224284
560.939536	0.224356
561.152937	0.224449
561.366319	0.224672
561.579683	0.224941
561.793029	0.225221
562.006357	0.224929
562.219667	0.225182
562.432958	0.225718
562.646231	0.226186
562.859486	0.226384
563.072723	0.226707
563.285941	0.226610
563.499141	0.226608
563.712323	0.226879
563.925487	0.226833
564.138632	0.226726
564.351760	0.226916
564.564869	0.226758
564.777960	0.226816
564.991032	0.227327
565.204087	0.227932
565.417123	0.228270
565.630141	0.228330
565.843140	0.228892
566.056122	0.228817
566.269085	0.228288
566.482030	0.228961
566.694957	0.228542
566.907866	0.228754
567.120756	0.229048
567.333628	0.229376
567.546482	0.229161
567.759318	0.229174
567.972135	0.229712
568.184935	0.230451
568.397716	0.230131
568.610478	0.230601
568.823223	0.230601
569.035949	0.231167
569.248657	0.231328
569.461347	0.231781
569.674019	0.232474
569.886672	0.232373
570.099308	0.232411
570.311925	0.232796
570.524523	0.233161
570.737104	0.233450
570.949666	0.233076
571.162210	0.233198
571.374736	0.233677
571.587244	0.233675
571.799733	0.234122
572.012205	0.234476
572.224658	0.234998
572.437092	0.235628
572.649509	0.235655
572.861907	0.235622
573.074287	0.235705
573.286649	0.235801
573.498993	0.235896
573.711318	0.236594
573.923625	0.236666
574.135914	0.236347
574.348185	0.236546
574.560438	0.236684
574.772672	0.236832
574.984888	0.237218
575.197086	0.237030
575.409266	0.237031
575.621427	0.236816
575.833570	0.236796
576.045695	0.237414
576.257802	0.237111
576.469890	0.236771
576.681961	0.237192
576.894013	0.237067
577.106046	0.237400
577.318062	0.237391
577.530059	0.237209
577.742039	0.237422
577.954000	0.237529
578.165942	0.237715
578.377867	0.238243
578.589773	0.238413
578.801661	0.238734
579.013531	0.238905
579.225382	0.239142
579.437216	0.239228
579.649031	0.239199
579.860828	0.238832
580.072606	0.238903
580.284367	0.239640
580.496109	0.239272
580.707833	0.239361
580.919539	0.239103
581.131227	0.239478
581.342896	0.240006
581.554547	0.240468
581.766180	0.240920
581.977795	0.241704
582.189391	0.241698
582.400969	0.242384
582.612529	0.243093
582.824071	0.243741
583.035595	0.243850
583.247100	0.243627
583.458587	0.243758
583.670056	0.243945
583.881506	0.243492
584.092939	0.243311
584.304353	0.243646
584.515749	0.243449
584.727127	0.243643
584.938486	0.243582
585.149828	0.244112
585.361151	0.244248
585.572456	0.244089
585.783742	0.244533
585.995011	0.244814
586.206261	0.244958
586.417493	0.244945
586.628706	0.245132
586.839902	0.245229
587.051079	0.245452
587.262238	0.245941
587.473379	0.246207
587.684502	0.246266
587.895606	0.246396
588.106692	0.246248
588.317760	0.246342
588.528810	0.246251
588.739841	0.246628
588.950855	0.246615
589.161850	0.246454
589.372827	0.246979
589.583785	0.246948
589.794726	0.246857
590.005648	0.247161
590.216552	0.247659
590.427437	0.248098
590.638305	0.248528
590.849154	0.248703
591.059985	0.248878
591.270798	0.248556
591.481592	0.248815
591.692369	0.248911
591.903127	0.248716
592.113867	0.248745
592.324588	0.248884
592.535292	0.248865
592.745977	0.249254
592.956644	0.249605
593.167293	0.250153
593.377923	0.250671
593.588536	0.250891
593.799130	0.251258
594.009706	0.251379
594.220263	0.251524
594.430803	0.251803
594.641324	0.252076
594.851827	0.251991
595.062312	0.251993
595.272778	0.251674
595.483227	0.252185
595.693657	0.252232
595.904069	0.252367
596.114462	0.252474
596.324838	0.252739
596.535195	0.252560
596.745534	0.252655
596.955855	0.252727
597.166157	0.253338
597.376441	0.253277
597.586707	0.253461
597.796955	0.253666
598.007185	0.254057
598.217396	0.253978
598.427589	0.254319
598.637764	0.254505
598.847921	0.254794
599.058060	0.254497
599.268180	0.254475
599.478282	0.254624
599.688366	0.254654
599.898431	0.254227
600.108479	0.254191
600.318508	0.254203
600.528519	0.254619
600.738511	0.254914
600.948486	0.255143
601.158442	0.255584
601.368380	0.255576
601.578300	0.255492
601.788202	0.255843
601.998085	0.256351
602.207950	0.256556
602.417797	0.256723
602.627626	0.256902
602.837436	0.257153
603.047228	0.257206
603.257002	0.257628
603.466758	0.258352
603.676496	0.258929
603.886215	0.258917
604.095916	0.258942
604.305599	0.258972
604.515264	0.258892
604.724910	0.259285
604.934538	0.259514
605.144148	0.259487
605.353740	0.259473
605.563314	0.259243
605.772869	0.259495
605.982406	0.259656
606.191925	0.259501
606.401425	0.259346
606.610908	0.258844
606.820372	0.258857
607.029818	0.259226
607.239246	0.259075
607.448655	0.259003
607.658047	0.259064
607.867420	0.259323
608.076775	0.259933
608.286111	0.260224
608.495430	0.260552
608.704730	0.260684
608.914012	0.260354
609.123275	0.260568
609.332521	0.260954
609.541748	0.261046
609.750957	0.261085
609.960148	0.260985
610.169321	0.261367
610.378475	0.261492
610.587611	0.261868
610.796729	0.262477
611.005829	0.262830
611.214910	0.262998
611.423974	0.262968
611.633019	0.263233
611.842045	0.263162
612.051054	0.263008
612.260044	0.263228
612.469017	0.263357
612.677970	0.263384
612.886906	0.263250
613.095824	0.263226
613.304723	0.263483
613.513604	0.263669
613.722467	0.263832
613.931311	0.264124
614.140138	0.264547
614.348946	0.264592
614.557736	0.264858
614.766507	0.264902
614.975261	0.265091
615.183996	0.265121
615.392713	0.265366
615.601412	0.265408
615.810092	0.265275
616.018754	0.265208
616.227399	0.265192
616.436024	0.265246
616.644632	0.265475
616.853222	0.265915
617.061793	0.266070
617.270346	0.265934
617.478880	0.266210
617.687397	0.266711
617.895895	0.266826
618.104375	0.266781
618.312837	0.267120
618.521281	0.267492
618.729706	0.267368
618.938113	0.267535
619.146502	0.267734
619.354873	0.268019
619.563226	0.267927
619.771560	0.268161
619.979876	0.268656
620.188174	0.268549
620.396453	0.269033
620.604715	0.269554
620.812958	0.269863
621.021183	0.269802
621.229390	0.269706
621.437578	0.270346
621.645748	0.270560
621.853900	0.270845
622.062034	0.270708
622.270150	0.270405
622.478247	0.270122
622.686326	0.270189
622.894387	0.270415
623.102430	0.270858
623.310454	0.270828
623.518461	0.270943
623.726449	0.270607
623.934418	0.271049
624.142370	0.271133
624.350303	0.271634
624.558218	0.271766
624.766115	0.272111
624.973994	0.272277
625.181855	0.272187
625.389697	0.272412
625.597521	0.273309
625.805327	0.273446
626.013114	0.273905
626.220883	0.273948
626.428634	0.273969
626.636367	0.274183
626.844082	0.274296
627.051778	0.274597
627.259457	0.274661
627.467117	0.274709
627.674758	0.274890
627.882382	0.274968
628.089987	0.274997
628.297574	0.275402
628.505143	0.275333
628.712694	0.275409
628.920226	0.275230
629.127740	0.275379
629.335236	0.275112
629.542714	0.275361
629.750174	0.275278
629.957615	0.275299
630.165038	0.275443
630.372443	0.275562
630.579829	0.275785
630.787198	0.275982
630.994548	0.276022
631.201880	0.276300
631.409194	0.276417
631.616489	0.276708
631.823766	0.277065
632.031025	0.277093
632.238266	0.277306
632.445489	0.277178
632.652693	0.277462
632.859879	0.277718
633.067047	0.277841
633.274197	0.277964
633.481329	0.278064
633.688442	0.277957
633.895537	0.278189
634.102614	0.278212
634.309672	0.278412
634.516713	0.278477
634.723735	0.278533
634.930739	0.278471
635.137724	0.278640
635.344692	0.278760
635.551641	0.279126
635.758572	0.279335
635.965485	0.279680
636.172379	0.279813
636.379256	0.280392
636.586114	0.280606
636.792954	0.280973
636.999775	0.281255
637.206579	0.281604
637.413364	0.281843
637.620131	0.282075
637.826880	0.282132
638.033610	0.282500
638.240323	0.282273
638.447017	0.282612
638.653692	0.282918
638.860350	0.283096
639.066990	0.283195
639.273611	0.283212
639.480214	0.283299
639.686798	0.283564
639.893365	0.283804
640.099913	0.284407
640.306443	0.284500
640.512955	0.284627
640.719449	0.284678
640.925924	0.284703
641.132381	0.284996
641.338820	0.284934
641.545241	0.285062
641.751644	0.285091
641.958028	0.285041
642.164394	0.285222
642.370742	0.285097
642.577071	0.285337
642.783383	0.285371
642.989676	0.285529
643.195951	0.285874
643.402207	0.285977
643.608446	0.286176
643.814666	0.286251
644.020868	0.286485
644.227052	0.286817
644.433218	0.286838
644.639365	0.287239
644.845494	0.287411
645.051605	0.287449
645.257698	0.287542
645.463772	0.287569
645.669828	0.287758
645.875866	0.287849
646.081886	0.288083
646.287888	0.288365
646.493871	0.288369
646.699836	0.288666
646.905783	0.288760
647.111712	0.289199
647.317622	0.289511
647.523514	0.289768
647.729388	0.289729
647.935244	0.289907
648.141082	0.289897
648.346901	0.290188
648.552702	0.290222
648.758485	0.290588
648.964250	0.290755
649.169996	0.290657
649.375724	0.290734
649.581434	0.290939
649.787126	0.291065
649.992800	0.291155
650.198455	0.291128
650.404092	0.291376
650.609711	0.291585
650.815311	0.291769
651.020894	0.292447
651.226458	0.292665
651.432004	0.292930
651.637532	0.292992
651.843041	0.293343
652.048532	0.293544
652.254006	0.293604
652.459460	0.293776
652.664897	0.293804
652.870315	0.293797
653.075716	0.294029
653.281097	0.294223
653.486461	0.294586
653.691807	0.294877
653.897134	0.295358
654.102443	0.295635
654.307734	0.295906
654.513006	0.296336
654.718261	0.296442
654.923497	0.296851
655.128715	0.297019
655.333915	0.297242
655.539096	0.297612
655.744259	0.297736
655.949404	0.298034
656.154531	0.297820
656.359640	0.297818
656.564730	0.298247
656.769802	0.298173
656.974856	0.298604
657.179892	0.298913
657.384909	0.298790
657.589908	0.299168
657.794889	0.299047
657.999852	0.299887
658.204797	0.300245
658.409723	0.300268
658.614631	0.300665
658.819521	0.300770
659.024393	0.300913
659.229246	0.301228
659.434081	0.301387
659.638898	0.301990
659.843697	0.302119
660.048478	0.302375
660.253240	0.302463
660.457984	0.302624
660.662710	0.302779
660.867417	0.302990
661.072107	0.303431
661.276778	0.303728
661.481431	0.304006
661.686066	0.304115
661.890682	0.304385
662.095281	0.304892
662.299861	0.305162
662.504422	0.305551
662.708966	0.305806
662.913491	0.305904
663.117999	0.305931
663.322488	0.306093
663.526958	0.306348
663.731411	0.306629
663.935845	0.306567
664.140261	0.306686
664.344659	0.306785
664.549038	0.307003
664.753400	0.307070
664.957743	0.307443
665.162068	0.307500
665.366375	0.307741
665.570663	0.307686
665.774933	0.308321
665.979185	0.308483
666.183419	0.308882
666.387635	0.309072
666.591832	0.309447
666.796011	0.309629
667.000172	0.309997
667.204315	0.310158
667.408439	0.310496
667.612545	0.310449
667.816634	0.311120
668.020703	0.311204
668.224755	0.311440
668.428788	0.311733
668.632803	0.311927
668.836800	0.311916
669.040779	0.312400
669.244739	0.312574
669.448681	0.312781
669.652605	0.312789
669.856511	0.313508
670.060399	0.313848
670.264268	0.314147
670.468119	0.314766
670.671952	0.315289
670.875767	0.315195
671.079563	0.315694
671.283341	0.316363
671.487101	0.316570
671.690843	0.316473
671.894567	0.316885
672.098272	0.317126
672.301959	0.317083
672.505628	0.317139
672.709278	0.317417
672.912911	0.317412
673.116525	0.317296
673.320121	0.317502
673.523699	0.317592
673.727258	0.317949
673.930799	0.318075
674.134322	0.318215
674.337827	0.318296
674.541314	0.318455
674.744782	0.318552
674.948232	0.318592
675.151664	0.318866
675.355078	0.319243
675.558474	0.319035
675.761851	0.319307
675.965210	0.319556
676.168551	0.320001
676.371873	0.320184
676.575178	0.320503
676.778464	0.320661
676.981732	0.320627
677.184981	0.320676
677.388213	0.320977
677.591426	0.321123
677.794621	0.321605
677.997798	0.321772
678.200956	0.322010
678.404097	0.322255
678.607219	0.322775
678.810323	0.323074
679.013408	0.323417
679.216476	0.323563
679.419525	0.323758
679.622556	0.323738
679.825569	0.323945
680.028563	0.324211
680.231540	0.324587
680.434498	0.324843
680.637438	0.325312
680.840359	0.325404
681.043263	0.325653
681.246148	0.325980
681.449015	0.326173
681.651864	0.326612
681.854694	0.326850
682.057506	0.327027
682.260301	0.327266
682.463076	0.327302
682.665834	0.327538
682.868573	0.327880
683.071295	0.328028
683.273998	0.328446
683.476682	0.328349
683.679349	0.328563
683.881997	0.328561
684.084627	0.328753
684.287239	0.328851
684.489833	0.328966
684.692408	0.329214
684.894965	0.329477
685.097504	0.329688
685.300025	0.329992
685.502527	0.330285
685.705012	0.330756
685.907478	0.331052
686.109925	0.331553
686.312355	0.331878
686.514766	0.332157
686.717159	0.332531
686.919534	0.332704
687.121891	0.332751
687.324230	0.332996
687.526550	0.333113
687.728852	0.333396
687.931136	0.333333
688.133401	0.333763
688.335649	0.333842
688.537878	0.333995
688.740089	0.334058
688.942281	0.334646
689.144456	0.335052
689.346612	0.335307
689.548750	0.335355
689.750870	0.335891
689.952971	0.336151
690.155055	0.336309
690.357120	0.336347
690.559167	0.336544
690.761195	0.336552
690.963206	0.336501
691.165198	0.336752
691.367172	0.336895
691.569128	0.336882
691.771065	0.337023
691.972984	0.337287
692.174885	0.337499
692.376768	0.337677
692.578633	0.337974
692.780479	0.338206
692.982308	0.338210
693.184118	0.338415
693.385909	0.338329
693.587683	0.338298
