sample name	sample
index	1043
start time	 04-19-2021  02:14:23 PM


Wavelength (nm)	Absorbance
494.344910	0.368624
494.563924	0.368624
494.782919	0.368624
495.001897	0.138665
495.220856	0.077216
495.439797	0.064957
495.658719	-0.008908
495.877624	-0.007543
496.096510	-0.008494
496.315378	0.019893
496.534227	0.017822
496.753059	0.037195
496.971872	0.111126
497.190667	0.166375
497.409444	0.184101
497.628203	0.186759
497.846943	0.180990
498.065665	0.180865
498.284369	0.182535
498.503055	0.183138
498.721723	0.181788
498.940372	0.181124
499.159003	0.181875
499.377616	0.178789
499.596210	0.177615
499.814787	0.179056
500.033345	0.178733
500.251885	0.179158
500.470406	0.178124
500.688910	0.177757
500.907395	0.177597
501.125862	0.177751
501.344311	0.179364
501.562742	0.180823
501.781154	0.180396
501.999548	0.180304
502.217924	0.179451
502.436282	0.180305
502.654621	0.181386
502.872942	0.181205
503.091245	0.181079
503.309530	0.181274
503.527797	0.182159
503.746045	0.183393
503.964275	0.185376
504.182487	0.186084
504.400681	0.186119
504.618856	0.186245
504.837013	0.186842
505.055152	0.188262
505.273273	0.187187
505.491376	0.185682
505.709460	0.183412
505.927526	0.182931
506.145574	0.183018
506.363604	0.183135
506.581615	0.184001
506.799608	0.183820
507.017583	0.182625
507.235540	0.184030
507.453478	0.184428
507.671399	0.186457
507.889301	0.186629
508.107185	0.186945
508.325050	0.186679
508.542898	0.186813
508.760727	0.187008
508.978538	0.187687
509.196330	0.186785
509.414105	0.187312
509.631861	0.188148
509.849599	0.188213
510.067319	0.188187
510.285021	0.187659
510.502704	0.187045
510.720369	0.188096
510.938016	0.188458
511.155645	0.189693
511.373255	0.190370
511.590848	0.190297
511.808422	0.189948
512.025977	0.190577
512.243515	0.192144
512.461034	0.193008
512.678536	0.192935
512.896018	0.193093
513.113483	0.193091
513.330930	0.192460
513.548358	0.192457
513.765768	0.194700
513.983160	0.195266
514.200533	0.195002
514.417889	0.194262
514.635226	0.194699
514.852545	0.195560
515.069845	0.195946
515.287128	0.196431
515.504392	0.196027
515.721638	0.194462
515.938866	0.193839
516.156075	0.194081
516.373267	0.195927
516.590440	0.195918
516.807594	0.195248
517.024731	0.194545
517.241850	0.194914
517.458950	0.195851
517.676032	0.196968
517.893095	0.197520
518.110141	0.197961
518.327168	0.197176
518.544177	0.197087
518.761168	0.197466
518.978141	0.198151
519.195095	0.198720
519.412031	0.198316
519.628949	0.197925
519.845849	0.197866
520.062731	0.197447
520.279594	0.198199
520.496439	0.199061
520.713266	0.200504
520.930074	0.200091
521.146865	0.200837
521.363637	0.201848
521.580391	0.202421
521.797127	0.203083
522.013844	0.203710
522.230543	0.204074
522.447224	0.203894
522.663887	0.203112
522.880532	0.204783
523.097158	0.205133
523.313766	0.205016
523.530356	0.205412
523.746928	0.205306
523.963481	0.205445
524.180017	0.205120
524.396534	0.204649
524.613032	0.205501
524.829513	0.205493
525.045975	0.205458
525.262420	0.205607
525.478845	0.205163
525.695253	0.205627
525.911643	0.206695
526.128014	0.207412
526.344367	0.208858
526.560702	0.208684
526.777018	0.209001
526.993316	0.209424
527.209597	0.209976
527.425858	0.210277
527.642102	0.210396
527.858328	0.210882
528.074535	0.210584
528.290724	0.211176
528.506894	0.211400
528.723047	0.211922
528.939181	0.211453
529.155297	0.211736
529.371395	0.212562
529.587475	0.213137
529.803536	0.212428
530.019579	0.213009
530.235604	0.212208
530.451611	0.212273
530.667600	0.211652
530.883570	0.212768
531.099522	0.212631
531.315456	0.212963
531.531372	0.212975
531.747269	0.213794
531.963148	0.214410
532.179009	0.215552
532.394852	0.217279
532.610676	0.218492
532.826482	0.218687
533.042271	0.219891
533.258040	0.220408
533.473792	0.221635
533.689525	0.222215
533.905240	0.223028
534.120937	0.222936
534.336616	0.221941
534.552277	0.221916
534.767919	0.222029
534.983543	0.222323
535.199149	0.222964
535.414736	0.222880
535.630306	0.223370
535.845857	0.223640
536.061390	0.223910
536.276904	0.225235
536.492401	0.226257
536.707879	0.227038
536.923339	0.227616
537.138781	0.227825
537.354204	0.228783
537.569610	0.228462
537.784997	0.228568
538.000366	0.228920
538.215716	0.229200
538.431049	0.229388
538.646363	0.229153
538.861659	0.228655
539.076937	0.228489
539.292196	0.228146
539.507438	0.228975
539.722661	0.229243
539.937866	0.229441
540.153052	0.229131
540.368221	0.229153
540.583371	0.230075
540.798503	0.230535
541.013617	0.230664
541.228712	0.231366
541.443789	0.231402
541.658848	0.231507
541.873889	0.232193
542.088912	0.232422
542.303916	0.232317
542.518902	0.231685
542.733870	0.232789
542.948820	0.233566
543.163752	0.233689
543.378665	0.233951
543.593560	0.234135
543.808437	0.234421
544.023295	0.234953
544.238136	0.235627
544.452958	0.236683
544.667762	0.236451
544.882548	0.236788
545.097315	0.236980
545.312064	0.237535
545.526795	0.238104
545.741508	0.238830
545.956203	0.239584
546.170879	0.239788
546.385537	0.239732
546.600177	0.240509
546.814799	0.240725
547.029402	0.241040
547.243988	0.241574
547.458555	0.241497
547.673103	0.241980
547.887634	0.242324
548.102146	0.242932
548.316640	0.243367
548.531116	0.243861
548.745574	0.243711
548.960013	0.243985
549.174435	0.243739
549.388838	0.244284
549.603222	0.244154
549.817589	0.243810
550.031937	0.244159
550.246267	0.244410
550.460579	0.244252
550.674873	0.245274
550.889148	0.245598
551.103405	0.245846
551.317644	0.246012
551.531865	0.246450
551.746068	0.247054
551.960252	0.247017
552.174418	0.247043
552.388566	0.247213
552.602696	0.247342
552.816807	0.247031
553.030900	0.247106
553.244975	0.247511
553.459032	0.247530
553.673070	0.247147
553.887091	0.247473
554.101093	0.247942
554.315077	0.247766
554.529042	0.247203
554.742990	0.247725
554.956919	0.248340
555.170830	0.248540
555.384722	0.248425
555.598597	0.249008
555.812453	0.249091
556.026291	0.249704
556.240111	0.249976
556.453913	0.250853
556.667696	0.250873
556.881461	0.250887
557.095208	0.251465
557.308937	0.252115
557.522647	0.252325
557.736339	0.252319
557.950013	0.251819
558.163669	0.252289
558.377307	0.252427
558.590926	0.252715
558.804527	0.253218
559.018110	0.252360
559.231675	0.252086
559.445221	0.252420
559.658749	0.252732
559.872259	0.253547
560.085751	0.253397
560.299225	0.253424
560.512680	0.253658
560.726117	0.253677
560.939536	0.254629
561.152937	0.255194
561.366319	0.255311
561.579683	0.256122
561.793029	0.255967
562.006357	0.256243
562.219667	0.256519
562.432958	0.256862
562.646231	0.256875
562.859486	0.257061
563.072723	0.256918
563.285941	0.257299
563.499141	0.257547
563.712323	0.257548
563.925487	0.258184
564.138632	0.258324
564.351760	0.258809
564.564869	0.259064
564.777960	0.259096
564.991032	0.259766
565.204087	0.259860
565.417123	0.259439
565.630141	0.259664
565.843140	0.259914
566.056122	0.260027
566.269085	0.259551
566.482030	0.260096
566.694957	0.260244
566.907866	0.260423
567.120756	0.260753
567.333628	0.260980
567.546482	0.261408
567.759318	0.261089
567.972135	0.261581
568.184935	0.262006
568.397716	0.261893
568.610478	0.262285
568.823223	0.262112
569.035949	0.262038
569.248657	0.262429
569.461347	0.262847
569.674019	0.263041
569.886672	0.263032
570.099308	0.263297
570.311925	0.263660
570.524523	0.263874
570.737104	0.263791
570.949666	0.263832
571.162210	0.263817
571.374736	0.264140
571.587244	0.264634
571.799733	0.265340
572.012205	0.265822
572.224658	0.265617
572.437092	0.265847
572.649509	0.266493
572.861907	0.266967
573.074287	0.267032
573.286649	0.266672
573.498993	0.266901
573.711318	0.266641
573.923625	0.267098
574.135914	0.267368
574.348185	0.266993
574.560438	0.267088
574.772672	0.267356
574.984888	0.267755
575.197086	0.268424
575.409266	0.268599
575.621427	0.268825
575.833570	0.268411
576.045695	0.268927
576.257802	0.269492
576.469890	0.269833
576.681961	0.269821
576.894013	0.270149
577.106046	0.269974
577.318062	0.270055
577.530059	0.269785
577.742039	0.269866
577.954000	0.269806
578.165942	0.269938
578.377867	0.270143
578.589773	0.270236
578.801661	0.270522
579.013531	0.270556
579.225382	0.270429
579.437216	0.271077
579.649031	0.271362
579.860828	0.271515
580.072606	0.271678
580.284367	0.271858
580.496109	0.272255
580.707833	0.272205
580.919539	0.272426
581.131227	0.272802
581.342896	0.273295
581.554547	0.273110
581.766180	0.273650
581.977795	0.273973
582.189391	0.273363
582.400969	0.272989
582.612529	0.273043
582.824071	0.273152
583.035595	0.273354
583.247100	0.272836
583.458587	0.273505
583.670056	0.273018
583.881506	0.273019
584.092939	0.273772
584.304353	0.274348
584.515749	0.274663
584.727127	0.274839
584.938486	0.275172
585.149828	0.275690
585.361151	0.276063
585.572456	0.276726
585.783742	0.277063
585.995011	0.277134
586.206261	0.277617
586.417493	0.277868
586.628706	0.278339
586.839902	0.278732
587.051079	0.278752
587.262238	0.278861
587.473379	0.279241
587.684502	0.279793
587.895606	0.280434
588.106692	0.280514
588.317760	0.280779
588.528810	0.280787
588.739841	0.281017
588.950855	0.281438
589.161850	0.281950
589.372827	0.281825
589.583785	0.281515
589.794726	0.281524
590.005648	0.281351
590.216552	0.281454
590.427437	0.281902
590.638305	0.282043
590.849154	0.281777
591.059985	0.281480
591.270798	0.281714
591.481592	0.281801
591.692369	0.281966
591.903127	0.282299
592.113867	0.282503
592.324588	0.282384
592.535292	0.282550
592.745977	0.282943
592.956644	0.283436
593.167293	0.283860
593.377923	0.284161
593.588536	0.284469
593.799130	0.284530
594.009706	0.284800
594.220263	0.285317
594.430803	0.285047
594.641324	0.285382
594.851827	0.285352
595.062312	0.285399
595.272778	0.285868
595.483227	0.286207
595.693657	0.286786
595.904069	0.286849
596.114462	0.286940
596.324838	0.287233
596.535195	0.287408
596.745534	0.287408
596.955855	0.287875
597.166157	0.287875
597.376441	0.288107
597.586707	0.288033
597.796955	0.288247
598.007185	0.288592
598.217396	0.288835
598.427589	0.289136
598.637764	0.289424
598.847921	0.289432
599.058060	0.289774
599.268180	0.289692
599.478282	0.289927
599.688366	0.290045
599.898431	0.290053
600.108479	0.290640
600.318508	0.290922
600.528519	0.291417
600.738511	0.291487
600.948486	0.291845
601.158442	0.291709
601.368380	0.291882
601.578300	0.291869
601.788202	0.292085
601.998085	0.292130
602.207950	0.292270
602.417797	0.292149
602.627626	0.292575
602.837436	0.292596
603.047228	0.293544
603.257002	0.293488
603.466758	0.293645
603.676496	0.294075
603.886215	0.294427
604.095916	0.294607
604.305599	0.295099
604.515264	0.295111
604.724910	0.295030
604.934538	0.295051
605.144148	0.295462
605.353740	0.296108
605.563314	0.296015
605.772869	0.296280
605.982406	0.296587
606.191925	0.296845
606.401425	0.296727
606.610908	0.297341
606.820372	0.296993
607.029818	0.296917
607.239246	0.296610
607.448655	0.296706
607.658047	0.296385
607.867420	0.296081
608.076775	0.295945
608.286111	0.296726
608.495430	0.296208
608.704730	0.296925
608.914012	0.297400
609.123275	0.297564
609.332521	0.297524
609.541748	0.297616
609.750957	0.298223
609.960148	0.298103
610.169321	0.298149
610.378475	0.298447
610.587611	0.298083
610.796729	0.298122
611.005829	0.298667
611.214910	0.299033
611.423974	0.299230
611.633019	0.299056
611.842045	0.299353
612.051054	0.299183
612.260044	0.299618
612.469017	0.299589
612.677970	0.299750
612.886906	0.299878
613.095824	0.299748
613.304723	0.299775
613.513604	0.299923
613.722467	0.300062
613.931311	0.300204
614.140138	0.300561
614.348946	0.300989
614.557736	0.301401
614.766507	0.301695
614.975261	0.302058
615.183996	0.302390
615.392713	0.302519
615.601412	0.302788
615.810092	0.302836
616.018754	0.302836
616.227399	0.303357
616.436024	0.303428
616.644632	0.303345
616.853222	0.303719
617.061793	0.304112
617.270346	0.304259
617.478880	0.304665
617.687397	0.304982
617.895895	0.305000
618.104375	0.304589
618.312837	0.304490
618.521281	0.304405
618.729706	0.304582
618.938113	0.304696
619.146502	0.304877
619.354873	0.304845
619.563226	0.305005
619.771560	0.305009
619.979876	0.305620
620.188174	0.305964
620.396453	0.306369
620.604715	0.306535
620.812958	0.306618
621.021183	0.306958
621.229390	0.307054
621.437578	0.307512
621.645748	0.307996
621.853900	0.307895
622.062034	0.307836
622.270150	0.307789
622.478247	0.307889
622.686326	0.307951
622.894387	0.308134
623.102430	0.308449
623.310454	0.308660
623.518461	0.308810
623.726449	0.309047
623.934418	0.309224
624.142370	0.309487
624.350303	0.309577
624.558218	0.309712
624.766115	0.309976
624.973994	0.309733
625.181855	0.309529
625.389697	0.309469
625.597521	0.309813
625.805327	0.310245
626.013114	0.310364
626.220883	0.310353
626.428634	0.310600
626.636367	0.310606
626.844082	0.310983
627.051778	0.311272
627.259457	0.311588
627.467117	0.311542
627.674758	0.311696
627.882382	0.311954
628.089987	0.312252
628.297574	0.312486
628.505143	0.312640
628.712694	0.313213
628.920226	0.313411
629.127740	0.313559
629.335236	0.313941
629.542714	0.314181
629.750174	0.314211
629.957615	0.314431
630.165038	0.314456
630.372443	0.314565
630.579829	0.314501
630.787198	0.314562
630.994548	0.314814
631.201880	0.314962
631.409194	0.314730
631.616489	0.315232
631.823766	0.315309
632.031025	0.315415
632.238266	0.315727
632.445489	0.315907
632.652693	0.316204
632.859879	0.315940
633.067047	0.315880
633.274197	0.316229
633.481329	0.316141
633.688442	0.316452
633.895537	0.316738
634.102614	0.316756
634.309672	0.316973
634.516713	0.317066
634.723735	0.317430
634.930739	0.317499
635.137724	0.317813
635.344692	0.318123
635.551641	0.318280
635.758572	0.318257
635.965485	0.318407
636.172379	0.318483
636.379256	0.318875
636.586114	0.319382
636.792954	0.319952
636.999775	0.320144
637.206579	0.320252
637.413364	0.320154
637.620131	0.320521
637.826880	0.320794
638.033610	0.321015
638.240323	0.320840
638.447017	0.320946
638.653692	0.321024
638.860350	0.321321
639.066990	0.321315
639.273611	0.321864
639.480214	0.322035
639.686798	0.322476
639.893365	0.322735
640.099913	0.322906
640.306443	0.323085
640.512955	0.322963
640.719449	0.322949
640.925924	0.323283
641.132381	0.323559
641.338820	0.323853
641.545241	0.323832
641.751644	0.323665
641.958028	0.324263
642.164394	0.324516
642.370742	0.325031
642.577071	0.325294
642.783383	0.325394
642.989676	0.325251
643.195951	0.325392
643.402207	0.325411
643.608446	0.325636
643.814666	0.325933
644.020868	0.325913
644.227052	0.326003
644.433218	0.326219
644.639365	0.326585
644.845494	0.326968
645.051605	0.327108
645.257698	0.327599
645.463772	0.327993
645.669828	0.327776
645.875866	0.328107
646.081886	0.328001
646.287888	0.328083
646.493871	0.328431
646.699836	0.328487
646.905783	0.328497
647.111712	0.328551
647.317622	0.328715
647.523514	0.329096
647.729388	0.329432
647.935244	0.330083
648.141082	0.330710
648.346901	0.331119
648.552702	0.331724
648.758485	0.332107
648.964250	0.332481
649.169996	0.333049
649.375724	0.333263
649.581434	0.333321
649.787126	0.333389
649.992800	0.333089
650.198455	0.332854
650.404092	0.332665
650.609711	0.332794
650.815311	0.332759
651.020894	0.332583
651.226458	0.332685
651.432004	0.332886
651.637532	0.333126
651.843041	0.333396
652.048532	0.333575
652.254006	0.333832
652.459460	0.334044
652.664897	0.334138
652.870315	0.334283
653.075716	0.334339
653.281097	0.334569
653.486461	0.334827
653.691807	0.335105
653.897134	0.335484
654.102443	0.335648
654.307734	0.336169
654.513006	0.336455
654.718261	0.336922
654.923497	0.337327
655.128715	0.337479
655.333915	0.337608
655.539096	0.337514
655.744259	0.337705
655.949404	0.338046
656.154531	0.337785
656.359640	0.338005
656.564730	0.338246
656.769802	0.338367
656.974856	0.338538
657.179892	0.338681
657.384909	0.339243
657.589908	0.339569
657.794889	0.339707
657.999852	0.340125
658.204797	0.340342
658.409723	0.340174
658.614631	0.340459
658.819521	0.340734
659.024393	0.341014
659.229246	0.341473
659.434081	0.341649
659.638898	0.342028
659.843697	0.342454
660.048478	0.342808
660.253240	0.343368
660.457984	0.343647
660.662710	0.343984
660.867417	0.344431
661.072107	0.344620
661.276778	0.344702
661.481431	0.344779
661.686066	0.344869
661.890682	0.344878
662.095281	0.344796
662.299861	0.344864
662.504422	0.345172
662.708966	0.345133
662.913491	0.345155
663.117999	0.345242
663.322488	0.345489
663.526958	0.345703
663.731411	0.346044
663.935845	0.346382
664.140261	0.346664
664.344659	0.346899
664.549038	0.347438
664.753400	0.347572
664.957743	0.347802
665.162068	0.348243
665.366375	0.348773
665.570663	0.349112
665.774933	0.349434
665.979185	0.349429
666.183419	0.349370
666.387635	0.349376
666.591832	0.349681
666.796011	0.350439
667.000172	0.350463
667.204315	0.350409
667.408439	0.350373
667.612545	0.350546
667.816634	0.351407
668.020703	0.351964
668.224755	0.352467
668.428788	0.352813
668.632803	0.352896
668.836800	0.353260
669.040779	0.353590
669.244739	0.354341
669.448681	0.354734
669.652605	0.354526
669.856511	0.354671
670.060399	0.354670
670.264268	0.354770
670.468119	0.355194
670.671952	0.355550
670.875767	0.355835
671.079563	0.355890
671.283341	0.356126
671.487101	0.356579
671.690843	0.356765
671.894567	0.357184
672.098272	0.357421
672.301959	0.357490
672.505628	0.357498
672.709278	0.357715
672.912911	0.358083
673.116525	0.358441
673.320121	0.358517
673.523699	0.358952
673.727258	0.359114
673.930799	0.359540
674.134322	0.359723
674.337827	0.360010
674.541314	0.360248
674.744782	0.360539
674.948232	0.360502
675.151664	0.360725
675.355078	0.360725
675.558474	0.361003
675.761851	0.361105
675.965210	0.361334
676.168551	0.361820
676.371873	0.362090
676.575178	0.362070
676.778464	0.362221
676.981732	0.362401
677.184981	0.362678
677.388213	0.362939
677.591426	0.363178
677.794621	0.363089
677.997798	0.363038
678.200956	0.363340
678.404097	0.363543
678.607219	0.363981
678.810323	0.364483
679.013408	0.364911
679.216476	0.365053
679.419525	0.365500
679.622556	0.366007
679.825569	0.366219
680.028563	0.366415
680.231540	0.366773
680.434498	0.367130
680.637438	0.367106
680.840359	0.367213
681.043263	0.367484
681.246148	0.367625
681.449015	0.367892
681.651864	0.368164
681.854694	0.368339
682.057506	0.368672
682.260301	0.368834
682.463076	0.369315
682.665834	0.369490
682.868573	0.369652
683.071295	0.369932
683.273998	0.370073
683.476682	0.370159
683.679349	0.370414
683.881997	0.370687
684.084627	0.370637
684.287239	0.370694
684.489833	0.370981
684.692408	0.371181
684.894965	0.371262
685.097504	0.371613
685.300025	0.371829
685.502527	0.371888
685.705012	0.371991
685.907478	0.372510
686.109925	0.372792
686.312355	0.372976
686.514766	0.373266
686.717159	0.373541
686.919534	0.373815
687.121891	0.373821
687.324230	0.374137
687.526550	0.374332
687.728852	0.374493
687.931136	0.374528
688.133401	0.374761
688.335649	0.374824
688.537878	0.375002
688.740089	0.375086
688.942281	0.375622
689.144456	0.375689
689.346612	0.375878
689.548750	0.376108
689.750870	0.376565
689.952971	0.376470
690.155055	0.376713
690.357120	0.377065
690.559167	0.377232
690.761195	0.377524
690.963206	0.377657
691.165198	0.377662
691.367172	0.377722
691.569128	0.377616
691.771065	0.378254
691.972984	0.378374
692.174885	0.378323
692.376768	0.378594
692.578633	0.378814
692.780479	0.379120
692.982308	0.379577
693.184118	0.379820
693.385909	0.380455
