sample name	sample
index	1032
start time	 04-19-2021  12:41:55 PM


Wavelength (nm)	Absorbance
494.344910	-0.004980
494.563924	-0.004980
494.782919	-0.004980
495.001897	0.005693
495.220856	-0.006019
495.439797	0.004833
495.658719	-0.003271
495.877624	0.004626
496.096510	0.008888
496.315378	0.018033
496.534227	0.015626
496.753059	0.011182
496.971872	0.021507
497.190667	0.101926
497.409444	0.142617
497.628203	0.157749
497.846943	0.165228
498.065665	0.169148
498.284369	0.171893
498.503055	0.173285
498.721723	0.176376
498.940372	0.177711
499.159003	0.178153
499.377616	0.177645
499.596210	0.178276
499.814787	0.176997
500.033345	0.176765
500.251885	0.174454
500.470406	0.175570
500.688910	0.173552
500.907395	0.174205
501.125862	0.175134
501.344311	0.173566
501.562742	0.172390
501.781154	0.173619
501.999548	0.173309
502.217924	0.175358
502.436282	0.175809
502.654621	0.177812
502.872942	0.176904
503.091245	0.177151
503.309530	0.177319
503.527797	0.179008
503.746045	0.178651
503.964275	0.179256
504.182487	0.179293
504.400681	0.178389
504.618856	0.177273
504.837013	0.178571
505.055152	0.177503
505.273273	0.177858
505.491376	0.177436
505.709460	0.177953
505.927526	0.177335
506.145574	0.176814
506.363604	0.176764
506.581615	0.177013
506.799608	0.176363
507.017583	0.177844
507.235540	0.178854
507.453478	0.178887
507.671399	0.178699
507.889301	0.179052
508.107185	0.180370
508.325050	0.181152
508.542898	0.182231
508.760727	0.182395
508.978538	0.181976
509.196330	0.181736
509.414105	0.181368
509.631861	0.181213
509.849599	0.181827
510.067319	0.181577
510.285021	0.181763
510.502704	0.181633
510.720369	0.181722
510.938016	0.181859
511.155645	0.181894
511.373255	0.183200
511.590848	0.183635
511.808422	0.183867
512.025977	0.183857
512.243515	0.184090
512.461034	0.184830
512.678536	0.185486
512.896018	0.185741
513.113483	0.186029
513.330930	0.185323
513.548358	0.186274
513.765768	0.186686
513.983160	0.186387
514.200533	0.185566
514.417889	0.184830
514.635226	0.183658
514.852545	0.182763
515.069845	0.183639
515.287128	0.183595
515.504392	0.183912
515.721638	0.183771
515.938866	0.184045
516.156075	0.185266
516.373267	0.186033
516.590440	0.187336
516.807594	0.188573
517.024731	0.188810
517.241850	0.190123
517.458950	0.189977
517.676032	0.190484
517.893095	0.190816
518.110141	0.190626
518.327168	0.190539
518.544177	0.190280
518.761168	0.190568
518.978141	0.190542
519.195095	0.190821
519.412031	0.190234
519.628949	0.190377
519.845849	0.191340
520.062731	0.191175
520.279594	0.191664
520.496439	0.192190
520.713266	0.191976
520.930074	0.191690
521.146865	0.192067
521.363637	0.192699
521.580391	0.193006
521.797127	0.192960
522.013844	0.194474
522.230543	0.195168
522.447224	0.194863
522.663887	0.195680
522.880532	0.196301
523.097158	0.196535
523.313766	0.196558
523.530356	0.196407
523.746928	0.196987
523.963481	0.196675
524.180017	0.196615
524.396534	0.197799
524.613032	0.197643
524.829513	0.198736
525.045975	0.198737
525.262420	0.199600
525.478845	0.200954
525.695253	0.201169
525.911643	0.201360
526.128014	0.201462
526.344367	0.201829
526.560702	0.202728
526.777018	0.202293
526.993316	0.202759
527.209597	0.202964
527.425858	0.202747
527.642102	0.203075
527.858328	0.203839
528.074535	0.204052
528.290724	0.204252
528.506894	0.204444
528.723047	0.205193
528.939181	0.205857
529.155297	0.206317
529.371395	0.206233
529.587475	0.206414
529.803536	0.207070
530.019579	0.207748
530.235604	0.208183
530.451611	0.208632
530.667600	0.209044
530.883570	0.209515
531.099522	0.210184
531.315456	0.210530
531.531372	0.211311
531.747269	0.211298
531.963148	0.210993
532.179009	0.211365
532.394852	0.211445
532.610676	0.211295
532.826482	0.211042
533.042271	0.210513
533.258040	0.211673
533.473792	0.212252
533.689525	0.212261
533.905240	0.212974
534.120937	0.212757
534.336616	0.213560
534.552277	0.214327
534.767919	0.214930
534.983543	0.215771
535.199149	0.215233
535.414736	0.214934
535.630306	0.215870
535.845857	0.216345
536.061390	0.217600
536.276904	0.217760
536.492401	0.218033
536.707879	0.218054
536.923339	0.218002
537.138781	0.218593
537.354204	0.219097
537.569610	0.218701
537.784997	0.219223
538.000366	0.218783
538.215716	0.218895
538.431049	0.218601
538.646363	0.219185
538.861659	0.219175
539.076937	0.219463
539.292196	0.219606
539.507438	0.220047
539.722661	0.220078
539.937866	0.220504
540.153052	0.220890
540.368221	0.221522
540.583371	0.221485
540.798503	0.222353
541.013617	0.222145
541.228712	0.222777
541.443789	0.223303
541.658848	0.223527
541.873889	0.223958
542.088912	0.224314
542.303916	0.224622
542.518902	0.225321
542.733870	0.225602
542.948820	0.225891
543.163752	0.226161
543.378665	0.226824
543.593560	0.227509
543.808437	0.227965
544.023295	0.228194
544.238136	0.228612
544.452958	0.229008
544.667762	0.228966
544.882548	0.229629
545.097315	0.229721
545.312064	0.229469
545.526795	0.229346
545.741508	0.229516
545.956203	0.229894
546.170879	0.229974
546.385537	0.229736
546.600177	0.230217
546.814799	0.231204
547.029402	0.231582
547.243988	0.231928
547.458555	0.232291
547.673103	0.232743
547.887634	0.232950
548.102146	0.233212
548.316640	0.233585
548.531116	0.233633
548.745574	0.233060
548.960013	0.233096
549.174435	0.232896
549.388838	0.233349
549.603222	0.233098
549.817589	0.233087
550.031937	0.233514
550.246267	0.234044
550.460579	0.234489
550.674873	0.235163
550.889148	0.235113
551.103405	0.235629
551.317644	0.236421
551.531865	0.236732
551.746068	0.237118
551.960252	0.237580
552.174418	0.237424
552.388566	0.238084
552.602696	0.238449
552.816807	0.238636
553.030900	0.238655
553.244975	0.237745
553.459032	0.237347
553.673070	0.237283
553.887091	0.237048
554.101093	0.237211
554.315077	0.237071
554.529042	0.236759
554.742990	0.237283
554.956919	0.238066
555.170830	0.238475
555.384722	0.239289
555.598597	0.239720
555.812453	0.240048
556.026291	0.239868
556.240111	0.239724
556.453913	0.239942
556.667696	0.240214
556.881461	0.240019
557.095208	0.240315
557.308937	0.240824
557.522647	0.241140
557.736339	0.241476
557.950013	0.242368
558.163669	0.242991
558.377307	0.243255
558.590926	0.243386
558.804527	0.243299
559.018110	0.243444
559.231675	0.243076
559.445221	0.243108
559.658749	0.243447
559.872259	0.243102
560.085751	0.242982
560.299225	0.243420
560.512680	0.243599
560.726117	0.244181
560.939536	0.244382
561.152937	0.244644
561.366319	0.244757
561.579683	0.244330
561.793029	0.244992
562.006357	0.245092
562.219667	0.244691
562.432958	0.244756
562.646231	0.244375
562.859486	0.244688
563.072723	0.244982
563.285941	0.244760
563.499141	0.244789
563.712323	0.244811
563.925487	0.244962
564.138632	0.245141
564.351760	0.245221
564.564869	0.245701
564.777960	0.246096
564.991032	0.246024
565.204087	0.246570
565.417123	0.247223
565.630141	0.246872
565.843140	0.246847
566.056122	0.247511
566.269085	0.247592
566.482030	0.247820
566.694957	0.247590
566.907866	0.247518
567.120756	0.247267
567.333628	0.246684
567.546482	0.247256
567.759318	0.247794
567.972135	0.247734
568.184935	0.247569
568.397716	0.247342
568.610478	0.247334
568.823223	0.247559
569.035949	0.248201
569.248657	0.248573
569.461347	0.248496
569.674019	0.248541
569.886672	0.248299
570.099308	0.248488
570.311925	0.248649
570.524523	0.248514
570.737104	0.248739
570.949666	0.248752
571.162210	0.249034
571.374736	0.249170
571.587244	0.249281
571.799733	0.248951
572.012205	0.249148
572.224658	0.249322
572.437092	0.249876
572.649509	0.249620
572.861907	0.249353
573.074287	0.249708
573.286649	0.249831
573.498993	0.249838
573.711318	0.250555
573.923625	0.251175
574.135914	0.251450
574.348185	0.251547
574.560438	0.252244
574.772672	0.252134
574.984888	0.252010
575.197086	0.252065
575.409266	0.252310
575.621427	0.252413
575.833570	0.251975
576.045695	0.252070
576.257802	0.252568
576.469890	0.252587
576.681961	0.253120
576.894013	0.253318
577.106046	0.253580
577.318062	0.253397
577.530059	0.253439
577.742039	0.253464
577.954000	0.253537
578.165942	0.253280
578.377867	0.253706
578.589773	0.253838
578.801661	0.254112
579.013531	0.254253
579.225382	0.254703
579.437216	0.254912
579.649031	0.255635
579.860828	0.255928
580.072606	0.256098
580.284367	0.256002
580.496109	0.256658
580.707833	0.256427
580.919539	0.256535
581.131227	0.256410
581.342896	0.256671
581.554547	0.256538
581.766180	0.256614
581.977795	0.256593
582.189391	0.256456
582.400969	0.255975
582.612529	0.256257
582.824071	0.256371
583.035595	0.256910
583.247100	0.257167
583.458587	0.257682
583.670056	0.257856
583.881506	0.258135
584.092939	0.258641
584.304353	0.258988
584.515749	0.259262
584.727127	0.259678
584.938486	0.259911
585.149828	0.260233
585.361151	0.260093
585.572456	0.260244
585.783742	0.260452
585.995011	0.260598
586.206261	0.260836
586.417493	0.261173
586.628706	0.260941
586.839902	0.260813
587.051079	0.260782
587.262238	0.261001
587.473379	0.261403
587.684502	0.261480
587.895606	0.261696
588.106692	0.262015
588.317760	0.262051
588.528810	0.262822
588.739841	0.263193
588.950855	0.263295
589.161850	0.263519
589.372827	0.263509
589.583785	0.263887
589.794726	0.264275
590.005648	0.264143
590.216552	0.264414
590.427437	0.264361
590.638305	0.264653
590.849154	0.264637
591.059985	0.264902
591.270798	0.265177
591.481592	0.265502
591.692369	0.265234
591.903127	0.265755
592.113867	0.266070
592.324588	0.265900
592.535292	0.265900
592.745977	0.266295
592.956644	0.266373
593.167293	0.266516
593.377923	0.266741
593.588536	0.267299
593.799130	0.267294
594.009706	0.267067
594.220263	0.267301
594.430803	0.268005
594.641324	0.268509
594.851827	0.268545
595.062312	0.268732
595.272778	0.268609
595.483227	0.268902
595.693657	0.269121
595.904069	0.269432
596.114462	0.269402
596.324838	0.269004
596.535195	0.268675
596.745534	0.269001
596.955855	0.269119
597.166157	0.269240
597.376441	0.269266
597.586707	0.269410
597.796955	0.269873
598.007185	0.270353
598.217396	0.270569
598.427589	0.271171
598.637764	0.271263
598.847921	0.271547
599.058060	0.271738
599.268180	0.271921
599.478282	0.271903
599.688366	0.271685
599.898431	0.271893
600.108479	0.271977
600.318508	0.271880
600.528519	0.272200
600.738511	0.272168
600.948486	0.272084
601.158442	0.272006
601.368380	0.272394
601.578300	0.272707
601.788202	0.272589
601.998085	0.272902
602.207950	0.273178
602.417797	0.273049
602.627626	0.273546
602.837436	0.273824
603.047228	0.274292
603.257002	0.274523
603.466758	0.274395
603.676496	0.275031
603.886215	0.274917
604.095916	0.275067
604.305599	0.275328
604.515264	0.275370
604.724910	0.275581
604.934538	0.275640
605.144148	0.275870
605.353740	0.276264
605.563314	0.276590
605.772869	0.276823
605.982406	0.276878
606.191925	0.277184
606.401425	0.277298
606.610908	0.277605
606.820372	0.277615
607.029818	0.277546
607.239246	0.277751
607.448655	0.277495
607.658047	0.277908
607.867420	0.278066
608.076775	0.278000
608.286111	0.277835
608.495430	0.277808
608.704730	0.277895
608.914012	0.277817
609.123275	0.277758
609.332521	0.277725
609.541748	0.277935
609.750957	0.278050
609.960148	0.278200
610.169321	0.278435
610.378475	0.278441
610.587611	0.278515
610.796729	0.278683
611.005829	0.278761
611.214910	0.279009
611.423974	0.278554
611.633019	0.278425
611.842045	0.278464
612.051054	0.278725
612.260044	0.278926
612.469017	0.279186
612.677970	0.279664
612.886906	0.279880
613.095824	0.280102
613.304723	0.280396
613.513604	0.280711
613.722467	0.281164
613.931311	0.281282
614.140138	0.281566
614.348946	0.281738
614.557736	0.281649
614.766507	0.281743
614.975261	0.281831
615.183996	0.282180
615.392713	0.282576
615.601412	0.282485
615.810092	0.282524
616.018754	0.282426
616.227399	0.282463
616.436024	0.282667
616.644632	0.282978
616.853222	0.282904
617.061793	0.283160
617.270346	0.283108
617.478880	0.283138
617.687397	0.283368
617.895895	0.283708
618.104375	0.283737
618.312837	0.283753
618.521281	0.283477
618.729706	0.283905
618.938113	0.283786
619.146502	0.283796
619.354873	0.283623
619.563226	0.283476
619.771560	0.283483
619.979876	0.283410
620.188174	0.283481
620.396453	0.284032
620.604715	0.284059
620.812958	0.284265
621.021183	0.284249
621.229390	0.284826
621.437578	0.285425
621.645748	0.285615
621.853900	0.285737
622.062034	0.286152
622.270150	0.286106
622.478247	0.286369
622.686326	0.286461
622.894387	0.286877
623.102430	0.287109
623.310454	0.287405
623.518461	0.287572
623.726449	0.288148
623.934418	0.288101
624.142370	0.288254
624.350303	0.288312
624.558218	0.288554
624.766115	0.288692
624.973994	0.288879
625.181855	0.288476
625.389697	0.288511
625.597521	0.288622
625.805327	0.289022
626.013114	0.289263
626.220883	0.289460
626.428634	0.289373
626.636367	0.289590
626.844082	0.289720
627.051778	0.290044
627.259457	0.290535
627.467117	0.290470
627.674758	0.290602
627.882382	0.290824
628.089987	0.291354
628.297574	0.291643
628.505143	0.291832
628.712694	0.291993
628.920226	0.292196
629.127740	0.292284
629.335236	0.292999
629.542714	0.292781
629.750174	0.292900
629.957615	0.292728
630.165038	0.292821
630.372443	0.292808
630.579829	0.292840
630.787198	0.292960
630.994548	0.293144
631.201880	0.292855
631.409194	0.293228
631.616489	0.293429
631.823766	0.293360
632.031025	0.293724
632.238266	0.294169
632.445489	0.294096
632.652693	0.294401
632.859879	0.294634
633.067047	0.295039
633.274197	0.295393
633.481329	0.295368
633.688442	0.295594
633.895537	0.295817
634.102614	0.295986
634.309672	0.296458
634.516713	0.296751
634.723735	0.296633
634.930739	0.296767
635.137724	0.296887
635.344692	0.297149
635.551641	0.297331
635.758572	0.297305
635.965485	0.297180
636.172379	0.297334
636.379256	0.296998
636.586114	0.297458
636.792954	0.297491
636.999775	0.297560
637.206579	0.297780
637.413364	0.298313
637.620131	0.298423
637.826880	0.298799
638.033610	0.298729
638.240323	0.298947
638.447017	0.298786
638.653692	0.299004
638.860350	0.299505
639.066990	0.299758
639.273611	0.299566
639.480214	0.299768
639.686798	0.299817
639.893365	0.300404
640.099913	0.300671
640.306443	0.300999
640.512955	0.301282
640.719449	0.300955
640.925924	0.301183
641.132381	0.301535
641.338820	0.301838
641.545241	0.302268
641.751644	0.302211
641.958028	0.302579
642.164394	0.302569
642.370742	0.302613
642.577071	0.302898
642.783383	0.302836
642.989676	0.302935
643.195951	0.303032
643.402207	0.303000
643.608446	0.303547
643.814666	0.303699
644.020868	0.303973
644.227052	0.304220
644.433218	0.304473
644.639365	0.304737
644.845494	0.304845
645.051605	0.304871
645.257698	0.304953
645.463772	0.304512
645.669828	0.304602
645.875866	0.305119
646.081886	0.305262
646.287888	0.305310
646.493871	0.305398
646.699836	0.305921
646.905783	0.306553
647.111712	0.307033
647.317622	0.307324
647.523514	0.307837
647.729388	0.307870
647.935244	0.308204
648.141082	0.308690
648.346901	0.309438
648.552702	0.309640
648.758485	0.309765
648.964250	0.310019
649.169996	0.310616
649.375724	0.310535
649.581434	0.310405
649.787126	0.310574
649.992800	0.310727
650.198455	0.310618
650.404092	0.310773
650.609711	0.310804
650.815311	0.310451
651.020894	0.310280
651.226458	0.310336
651.432004	0.310495
651.637532	0.310357
651.843041	0.310332
652.048532	0.310270
652.254006	0.309932
652.459460	0.310132
652.664897	0.310515
652.870315	0.310686
653.075716	0.310876
653.281097	0.311257
653.486461	0.311884
653.691807	0.312058
653.897134	0.312749
654.102443	0.313274
654.307734	0.313304
654.513006	0.313797
654.718261	0.314085
654.923497	0.314269
655.128715	0.314684
655.333915	0.314388
655.539096	0.314455
655.744259	0.314468
655.949404	0.314840
656.154531	0.315271
656.359640	0.315603
656.564730	0.316123
656.769802	0.316642
656.974856	0.316732
657.179892	0.317152
657.384909	0.317854
657.589908	0.317975
657.794889	0.318128
657.999852	0.318296
658.204797	0.318568
658.409723	0.318691
658.614631	0.318843
658.819521	0.319236
659.024393	0.319670
659.229246	0.319573
659.434081	0.319811
659.638898	0.320046
659.843697	0.320242
660.048478	0.320435
660.253240	0.320531
660.457984	0.320636
660.662710	0.320748
660.867417	0.320752
661.072107	0.321278
661.276778	0.321571
661.481431	0.321686
661.686066	0.321994
661.890682	0.321992
662.095281	0.322209
662.299861	0.322410
662.504422	0.322508
662.708966	0.322695
662.913491	0.322676
663.117999	0.322641
663.322488	0.322627
663.526958	0.322916
663.731411	0.323002
663.935845	0.322994
664.140261	0.323308
664.344659	0.323619
664.549038	0.323912
664.753400	0.324082
664.957743	0.324635
665.162068	0.324876
665.366375	0.325047
665.570663	0.325425
665.774933	0.325974
665.979185	0.326154
666.183419	0.326381
666.387635	0.326692
666.591832	0.326739
666.796011	0.326879
667.000172	0.327318
667.204315	0.327585
667.408439	0.327583
667.612545	0.327649
667.816634	0.328018
668.020703	0.328263
668.224755	0.328134
668.428788	0.328495
668.632803	0.328271
668.836800	0.328308
669.040779	0.328385
669.244739	0.328663
669.448681	0.328861
669.652605	0.328693
669.856511	0.328796
670.060399	0.329339
670.264268	0.329513
670.468119	0.330030
670.671952	0.330324
670.875767	0.330668
671.079563	0.330820
671.283341	0.331180
671.487101	0.331701
671.690843	0.331925
671.894567	0.332005
672.098272	0.332563
672.301959	0.332751
672.505628	0.333022
672.709278	0.333170
672.912911	0.333507
673.116525	0.333799
673.320121	0.334274
673.523699	0.334479
673.727258	0.334695
673.930799	0.334775
674.134322	0.335037
674.337827	0.335347
674.541314	0.335660
674.744782	0.335549
674.948232	0.335401
675.151664	0.335488
675.355078	0.335792
675.558474	0.336105
675.761851	0.335994
675.965210	0.336251
676.168551	0.336574
676.371873	0.336799
676.575178	0.337522
676.778464	0.337930
676.981732	0.337875
677.184981	0.337803
677.388213	0.337856
677.591426	0.338220
677.794621	0.338292
677.997798	0.338315
678.200956	0.338234
678.404097	0.338180
678.607219	0.338226
678.810323	0.338730
679.013408	0.339186
679.216476	0.339649
679.419525	0.339766
679.622556	0.340003
679.825569	0.340196
680.028563	0.340335
680.231540	0.340457
680.434498	0.340835
680.637438	0.340835
680.840359	0.340829
681.043263	0.340746
681.246148	0.341124
681.449015	0.341105
681.651864	0.341194
681.854694	0.341552
682.057506	0.341727
682.260301	0.341757
682.463076	0.341911
682.665834	0.342047
682.868573	0.342330
683.071295	0.342431
683.273998	0.342842
683.476682	0.343182
683.679349	0.343456
683.881997	0.343727
684.084627	0.343887
684.287239	0.343887
684.489833	0.344166
684.692408	0.344346
684.894965	0.344485
685.097504	0.344477
685.300025	0.344698
685.502527	0.344655
685.705012	0.344917
685.907478	0.345325
686.109925	0.345645
686.312355	0.346065
686.514766	0.346667
686.717159	0.346873
686.919534	0.347029
687.121891	0.347177
687.324230	0.347376
687.526550	0.347642
687.728852	0.347728
687.931136	0.347952
688.133401	0.347974
688.335649	0.347912
688.537878	0.347887
688.740089	0.348046
688.942281	0.347900
689.144456	0.347897
689.346612	0.347792
689.548750	0.347995
689.750870	0.348227
689.952971	0.348185
690.155055	0.348217
690.357120	0.348733
690.559167	0.349115
690.761195	0.349438
690.963206	0.349755
691.165198	0.349868
691.367172	0.349877
691.569128	0.349763
691.771065	0.349857
691.972984	0.349642
692.174885	0.349521
692.376768	0.349440
692.578633	0.349723
692.780479	0.349930
692.982308	0.350243
693.184118	0.350162
693.385909	0.350456
