sample name	sample
index	1031
start time	 04-19-2021  12:39:19 PM


Wavelength (nm)	Absorbance
494.344910	-0.022854
494.563924	-0.022854
494.782919	-0.022854
495.001897	-0.007299
495.220856	-0.004440
495.439797	-0.002151
495.658719	-0.002668
495.877624	0.001367
496.096510	0.009250
496.315378	0.003352
496.534227	0.003032
496.753059	0.009666
496.971872	-0.004609
497.190667	0.095858
497.409444	0.136686
497.628203	0.153000
497.846943	0.161639
498.065665	0.166945
498.284369	0.171825
498.503055	0.173681
498.721723	0.177191
498.940372	0.179814
499.159003	0.180939
499.377616	0.182170
499.596210	0.183219
499.814787	0.183281
500.033345	0.184141
500.251885	0.183841
500.470406	0.184397
500.688910	0.184312
500.907395	0.183894
501.125862	0.182840
501.344311	0.183496
501.562742	0.184373
501.781154	0.185348
501.999548	0.184826
502.217924	0.184855
502.436282	0.184639
502.654621	0.183517
502.872942	0.183720
503.091245	0.184875
503.309530	0.184326
503.527797	0.182904
503.746045	0.182787
503.964275	0.183004
504.182487	0.183008
504.400681	0.184325
504.618856	0.185347
504.837013	0.185028
505.055152	0.184171
505.273273	0.184213
505.491376	0.184292
505.709460	0.185194
505.927526	0.184966
506.145574	0.185696
506.363604	0.185534
506.581615	0.185198
506.799608	0.186675
507.017583	0.187120
507.235540	0.187953
507.453478	0.188525
507.671399	0.187739
507.889301	0.188584
508.107185	0.188974
508.325050	0.189823
508.542898	0.190117
508.760727	0.190602
508.978538	0.190552
509.196330	0.190179
509.414105	0.191057
509.631861	0.191303
509.849599	0.191718
510.067319	0.190920
510.285021	0.189520
510.502704	0.189773
510.720369	0.190113
510.938016	0.190021
511.155645	0.190224
511.373255	0.190121
511.590848	0.190053
511.808422	0.189871
512.025977	0.191258
512.243515	0.191585
512.461034	0.191585
512.678536	0.190822
512.896018	0.191974
513.113483	0.192257
513.330930	0.192003
513.548358	0.192796
513.765768	0.193161
513.983160	0.193429
514.200533	0.194752
514.417889	0.195393
514.635226	0.195226
514.852545	0.195495
515.069845	0.196368
515.287128	0.197014
515.504392	0.196065
515.721638	0.196421
515.938866	0.195340
516.156075	0.195357
516.373267	0.196024
516.590440	0.197068
516.807594	0.197207
517.024731	0.197162
517.241850	0.196766
517.458950	0.198476
517.676032	0.199010
517.893095	0.199705
518.110141	0.200111
518.327168	0.199390
518.544177	0.200048
518.761168	0.200354
518.978141	0.200909
519.195095	0.201750
519.412031	0.201335
519.628949	0.202127
519.845849	0.202700
520.062731	0.203477
520.279594	0.204674
520.496439	0.204393
520.713266	0.204607
520.930074	0.204443
521.146865	0.204953
521.363637	0.205041
521.580391	0.204539
521.797127	0.204701
522.013844	0.204368
522.230543	0.204366
522.447224	0.204369
522.663887	0.204539
522.880532	0.204556
523.097158	0.203971
523.313766	0.204279
523.530356	0.204533
523.746928	0.204823
523.963481	0.204758
524.180017	0.204379
524.396534	0.205643
524.613032	0.206155
524.829513	0.206947
525.045975	0.207365
525.262420	0.208143
525.478845	0.208136
525.695253	0.208453
525.911643	0.208078
526.128014	0.208851
526.344367	0.208652
526.560702	0.209019
526.777018	0.209295
526.993316	0.210151
527.209597	0.210623
527.425858	0.211205
527.642102	0.212319
527.858328	0.213629
528.074535	0.213404
528.290724	0.213543
528.506894	0.213122
528.723047	0.213104
528.939181	0.213800
529.155297	0.213803
529.371395	0.214088
529.587475	0.213474
529.803536	0.213986
530.019579	0.214935
530.235604	0.215117
530.451611	0.216561
530.667600	0.216753
530.883570	0.216989
531.099522	0.217710
531.315456	0.217913
531.531372	0.218811
531.747269	0.218541
531.963148	0.218159
532.179009	0.219132
532.394852	0.219480
532.610676	0.220205
532.826482	0.220179
533.042271	0.220354
533.258040	0.221040
533.473792	0.221062
533.689525	0.221825
533.905240	0.222892
534.120937	0.223175
534.336616	0.222996
534.552277	0.223232
534.767919	0.223767
534.983543	0.224093
535.199149	0.224979
535.414736	0.225660
535.630306	0.226098
535.845857	0.226645
536.061390	0.226878
536.276904	0.227284
536.492401	0.227454
536.707879	0.227871
536.923339	0.227741
537.138781	0.227441
537.354204	0.227277
537.569610	0.227472
537.784997	0.227272
538.000366	0.227824
538.215716	0.228129
538.431049	0.228955
538.646363	0.228811
538.861659	0.229419
539.076937	0.229487
539.292196	0.229780
539.507438	0.230367
539.722661	0.230856
539.937866	0.230886
540.153052	0.231259
540.368221	0.231049
540.583371	0.231696
540.798503	0.231914
541.013617	0.232308
541.228712	0.232943
541.443789	0.232562
541.658848	0.233241
541.873889	0.233223
542.088912	0.233042
542.303916	0.233475
542.518902	0.233854
542.733870	0.233978
542.948820	0.233812
543.163752	0.233765
543.378665	0.234808
543.593560	0.234572
543.808437	0.234986
544.023295	0.235748
544.238136	0.236190
544.452958	0.235956
544.667762	0.237120
544.882548	0.238024
545.097315	0.238523
545.312064	0.238480
545.526795	0.238975
545.741508	0.239790
545.956203	0.240260
546.170879	0.240427
546.385537	0.240488
546.600177	0.240044
546.814799	0.239850
547.029402	0.239951
547.243988	0.240147
547.458555	0.240582
547.673103	0.240615
547.887634	0.240555
548.102146	0.240531
548.316640	0.241321
548.531116	0.241346
548.745574	0.241726
548.960013	0.242098
549.174435	0.242441
549.388838	0.242248
549.603222	0.242107
549.817589	0.242000
550.031937	0.242494
550.246267	0.242789
550.460579	0.243656
550.674873	0.243673
550.889148	0.243981
551.103405	0.244026
551.317644	0.244102
551.531865	0.244310
551.746068	0.245086
551.960252	0.245417
552.174418	0.245489
552.388566	0.245296
552.602696	0.245969
552.816807	0.245852
553.030900	0.245817
553.244975	0.246279
553.459032	0.246304
553.673070	0.246286
553.887091	0.245902
554.101093	0.245749
554.315077	0.245856
554.529042	0.245909
554.742990	0.246139
554.956919	0.246321
555.170830	0.246662
555.384722	0.246926
555.598597	0.247401
555.812453	0.248049
556.026291	0.248589
556.240111	0.248773
556.453913	0.249261
556.667696	0.249566
556.881461	0.249703
557.095208	0.249881
557.308937	0.250475
557.522647	0.250118
557.736339	0.250335
557.950013	0.250302
558.163669	0.250887
558.377307	0.250730
558.590926	0.250245
558.804527	0.250914
559.018110	0.250533
559.231675	0.250381
559.445221	0.250802
559.658749	0.250802
559.872259	0.250953
560.085751	0.250796
560.299225	0.250819
560.512680	0.251306
560.726117	0.250834
560.939536	0.251321
561.152937	0.251496
561.366319	0.251613
561.579683	0.251619
561.793029	0.251718
562.006357	0.251742
562.219667	0.252468
562.432958	0.253000
562.646231	0.253613
562.859486	0.253730
563.072723	0.253989
563.285941	0.253936
563.499141	0.254795
563.712323	0.255265
563.925487	0.255197
564.138632	0.254625
564.351760	0.254434
564.564869	0.254099
564.777960	0.254440
564.991032	0.254949
565.204087	0.255167
565.417123	0.254730
565.630141	0.254590
565.843140	0.254912
566.056122	0.254824
566.269085	0.255146
566.482030	0.255679
566.694957	0.255753
566.907866	0.255069
567.120756	0.254902
567.333628	0.254810
567.546482	0.254774
567.759318	0.255063
567.972135	0.255381
568.184935	0.255560
568.397716	0.255138
568.610478	0.255158
568.823223	0.255421
569.035949	0.255970
569.248657	0.256163
569.461347	0.256642
569.674019	0.256662
569.886672	0.257298
570.099308	0.257407
570.311925	0.258048
570.524523	0.257746
570.737104	0.257770
570.949666	0.257924
571.162210	0.258104
571.374736	0.257990
571.587244	0.257969
571.799733	0.257601
572.012205	0.257643
572.224658	0.257461
572.437092	0.257669
572.649509	0.257713
572.861907	0.257676
573.074287	0.258000
573.286649	0.257975
573.498993	0.258111
573.711318	0.258410
573.923625	0.258681
574.135914	0.259290
574.348185	0.260030
574.560438	0.260815
574.772672	0.260699
574.984888	0.260988
575.197086	0.261264
575.409266	0.261881
575.621427	0.261978
575.833570	0.262156
576.045695	0.261984
576.257802	0.261569
576.469890	0.261321
576.681961	0.261977
576.894013	0.262037
577.106046	0.262533
577.318062	0.262619
577.530059	0.262771
577.742039	0.262540
577.954000	0.263175
578.165942	0.263858
578.377867	0.264185
578.589773	0.264161
578.801661	0.264300
579.013531	0.264336
579.225382	0.263967
579.437216	0.264236
579.649031	0.264622
579.860828	0.264500
580.072606	0.264698
580.284367	0.264939
580.496109	0.265070
580.707833	0.265169
580.919539	0.265563
581.131227	0.265872
581.342896	0.265776
581.554547	0.265751
581.766180	0.265640
581.977795	0.265880
582.189391	0.266222
582.400969	0.266494
582.612529	0.266393
582.824071	0.266527
583.035595	0.266730
583.247100	0.267198
583.458587	0.267137
583.670056	0.267788
583.881506	0.267174
584.092939	0.267357
584.304353	0.267647
584.515749	0.268073
584.727127	0.268211
584.938486	0.268612
585.149828	0.268704
585.361151	0.269535
585.572456	0.269520
585.783742	0.270284
585.995011	0.270203
586.206261	0.270207
586.417493	0.270256
586.628706	0.270209
586.839902	0.270393
587.051079	0.270669
587.262238	0.270223
587.473379	0.270373
587.684502	0.270160
587.895606	0.270347
588.106692	0.270489
588.317760	0.270584
588.528810	0.271185
588.739841	0.271723
588.950855	0.271810
589.161850	0.272063
589.372827	0.272133
589.583785	0.272587
589.794726	0.272635
590.005648	0.272856
590.216552	0.273586
590.427437	0.273510
590.638305	0.273212
590.849154	0.273389
591.059985	0.274107
591.270798	0.274260
591.481592	0.274302
591.692369	0.274607
591.903127	0.274850
592.113867	0.274573
592.324588	0.274837
592.535292	0.275062
592.745977	0.275534
592.956644	0.275808
593.167293	0.276052
593.377923	0.276340
593.588536	0.276263
593.799130	0.276395
594.009706	0.276667
594.220263	0.276693
594.430803	0.276771
594.641324	0.276719
594.851827	0.276709
595.062312	0.276723
595.272778	0.277052
595.483227	0.277340
595.693657	0.277245
595.904069	0.277278
596.114462	0.277751
596.324838	0.278199
596.535195	0.278495
596.745534	0.278388
596.955855	0.278843
597.166157	0.278787
597.376441	0.279177
597.586707	0.279545
597.796955	0.279833
598.007185	0.279822
598.217396	0.279757
598.427589	0.279837
598.637764	0.280210
598.847921	0.280493
599.058060	0.280921
599.268180	0.280816
599.478282	0.281034
599.688366	0.280843
599.898431	0.280846
600.108479	0.281028
600.318508	0.281039
600.528519	0.281314
600.738511	0.281227
600.948486	0.281459
601.158442	0.281794
601.368380	0.281666
601.578300	0.281931
601.788202	0.282112
601.998085	0.282557
602.207950	0.282489
602.417797	0.282395
602.627626	0.282754
602.837436	0.282550
603.047228	0.282534
603.257002	0.283140
603.466758	0.283637
603.676496	0.284125
603.886215	0.283992
604.095916	0.284717
604.305599	0.284750
604.515264	0.284374
604.724910	0.284483
604.934538	0.284845
605.144148	0.284937
605.353740	0.284670
605.563314	0.284609
605.772869	0.284518
605.982406	0.284467
606.191925	0.284742
606.401425	0.285122
606.610908	0.285359
606.820372	0.285458
607.029818	0.285111
607.239246	0.285768
607.448655	0.286026
607.658047	0.286557
607.867420	0.286457
608.076775	0.286577
608.286111	0.287008
608.495430	0.287160
608.704730	0.287235
608.914012	0.287761
609.123275	0.287577
609.332521	0.287420
609.541748	0.287395
609.750957	0.287632
609.960148	0.287543
610.169321	0.287274
610.378475	0.287416
610.587611	0.287540
610.796729	0.287486
611.005829	0.287500
611.214910	0.287619
611.423974	0.287478
611.633019	0.287372
611.842045	0.287979
612.051054	0.288058
612.260044	0.287999
612.469017	0.288078
612.677970	0.288650
612.886906	0.288508
613.095824	0.288710
613.304723	0.289042
613.513604	0.289425
613.722467	0.289480
613.931311	0.289819
614.140138	0.290108
614.348946	0.290474
614.557736	0.290339
614.766507	0.290951
614.975261	0.291141
615.183996	0.291035
615.392713	0.291350
615.601412	0.291255
615.810092	0.291466
616.018754	0.291904
616.227399	0.291701
616.436024	0.291968
616.644632	0.291950
616.853222	0.291910
617.061793	0.292461
617.270346	0.292334
617.478880	0.292376
617.687397	0.292637
617.895895	0.292674
618.104375	0.292889
618.312837	0.292636
618.521281	0.292960
618.729706	0.293377
618.938113	0.293470
619.146502	0.293440
619.354873	0.293868
619.563226	0.293990
619.771560	0.294006
619.979876	0.294354
620.188174	0.294406
620.396453	0.294455
620.604715	0.294587
620.812958	0.294983
621.021183	0.295519
621.229390	0.295658
621.437578	0.295841
621.645748	0.295949
621.853900	0.296328
622.062034	0.296665
622.270150	0.296917
622.478247	0.296974
622.686326	0.296825
622.894387	0.296842
623.102430	0.297084
623.310454	0.297007
623.518461	0.297467
623.726449	0.297304
623.934418	0.297686
624.142370	0.297945
624.350303	0.298021
624.558218	0.298235
624.766115	0.298361
624.973994	0.298505
625.181855	0.298677
625.389697	0.298320
625.597521	0.298643
625.805327	0.298611
626.013114	0.298590
626.220883	0.298730
626.428634	0.298526
626.636367	0.298690
626.844082	0.298629
627.051778	0.298810
627.259457	0.299099
627.467117	0.299166
627.674758	0.299467
627.882382	0.299825
628.089987	0.300177
628.297574	0.300533
628.505143	0.300718
628.712694	0.301062
628.920226	0.301352
629.127740	0.301564
629.335236	0.301560
629.542714	0.301652
629.750174	0.301832
629.957615	0.302108
630.165038	0.302527
630.372443	0.302757
630.579829	0.302746
630.787198	0.302798
630.994548	0.302887
631.201880	0.303047
631.409194	0.303541
631.616489	0.303733
631.823766	0.303523
632.031025	0.303593
632.238266	0.303774
632.445489	0.303768
632.652693	0.304084
632.859879	0.304399
633.067047	0.304637
633.274197	0.304690
633.481329	0.304762
633.688442	0.305140
633.895537	0.305252
634.102614	0.305339
634.309672	0.305979
634.516713	0.306237
634.723735	0.306465
634.930739	0.306623
635.137724	0.306522
635.344692	0.306658
635.551641	0.306771
635.758572	0.307099
635.965485	0.307292
636.172379	0.307238
636.379256	0.307404
636.586114	0.307690
636.792954	0.307672
636.999775	0.307892
637.206579	0.307888
637.413364	0.307832
637.620131	0.308031
637.826880	0.308095
638.033610	0.308449
638.240323	0.308501
638.447017	0.308548
638.653692	0.308671
638.860350	0.308750
639.066990	0.308705
639.273611	0.308959
639.480214	0.308773
639.686798	0.309027
639.893365	0.309097
640.099913	0.309400
640.306443	0.309358
640.512955	0.309597
640.719449	0.309900
640.925924	0.310409
641.132381	0.310681
641.338820	0.311157
641.545241	0.311342
641.751644	0.311362
641.958028	0.311442
642.164394	0.311766
642.370742	0.312170
642.577071	0.311999
642.783383	0.312400
642.989676	0.312525
643.195951	0.312702
643.402207	0.312673
643.608446	0.312971
643.814666	0.313137
644.020868	0.313257
644.227052	0.313581
644.433218	0.314215
644.639365	0.314154
644.845494	0.314140
645.051605	0.314161
645.257698	0.314676
645.463772	0.314799
645.669828	0.314846
645.875866	0.314975
646.081886	0.315318
646.287888	0.315601
646.493871	0.316128
646.699836	0.316204
646.905783	0.316635
647.111712	0.316752
647.317622	0.317125
647.523514	0.317289
647.729388	0.317681
647.935244	0.317540
648.141082	0.317655
648.346901	0.317943
648.552702	0.318510
648.758485	0.318743
648.964250	0.319078
649.169996	0.318988
649.375724	0.319385
649.581434	0.319681
649.787126	0.319969
649.992800	0.320095
650.198455	0.319883
650.404092	0.320119
650.609711	0.320097
650.815311	0.320204
651.020894	0.320488
651.226458	0.320405
651.432004	0.320511
651.637532	0.320401
651.843041	0.320459
652.048532	0.320358
652.254006	0.320574
652.459460	0.320896
652.664897	0.321129
652.870315	0.321370
653.075716	0.321707
653.281097	0.321942
653.486461	0.322477
653.691807	0.323000
653.897134	0.323440
654.102443	0.323610
654.307734	0.324125
654.513006	0.324300
654.718261	0.324593
654.923497	0.325031
655.128715	0.325296
655.333915	0.325498
655.539096	0.325644
655.744259	0.325680
655.949404	0.326078
656.154531	0.325847
656.359640	0.325965
656.564730	0.326324
656.769802	0.326258
656.974856	0.326416
657.179892	0.326862
657.384909	0.327203
657.589908	0.327753
657.794889	0.327885
657.999852	0.328419
658.204797	0.328732
658.409723	0.328952
658.614631	0.329391
658.819521	0.329362
659.024393	0.329332
659.229246	0.329477
659.434081	0.329388
659.638898	0.329643
659.843697	0.329621
660.048478	0.330101
660.253240	0.330148
660.457984	0.330200
660.662710	0.330609
660.867417	0.330704
661.072107	0.330620
661.276778	0.330827
661.481431	0.330814
661.686066	0.330971
661.890682	0.330984
662.095281	0.331055
662.299861	0.331370
662.504422	0.331592
662.708966	0.331916
662.913491	0.332271
663.117999	0.332497
663.322488	0.332904
663.526958	0.333171
663.731411	0.333275
663.935845	0.333446
664.140261	0.333474
664.344659	0.333684
664.549038	0.333734
664.753400	0.333941
664.957743	0.334065
665.162068	0.334407
665.366375	0.334583
665.570663	0.334739
665.774933	0.334918
665.979185	0.335379
666.183419	0.335742
666.387635	0.336106
666.591832	0.336220
666.796011	0.336839
667.000172	0.336813
667.204315	0.337159
667.408439	0.337623
667.612545	0.338073
667.816634	0.338224
668.020703	0.338395
668.224755	0.338579
668.428788	0.338824
668.632803	0.338932
668.836800	0.339132
669.040779	0.339120
669.244739	0.339110
669.448681	0.339110
669.652605	0.339338
669.856511	0.339144
670.060399	0.339477
670.264268	0.339613
670.468119	0.339460
670.671952	0.339852
670.875767	0.340246
671.079563	0.340537
671.283341	0.340780
671.487101	0.340862
671.690843	0.341284
671.894567	0.341344
672.098272	0.341711
672.301959	0.342391
672.505628	0.342324
672.709278	0.342548
672.912911	0.342516
673.116525	0.342750
673.320121	0.342923
673.523699	0.343213
673.727258	0.343578
673.930799	0.343840
674.134322	0.343815
674.337827	0.344246
674.541314	0.344333
674.744782	0.344633
674.948232	0.344747
675.151664	0.344969
675.355078	0.345174
675.558474	0.345402
675.761851	0.345390
675.965210	0.345611
676.168551	0.345734
676.371873	0.346074
676.575178	0.346378
676.778464	0.346759
676.981732	0.347156
677.184981	0.347207
677.388213	0.347270
677.591426	0.347621
677.794621	0.347874
677.997798	0.348171
678.200956	0.348228
678.404097	0.348471
678.607219	0.348687
678.810323	0.348690
679.013408	0.348899
679.216476	0.349107
679.419525	0.349047
679.622556	0.348824
679.825569	0.348782
680.028563	0.348786
680.231540	0.348880
680.434498	0.349068
680.637438	0.349150
680.840359	0.349348
681.043263	0.349660
681.246148	0.350039
681.449015	0.350557
681.651864	0.350670
681.854694	0.351110
682.057506	0.351373
682.260301	0.351448
682.463076	0.351970
682.665834	0.352330
682.868573	0.352341
683.071295	0.352198
683.273998	0.352250
683.476682	0.352637
683.679349	0.352588
683.881997	0.352706
684.084627	0.352738
684.287239	0.352724
684.489833	0.352782
684.692408	0.352902
684.894965	0.353466
685.097504	0.353999
685.300025	0.354198
685.502527	0.354533
685.705012	0.354826
685.907478	0.355366
686.109925	0.355633
686.312355	0.356051
686.514766	0.356233
686.717159	0.356260
686.919534	0.356450
687.121891	0.356774
687.324230	0.357004
687.526550	0.357155
687.728852	0.356981
687.931136	0.357203
688.133401	0.357086
688.335649	0.357295
688.537878	0.357610
688.740089	0.357740
688.942281	0.357827
689.144456	0.358048
689.346612	0.358081
689.548750	0.358406
689.750870	0.358492
689.952971	0.358444
690.155055	0.358748
690.357120	0.358930
690.559167	0.359040
690.761195	0.358939
690.963206	0.359091
691.165198	0.359190
691.367172	0.359489
691.569128	0.359645
691.771065	0.360149
691.972984	0.360169
692.174885	0.360117
692.376768	0.359984
692.578633	0.360311
692.780479	0.360615
692.982308	0.360590
693.184118	0.360831
693.385909	0.360868
