sample name	sample
index	593
start time	 03-16-2021  04:39:11 PM


Wavelength (nm)	Absorbance
494.344910	-0.188658
494.563924	-0.188658
494.782919	-0.188658
495.001897	-0.418966
495.220856	-0.245514
495.439797	-0.230311
495.658719	-0.240481
495.877624	-0.224082
496.096510	-0.174363
496.315378	-0.213263
496.534227	-0.160955
496.753059	-0.162615
496.971872	-0.085752
497.190667	0.124156
497.409444	0.138900
497.628203	0.143536
497.846943	0.146433
498.065665	0.150162
498.284369	0.151795
498.503055	0.152193
498.721723	0.151202
498.940372	0.151707
499.159003	0.151134
499.377616	0.151485
499.596210	0.153308
499.814787	0.153778
500.033345	0.153991
500.251885	0.153345
500.470406	0.152682
500.688910	0.153857
500.907395	0.153986
501.125862	0.153334
501.344311	0.154801
501.562742	0.154198
501.781154	0.153611
501.999548	0.152241
502.217924	0.152969
502.436282	0.154970
502.654621	0.155970
502.872942	0.154642
503.091245	0.154215
503.309530	0.153652
503.527797	0.153349
503.746045	0.153434
503.964275	0.152557
504.182487	0.150882
504.400681	0.148490
504.618856	0.147526
504.837013	0.148967
505.055152	0.149995
505.273273	0.149036
505.491376	0.149897
505.709460	0.150721
505.927526	0.151384
506.145574	0.152624
506.363604	0.153901
506.581615	0.154519
506.799608	0.153858
507.017583	0.153117
507.235540	0.154455
507.453478	0.154459
507.671399	0.154055
507.889301	0.155532
508.107185	0.156623
508.325050	0.157739
508.542898	0.157831
508.760727	0.157620
508.978538	0.158094
509.196330	0.158169
509.414105	0.157169
509.631861	0.156971
509.849599	0.157747
510.067319	0.157560
510.285021	0.157268
510.502704	0.157313
510.720369	0.158490
510.938016	0.158973
511.155645	0.158958
511.373255	0.159477
511.590848	0.159764
511.808422	0.158717
512.025977	0.159349
512.243515	0.158739
512.461034	0.159158
512.678536	0.158144
512.896018	0.158033
513.113483	0.157767
513.330930	0.158807
513.548358	0.160144
513.765768	0.160144
513.983160	0.159899
514.200533	0.160025
514.417889	0.160132
514.635226	0.160234
514.852545	0.161323
515.069845	0.161364
515.287128	0.160900
515.504392	0.160910
515.721638	0.161554
515.938866	0.162173
516.156075	0.161673
516.373267	0.162046
516.590440	0.163885
516.807594	0.163602
517.024731	0.164783
517.241850	0.164902
517.458950	0.164820
517.676032	0.165000
517.893095	0.164801
518.110141	0.165639
518.327168	0.165421
518.544177	0.165171
518.761168	0.164324
518.978141	0.163384
519.195095	0.163203
519.412031	0.163495
519.628949	0.162884
519.845849	0.162907
520.062731	0.162654
520.279594	0.163568
520.496439	0.163842
520.713266	0.164072
520.930074	0.164364
521.146865	0.164453
521.363637	0.164138
521.580391	0.165047
521.797127	0.165091
522.013844	0.166345
522.230543	0.166343
522.447224	0.166096
522.663887	0.167422
522.880532	0.168725
523.097158	0.169030
523.313766	0.169332
523.530356	0.169935
523.746928	0.170097
523.963481	0.169969
524.180017	0.169326
524.396534	0.169214
524.613032	0.169237
524.829513	0.169575
525.045975	0.169494
525.262420	0.170108
525.478845	0.169420
525.695253	0.169844
525.911643	0.169914
526.128014	0.170840
526.344367	0.171445
526.560702	0.171455
526.777018	0.170795
526.993316	0.171410
527.209597	0.170775
527.425858	0.171185
527.642102	0.171383
527.858328	0.171619
528.074535	0.171787
528.290724	0.171987
528.506894	0.172866
528.723047	0.173429
528.939181	0.174265
529.155297	0.175638
529.371395	0.175845
529.587475	0.177110
529.803536	0.178229
530.019579	0.178256
530.235604	0.178260
530.451611	0.177877
530.667600	0.177914
530.883570	0.177776
531.099522	0.177299
531.315456	0.177459
531.531372	0.176897
531.747269	0.177394
531.963148	0.178022
532.179009	0.178574
532.394852	0.179134
532.610676	0.178721
532.826482	0.179242
533.042271	0.179727
533.258040	0.179825
533.473792	0.180369
533.689525	0.179668
533.905240	0.179656
534.120937	0.179281
534.336616	0.179089
534.552277	0.180431
534.767919	0.180755
534.983543	0.180726
535.199149	0.181332
535.414736	0.180723
535.630306	0.181207
535.845857	0.181404
536.061390	0.182483
536.276904	0.183089
536.492401	0.183340
536.707879	0.183820
536.923339	0.184410
537.138781	0.184369
537.354204	0.184915
537.569610	0.185062
537.784997	0.184683
538.000366	0.184864
538.215716	0.184583
538.431049	0.184478
538.646363	0.184596
538.861659	0.184865
539.076937	0.185585
539.292196	0.185547
539.507438	0.186002
539.722661	0.186956
539.937866	0.187386
540.153052	0.188346
540.368221	0.188311
540.583371	0.188183
540.798503	0.188071
541.013617	0.187592
541.228712	0.188142
541.443789	0.188160
541.658848	0.188407
541.873889	0.188532
542.088912	0.188487
542.303916	0.189056
542.518902	0.189295
542.733870	0.190072
542.948820	0.190320
543.163752	0.190810
543.378665	0.191496
543.593560	0.192205
543.808437	0.191939
544.023295	0.192763
544.238136	0.192517
544.452958	0.192948
544.667762	0.192453
544.882548	0.192560
545.097315	0.193001
545.312064	0.193221
545.526795	0.192855
545.741508	0.193369
545.956203	0.193067
546.170879	0.193593
546.385537	0.193157
546.600177	0.193942
546.814799	0.194575
547.029402	0.194799
547.243988	0.194573
547.458555	0.194433
547.673103	0.194660
547.887634	0.194924
548.102146	0.194804
548.316640	0.195408
548.531116	0.195936
548.745574	0.196484
548.960013	0.196531
549.174435	0.196850
549.388838	0.197324
549.603222	0.197121
549.817589	0.197707
550.031937	0.198039
550.246267	0.198254
550.460579	0.197928
550.674873	0.198447
550.889148	0.198953
551.103405	0.198945
551.317644	0.199188
551.531865	0.199846
551.746068	0.200211
551.960252	0.200657
552.174418	0.201695
552.388566	0.202179
552.602696	0.202069
552.816807	0.201706
553.030900	0.202134
553.244975	0.202567
553.459032	0.202543
553.673070	0.202227
553.887091	0.202077
554.101093	0.201122
554.315077	0.200777
554.529042	0.200424
554.742990	0.200432
554.956919	0.200773
555.170830	0.200560
555.384722	0.201186
555.598597	0.200967
555.812453	0.201805
556.026291	0.202294
556.240111	0.203216
556.453913	0.203641
556.667696	0.203776
556.881461	0.203770
557.095208	0.204070
557.308937	0.203821
557.522647	0.204142
557.736339	0.203923
557.950013	0.204056
558.163669	0.203888
558.377307	0.203762
558.590926	0.204855
558.804527	0.204602
559.018110	0.205073
559.231675	0.205570
559.445221	0.206026
559.658749	0.206229
559.872259	0.206745
560.085751	0.206914
560.299225	0.207399
560.512680	0.207330
560.726117	0.208437
560.939536	0.208041
561.152937	0.207987
561.366319	0.208423
561.579683	0.208267
561.793029	0.207992
562.006357	0.208283
562.219667	0.208454
562.432958	0.207755
562.646231	0.207072
562.859486	0.207767
563.072723	0.207472
563.285941	0.207314
563.499141	0.207981
563.712323	0.208282
563.925487	0.208410
564.138632	0.208634
564.351760	0.209559
564.564869	0.210166
564.777960	0.210043
564.991032	0.210743
565.204087	0.210449
565.417123	0.210552
565.630141	0.210984
565.843140	0.211238
566.056122	0.211572
566.269085	0.211683
566.482030	0.211372
566.694957	0.211782
566.907866	0.211712
567.120756	0.212234
567.333628	0.211703
567.546482	0.211164
567.759318	0.210774
567.972135	0.211025
568.184935	0.211019
568.397716	0.211069
568.610478	0.211475
568.823223	0.211956
569.035949	0.212555
569.248657	0.213015
569.461347	0.213732
569.674019	0.214260
569.886672	0.213903
570.099308	0.213925
570.311925	0.214081
570.524523	0.214174
570.737104	0.213803
570.949666	0.213457
571.162210	0.213253
571.374736	0.213522
571.587244	0.213566
571.799733	0.213860
572.012205	0.213919
572.224658	0.214284
572.437092	0.213578
572.649509	0.213792
572.861907	0.214216
573.074287	0.214934
573.286649	0.215156
573.498993	0.215191
573.711318	0.215298
573.923625	0.215644
574.135914	0.215611
574.348185	0.216000
574.560438	0.216217
574.772672	0.215479
574.984888	0.216041
575.197086	0.216239
575.409266	0.216406
575.621427	0.216657
575.833570	0.216891
576.045695	0.217204
576.257802	0.217605
576.469890	0.217745
576.681961	0.218579
576.894013	0.218848
577.106046	0.218573
577.318062	0.218795
577.530059	0.218735
577.742039	0.218610
577.954000	0.218748
578.165942	0.218357
578.377867	0.218786
578.589773	0.218721
578.801661	0.218478
579.013531	0.218711
579.225382	0.218414
579.437216	0.218722
579.649031	0.218447
579.860828	0.218549
580.072606	0.218646
580.284367	0.218171
580.496109	0.218541
580.707833	0.218210
580.919539	0.218171
581.131227	0.218335
581.342896	0.218246
581.554547	0.219176
581.766180	0.219709
581.977795	0.220141
582.189391	0.220550
582.400969	0.220530
582.612529	0.220682
582.824071	0.220563
583.035595	0.220995
583.247100	0.221286
583.458587	0.220836
583.670056	0.220360
583.881506	0.220860
584.092939	0.220899
584.304353	0.221216
584.515749	0.221449
584.727127	0.221897
584.938486	0.221939
585.149828	0.221673
585.361151	0.222221
585.572456	0.222526
585.783742	0.222279
585.995011	0.222690
586.206261	0.222618
586.417493	0.222668
586.628706	0.222021
586.839902	0.222058
587.051079	0.222972
587.262238	0.223185
587.473379	0.223703
587.684502	0.224081
587.895606	0.224196
588.106692	0.223932
588.317760	0.224221
588.528810	0.224990
588.739841	0.225281
588.950855	0.225181
589.161850	0.225255
589.372827	0.225123
589.583785	0.225250
589.794726	0.225151
590.005648	0.225764
590.216552	0.226110
590.427437	0.226749
590.638305	0.226778
590.849154	0.226948
591.059985	0.226889
591.270798	0.226896
591.481592	0.226969
591.692369	0.227178
591.903127	0.226918
592.113867	0.226697
592.324588	0.226490
592.535292	0.226643
592.745977	0.226778
592.956644	0.226580
593.167293	0.226653
593.377923	0.226430
593.588536	0.226832
593.799130	0.227310
594.009706	0.227669
594.220263	0.228052
594.430803	0.228047
594.641324	0.227914
594.851827	0.228377
595.062312	0.228679
595.272778	0.229378
595.483227	0.229586
595.693657	0.229791
595.904069	0.229863
596.114462	0.229536
596.324838	0.229709
596.535195	0.230310
596.745534	0.230484
596.955855	0.230803
597.166157	0.231046
597.376441	0.230838
597.586707	0.231147
597.796955	0.231235
598.007185	0.231656
598.217396	0.231787
598.427589	0.231505
598.637764	0.231501
598.847921	0.231625
599.058060	0.231218
599.268180	0.231639
599.478282	0.231206
599.688366	0.231595
599.898431	0.231868
600.108479	0.232195
600.318508	0.232579
600.528519	0.232741
600.738511	0.232796
600.948486	0.233104
601.158442	0.233004
601.368380	0.233465
601.578300	0.233502
601.788202	0.233627
601.998085	0.233989
602.207950	0.233652
602.417797	0.234029
602.627626	0.234352
602.837436	0.234799
603.047228	0.235270
603.257002	0.235206
603.466758	0.235150
603.676496	0.235143
603.886215	0.234797
604.095916	0.235189
604.305599	0.234918
604.515264	0.234467
604.724910	0.234732
604.934538	0.234564
605.144148	0.234772
605.353740	0.234988
605.563314	0.235170
605.772869	0.235250
605.982406	0.235414
606.191925	0.235541
606.401425	0.236213
606.610908	0.235999
606.820372	0.236676
607.029818	0.236854
607.239246	0.236951
607.448655	0.237009
607.658047	0.237610
607.867420	0.237885
608.076775	0.238212
608.286111	0.237910
608.495430	0.237505
608.704730	0.237244
608.914012	0.237536
609.123275	0.237885
609.332521	0.237901
609.541748	0.238252
609.750957	0.238198
609.960148	0.238340
610.169321	0.238816
610.378475	0.239230
610.587611	0.239159
610.796729	0.239143
611.005829	0.239245
611.214910	0.239598
611.423974	0.238988
611.633019	0.239059
611.842045	0.238867
612.051054	0.238870
612.260044	0.239039
612.469017	0.239234
612.677970	0.239390
612.886906	0.239519
613.095824	0.239630
613.304723	0.240083
613.513604	0.240368
613.722467	0.240901
613.931311	0.240715
614.140138	0.241301
614.348946	0.241299
614.557736	0.241725
614.766507	0.242005
614.975261	0.241782
615.183996	0.242109
615.392713	0.241971
615.601412	0.241997
615.810092	0.242393
616.018754	0.242280
616.227399	0.241971
616.436024	0.241487
616.644632	0.241351
616.853222	0.241716
617.061793	0.242004
617.270346	0.242479
617.478880	0.242637
617.687397	0.242986
617.895895	0.243197
618.104375	0.243913
618.312837	0.244283
618.521281	0.244558
618.729706	0.244590
618.938113	0.244206
619.146502	0.244266
619.354873	0.244484
619.563226	0.244329
619.771560	0.244529
619.979876	0.244804
620.188174	0.245007
620.396453	0.245024
620.604715	0.245264
620.812958	0.245674
621.021183	0.245634
621.229390	0.245670
621.437578	0.245833
621.645748	0.245629
621.853900	0.245660
622.062034	0.245984
622.270150	0.246164
622.478247	0.246590
622.686326	0.246677
622.894387	0.247130
623.102430	0.247547
623.310454	0.247735
623.518461	0.247957
623.726449	0.248120
623.934418	0.248011
624.142370	0.248089
624.350303	0.247716
624.558218	0.247929
624.766115	0.247893
624.973994	0.247757
625.181855	0.247868
625.389697	0.248046
625.597521	0.248221
625.805327	0.248428
626.013114	0.248800
626.220883	0.248939
626.428634	0.248903
626.636367	0.249058
626.844082	0.249259
627.051778	0.249566
627.259457	0.249500
627.467117	0.249418
627.674758	0.249619
627.882382	0.249275
628.089987	0.249712
628.297574	0.250122
628.505143	0.250228
628.712694	0.250190
628.920226	0.249969
629.127740	0.250301
629.335236	0.250380
629.542714	0.250359
629.750174	0.250626
629.957615	0.250473
630.165038	0.250345
630.372443	0.250253
630.579829	0.250602
630.787198	0.251114
630.994548	0.251332
631.201880	0.251546
631.409194	0.251969
631.616489	0.252256
631.823766	0.252404
632.031025	0.252746
632.238266	0.253135
632.445489	0.253331
632.652693	0.253382
632.859879	0.253425
633.067047	0.253822
633.274197	0.253809
633.481329	0.253896
633.688442	0.254261
633.895537	0.254114
634.102614	0.254390
634.309672	0.254528
634.516713	0.254512
634.723735	0.254506
634.930739	0.254422
635.137724	0.254627
635.344692	0.254822
635.551641	0.254872
635.758572	0.255568
635.965485	0.255444
636.172379	0.255710
636.379256	0.255980
636.586114	0.256121
636.792954	0.256368
636.999775	0.256365
637.206579	0.256424
637.413364	0.256621
637.620131	0.256393
637.826880	0.256395
638.033610	0.256416
638.240323	0.256632
638.447017	0.256891
638.653692	0.256852
638.860350	0.257303
639.066990	0.257663
639.273611	0.258003
639.480214	0.258020
639.686798	0.258043
639.893365	0.258122
640.099913	0.258166
640.306443	0.258347
640.512955	0.258809
640.719449	0.258532
640.925924	0.258488
641.132381	0.258226
641.338820	0.258543
641.545241	0.259005
641.751644	0.259060
641.958028	0.259115
642.164394	0.259577
642.370742	0.259494
642.577071	0.259533
642.783383	0.259760
642.989676	0.259952
643.195951	0.259958
643.402207	0.260022
643.608446	0.260389
643.814666	0.260707
644.020868	0.260192
644.227052	0.260458
644.433218	0.260736
644.639365	0.260978
644.845494	0.261214
645.051605	0.261175
645.257698	0.261216
645.463772	0.261359
645.669828	0.261521
645.875866	0.262229
646.081886	0.262064
646.287888	0.262175
646.493871	0.262172
646.699836	0.262451
646.905783	0.262928
647.111712	0.263546
647.317622	0.263445
647.523514	0.263295
647.729388	0.263248
647.935244	0.263833
648.141082	0.264113
648.346901	0.264490
648.552702	0.264595
648.758485	0.264782
648.964250	0.265020
649.169996	0.265171
649.375724	0.265478
649.581434	0.265601
649.787126	0.265683
649.992800	0.266001
650.198455	0.265840
650.404092	0.265954
650.609711	0.265702
650.815311	0.265406
651.020894	0.265522
651.226458	0.265925
651.432004	0.266274
651.637532	0.266452
651.843041	0.266560
652.048532	0.266701
652.254006	0.266873
652.459460	0.267594
652.664897	0.267601
652.870315	0.267713
653.075716	0.267750
653.281097	0.267712
653.486461	0.267747
653.691807	0.267771
653.897134	0.268188
654.102443	0.268281
654.307734	0.268447
654.513006	0.268804
654.718261	0.268940
654.923497	0.268631
655.128715	0.268597
655.333915	0.268794
655.539096	0.268938
655.744259	0.269193
655.949404	0.269695
656.154531	0.269838
656.359640	0.269954
656.564730	0.270208
656.769802	0.270782
656.974856	0.271291
657.179892	0.271584
657.384909	0.271979
657.589908	0.271912
657.794889	0.271695
657.999852	0.271642
658.204797	0.271919
658.409723	0.272227
658.614631	0.272648
658.819521	0.272678
659.024393	0.272748
659.229246	0.273134
659.434081	0.273322
659.638898	0.273681
659.843697	0.273972
660.048478	0.274259
660.253240	0.274588
660.457984	0.274559
660.662710	0.275082
660.867417	0.275468
661.072107	0.275414
661.276778	0.275623
661.481431	0.275677
661.686066	0.275755
661.890682	0.275829
662.095281	0.276166
662.299861	0.276453
662.504422	0.276403
662.708966	0.276325
662.913491	0.276517
663.117999	0.276781
663.322488	0.277254
663.526958	0.277664
663.731411	0.278178
663.935845	0.278004
664.140261	0.277966
664.344659	0.278181
664.549038	0.278730
664.753400	0.278678
664.957743	0.278848
665.162068	0.279168
665.366375	0.279161
665.570663	0.279013
665.774933	0.279144
665.979185	0.279459
666.183419	0.279657
666.387635	0.279707
666.591832	0.280013
666.796011	0.280050
667.000172	0.280015
667.204315	0.280190
667.408439	0.280514
667.612545	0.280851
667.816634	0.281193
668.020703	0.281354
668.224755	0.281408
668.428788	0.281514
668.632803	0.281917
668.836800	0.282047
669.040779	0.282162
669.244739	0.282121
669.448681	0.282272
669.652605	0.282420
669.856511	0.282812
670.060399	0.282846
670.264268	0.283344
670.468119	0.283368
670.671952	0.283337
670.875767	0.283619
671.079563	0.284022
671.283341	0.284289
671.487101	0.284535
671.690843	0.284367
671.894567	0.284843
672.098272	0.284826
672.301959	0.285324
672.505628	0.285837
672.709278	0.285836
672.912911	0.286029
673.116525	0.286211
673.320121	0.286563
673.523699	0.287205
673.727258	0.287282
673.930799	0.287575
674.134322	0.287623
674.337827	0.287619
674.541314	0.288194
674.744782	0.288472
674.948232	0.288692
675.151664	0.288851
675.355078	0.289158
675.558474	0.289063
675.761851	0.289436
675.965210	0.289508
676.168551	0.289629
676.371873	0.289541
676.575178	0.289632
676.778464	0.289734
676.981732	0.289616
677.184981	0.289340
677.388213	0.289936
677.591426	0.289951
677.794621	0.290197
677.997798	0.290761
678.200956	0.291140
678.404097	0.291478
678.607219	0.291728
678.810323	0.292064
679.013408	0.292197
679.216476	0.292384
679.419525	0.292475
679.622556	0.292629
679.825569	0.292446
680.028563	0.292466
680.231540	0.292402
680.434498	0.292384
680.637438	0.292490
680.840359	0.292829
681.043263	0.292759
681.246148	0.292860
681.449015	0.292822
681.651864	0.293201
681.854694	0.293550
682.057506	0.293869
682.260301	0.294390
682.463076	0.294580
682.665834	0.295063
682.868573	0.295438
683.071295	0.295672
683.273998	0.295839
683.476682	0.295825
683.679349	0.295832
683.881997	0.296088
684.084627	0.296304
684.287239	0.296670
684.489833	0.296366
684.692408	0.296631
684.894965	0.296830
685.097504	0.297039
685.300025	0.297556
685.502527	0.297586
685.705012	0.297626
685.907478	0.297845
686.109925	0.297733
686.312355	0.298119
686.514766	0.298036
686.717159	0.298149
686.919534	0.298744
687.121891	0.298838
687.324230	0.299287
687.526550	0.299599
687.728852	0.299666
687.931136	0.300128
688.133401	0.300392
688.335649	0.300534
688.537878	0.300987
688.740089	0.300920
688.942281	0.300941
689.144456	0.301189
689.346612	0.301285
689.548750	0.301475
689.750870	0.301749
689.952971	0.301751
690.155055	0.302175
690.357120	0.302442
690.559167	0.302745
690.761195	0.303000
690.963206	0.303131
691.165198	0.303518
691.367172	0.303688
691.569128	0.303248
691.771065	0.303490
691.972984	0.303549
692.174885	0.303620
692.376768	0.303702
692.578633	0.304123
692.780479	0.304202
692.982308	0.304015
693.184118	0.304052
693.385909	0.304686
