sample name	sample
index	1040
start time	 04-19-2021  02:06:01 PM


Wavelength (nm)	Absorbance
494.344910	-0.172552
494.563924	-0.172552
494.782919	-0.172552
495.001897	0.144295
495.220856	-0.104831
495.439797	-0.077823
495.658719	-0.049912
495.877624	-0.006660
496.096510	0.002610
496.315378	0.047533
496.534227	0.071537
496.753059	0.103823
496.971872	0.069366
497.190667	0.076201
497.409444	0.073436
497.628203	0.073645
497.846943	0.072057
498.065665	0.073318
498.284369	0.074514
498.503055	0.075282
498.721723	0.075601
498.940372	0.075816
499.159003	0.075212
499.377616	0.075290
499.596210	0.075532
499.814787	0.075803
500.033345	0.074100
500.251885	0.073531
500.470406	0.073796
500.688910	0.073624
500.907395	0.073310
501.125862	0.072724
501.344311	0.073734
501.562742	0.072824
501.781154	0.073682
501.999548	0.075692
502.217924	0.075449
502.436282	0.075809
502.654621	0.076214
502.872942	0.076725
503.091245	0.077499
503.309530	0.076874
503.527797	0.077201
503.746045	0.076386
503.964275	0.076340
504.182487	0.076167
504.400681	0.074338
504.618856	0.074828
504.837013	0.073948
505.055152	0.073709
505.273273	0.073924
505.491376	0.073503
505.709460	0.073951
505.927526	0.073793
506.145574	0.073895
506.363604	0.075114
506.581615	0.073772
506.799608	0.074339
507.017583	0.074487
507.235540	0.073602
507.453478	0.074829
507.671399	0.074283
507.889301	0.073748
508.107185	0.073910
508.325050	0.073212
508.542898	0.073465
508.760727	0.073089
508.978538	0.073438
509.196330	0.073209
509.414105	0.073453
509.631861	0.073247
509.849599	0.073538
510.067319	0.073567
510.285021	0.074474
510.502704	0.075136
510.720369	0.076199
510.938016	0.076718
511.155645	0.077057
511.373255	0.076455
511.590848	0.076887
511.808422	0.076604
512.025977	0.076754
512.243515	0.076713
512.461034	0.077185
512.678536	0.076648
512.896018	0.075345
513.113483	0.076071
513.330930	0.075351
513.548358	0.075418
513.765768	0.075276
513.983160	0.074878
514.200533	0.074265
514.417889	0.073759
514.635226	0.073923
514.852545	0.074718
515.069845	0.074304
515.287128	0.074746
515.504392	0.074749
515.721638	0.074735
515.938866	0.075632
516.156075	0.075304
516.373267	0.075073
516.590440	0.074675
516.807594	0.074666
517.024731	0.074631
517.241850	0.074782
517.458950	0.074938
517.676032	0.075502
517.893095	0.074732
518.110141	0.075366
518.327168	0.076064
518.544177	0.076178
518.761168	0.076453
518.978141	0.076939
519.195095	0.077354
519.412031	0.077102
519.628949	0.076724
519.845849	0.077595
520.062731	0.077084
520.279594	0.076642
520.496439	0.076531
520.713266	0.076163
520.930074	0.076491
521.146865	0.077378
521.363637	0.077334
521.580391	0.077721
521.797127	0.077682
522.013844	0.078689
522.230543	0.078571
522.447224	0.079554
522.663887	0.079506
522.880532	0.079200
523.097158	0.078411
523.313766	0.079606
523.530356	0.079911
523.746928	0.079451
523.963481	0.079206
524.180017	0.079887
524.396534	0.079901
524.613032	0.080501
524.829513	0.080914
525.045975	0.081143
525.262420	0.080039
525.478845	0.080243
525.695253	0.080513
525.911643	0.080336
526.128014	0.080486
526.344367	0.080953
526.560702	0.080853
526.777018	0.081010
526.993316	0.081077
527.209597	0.082157
527.425858	0.081821
527.642102	0.082211
527.858328	0.082527
528.074535	0.082954
528.290724	0.082638
528.506894	0.082771
528.723047	0.082935
528.939181	0.082937
529.155297	0.082346
529.371395	0.082906
529.587475	0.082936
529.803536	0.083315
530.019579	0.083358
530.235604	0.083106
530.451611	0.083512
530.667600	0.083814
530.883570	0.084188
531.099522	0.084875
531.315456	0.085249
531.531372	0.086061
531.747269	0.085956
531.963148	0.085305
532.179009	0.085879
532.394852	0.086182
532.610676	0.086126
532.826482	0.086281
533.042271	0.086416
533.258040	0.086419
533.473792	0.086147
533.689525	0.086661
533.905240	0.087182
534.120937	0.087056
534.336616	0.086843
534.552277	0.086808
534.767919	0.087250
534.983543	0.087985
535.199149	0.088394
535.414736	0.088621
535.630306	0.088712
535.845857	0.089197
536.061390	0.089859
536.276904	0.090173
536.492401	0.090209
536.707879	0.089688
536.923339	0.089199
537.138781	0.088732
537.354204	0.088882
537.569610	0.089109
537.784997	0.088726
538.000366	0.088157
538.215716	0.088614
538.431049	0.089085
538.646363	0.089636
538.861659	0.089606
539.076937	0.089840
539.292196	0.089526
539.507438	0.089439
539.722661	0.089945
539.937866	0.090370
540.153052	0.090319
540.368221	0.090263
540.583371	0.090417
540.798503	0.090755
541.013617	0.090777
541.228712	0.091076
541.443789	0.091741
541.658848	0.091865
541.873889	0.092032
542.088912	0.092701
542.303916	0.092595
542.518902	0.092233
542.733870	0.092109
542.948820	0.092482
543.163752	0.092761
543.378665	0.092592
543.593560	0.092810
543.808437	0.092731
544.023295	0.092697
544.238136	0.092999
544.452958	0.093462
544.667762	0.094161
544.882548	0.094756
545.097315	0.094770
545.312064	0.094756
545.526795	0.094722
545.741508	0.095225
545.956203	0.095308
546.170879	0.096087
546.385537	0.096402
546.600177	0.096467
546.814799	0.096107
547.029402	0.096016
547.243988	0.096159
547.458555	0.096271
547.673103	0.096448
547.887634	0.096343
548.102146	0.096002
548.316640	0.095946
548.531116	0.095892
548.745574	0.096413
548.960013	0.096803
549.174435	0.096948
549.388838	0.096855
549.603222	0.096732
549.817589	0.096615
550.031937	0.096951
550.246267	0.096971
550.460579	0.096708
550.674873	0.096743
550.889148	0.096935
551.103405	0.096565
551.317644	0.096877
551.531865	0.097122
551.746068	0.097289
551.960252	0.097235
552.174418	0.097717
552.388566	0.097696
552.602696	0.097535
552.816807	0.097516
553.030900	0.098301
553.244975	0.098210
553.459032	0.098268
553.673070	0.098394
553.887091	0.098655
554.101093	0.098271
554.315077	0.098461
554.529042	0.098676
554.742990	0.098669
554.956919	0.098430
555.170830	0.098635
555.384722	0.098858
555.598597	0.099074
555.812453	0.098758
556.026291	0.098922
556.240111	0.099112
556.453913	0.099156
556.667696	0.099518
556.881461	0.099771
557.095208	0.099475
557.308937	0.099576
557.522647	0.099603
557.736339	0.099707
557.950013	0.099749
558.163669	0.099685
558.377307	0.099780
558.590926	0.099598
558.804527	0.099690
559.018110	0.100105
559.231675	0.099993
559.445221	0.100011
559.658749	0.100219
559.872259	0.100179
560.085751	0.100863
560.299225	0.101039
560.512680	0.101195
560.726117	0.100974
560.939536	0.101175
561.152937	0.101448
561.366319	0.101415
561.579683	0.101716
561.793029	0.101897
562.006357	0.101861
562.219667	0.101925
562.432958	0.101710
562.646231	0.101600
562.859486	0.101566
563.072723	0.101460
563.285941	0.101477
563.499141	0.101223
563.712323	0.101207
563.925487	0.101056
564.138632	0.100584
564.351760	0.100703
564.564869	0.101301
564.777960	0.100977
564.991032	0.100887
565.204087	0.100605
565.417123	0.100280
565.630141	0.100650
565.843140	0.100431
566.056122	0.100581
566.269085	0.100714
566.482030	0.100179
566.694957	0.100471
566.907866	0.100375
567.120756	0.100548
567.333628	0.101088
567.546482	0.100691
567.759318	0.100761
567.972135	0.100722
568.184935	0.100927
568.397716	0.101144
568.610478	0.101054
568.823223	0.101229
569.035949	0.101406
569.248657	0.101350
569.461347	0.101543
569.674019	0.101838
569.886672	0.101938
570.099308	0.101751
570.311925	0.102186
570.524523	0.102435
570.737104	0.102513
570.949666	0.102774
571.162210	0.102836
571.374736	0.102609
571.587244	0.102362
571.799733	0.102513
572.012205	0.102440
572.224658	0.102347
572.437092	0.102519
572.649509	0.102674
572.861907	0.102450
573.074287	0.102356
573.286649	0.103097
573.498993	0.103279
573.711318	0.103116
573.923625	0.103375
574.135914	0.103296
574.348185	0.103105
574.560438	0.103071
574.772672	0.103545
574.984888	0.103814
575.197086	0.103661
575.409266	0.103829
575.621427	0.103868
575.833570	0.103943
576.045695	0.103928
576.257802	0.104024
576.469890	0.103917
576.681961	0.103736
576.894013	0.103889
577.106046	0.103933
577.318062	0.103918
577.530059	0.104639
577.742039	0.104798
577.954000	0.104956
578.165942	0.105079
578.377867	0.105248
578.589773	0.105185
578.801661	0.104764
579.013531	0.104965
579.225382	0.105077
579.437216	0.104567
579.649031	0.104284
579.860828	0.104189
580.072606	0.104209
580.284367	0.104574
580.496109	0.104932
580.707833	0.105407
580.919539	0.104889
581.131227	0.104698
581.342896	0.105140
581.554547	0.105468
581.766180	0.105948
581.977795	0.106038
582.189391	0.106026
582.400969	0.105751
582.612529	0.105510
582.824071	0.106073
583.035595	0.106204
583.247100	0.106094
583.458587	0.105901
583.670056	0.105828
583.881506	0.105887
584.092939	0.106052
584.304353	0.106408
584.515749	0.106771
584.727127	0.106495
584.938486	0.106153
585.149828	0.106036
585.361151	0.106384
585.572456	0.106610
585.783742	0.106603
585.995011	0.106524
586.206261	0.106467
586.417493	0.106501
586.628706	0.106701
586.839902	0.107667
587.051079	0.107888
587.262238	0.107944
587.473379	0.107891
587.684502	0.108233
587.895606	0.107863
588.106692	0.108163
588.317760	0.108118
588.528810	0.108443
588.739841	0.108424
588.950855	0.108662
589.161850	0.108934
589.372827	0.109176
589.583785	0.109314
589.794726	0.110045
590.005648	0.109727
590.216552	0.109963
590.427437	0.110255
590.638305	0.110554
590.849154	0.110660
591.059985	0.110533
591.270798	0.110497
591.481592	0.110420
591.692369	0.110364
591.903127	0.110870
592.113867	0.110876
592.324588	0.110835
592.535292	0.110408
592.745977	0.110387
592.956644	0.110908
593.167293	0.110880
593.377923	0.110983
593.588536	0.111115
593.799130	0.110887
594.009706	0.110886
594.220263	0.110804
594.430803	0.110936
594.641324	0.111198
594.851827	0.111103
595.062312	0.111313
595.272778	0.111660
595.483227	0.111647
595.693657	0.111983
595.904069	0.112149
596.114462	0.112366
596.324838	0.112617
596.535195	0.112482
596.745534	0.112356
596.955855	0.112387
597.166157	0.112730
597.376441	0.112935
597.586707	0.113069
597.796955	0.113338
598.007185	0.113374
598.217396	0.113527
598.427589	0.113330
598.637764	0.113714
598.847921	0.114098
599.058060	0.113564
599.268180	0.113696
599.478282	0.113489
599.688366	0.113519
599.898431	0.113344
600.108479	0.113483
600.318508	0.113921
600.528519	0.114116
600.738511	0.113825
600.948486	0.113887
601.158442	0.113506
601.368380	0.113847
601.578300	0.113963
601.788202	0.114422
601.998085	0.114369
602.207950	0.114394
602.417797	0.114062
602.627626	0.114094
602.837436	0.114516
603.047228	0.114915
603.257002	0.114965
603.466758	0.115261
603.676496	0.115133
603.886215	0.115095
604.095916	0.115016
604.305599	0.115248
604.515264	0.115421
604.724910	0.115697
604.934538	0.115678
605.144148	0.115846
605.353740	0.115658
605.563314	0.116085
605.772869	0.115961
605.982406	0.116113
606.191925	0.116378
606.401425	0.116300
606.610908	0.116084
606.820372	0.116066
607.029818	0.116086
607.239246	0.116255
607.448655	0.116130
607.658047	0.116499
607.867420	0.116740
608.076775	0.116632
608.286111	0.116574
608.495430	0.116577
608.704730	0.116522
608.914012	0.116390
609.123275	0.116298
609.332521	0.116206
609.541748	0.116051
609.750957	0.115817
609.960148	0.115999
610.169321	0.116140
610.378475	0.116093
610.587611	0.116487
610.796729	0.116403
611.005829	0.116291
611.214910	0.116177
611.423974	0.116434
611.633019	0.116755
611.842045	0.116495
612.051054	0.116670
612.260044	0.116975
612.469017	0.116847
612.677970	0.117125
612.886906	0.117326
613.095824	0.117842
613.304723	0.117754
613.513604	0.117773
613.722467	0.118099
613.931311	0.118332
614.140138	0.118205
614.348946	0.118389
614.557736	0.118403
614.766507	0.118610
614.975261	0.118548
615.183996	0.118582
615.392713	0.118692
615.601412	0.118577
615.810092	0.118551
616.018754	0.118855
616.227399	0.118786
616.436024	0.118720
616.644632	0.118809
616.853222	0.118939
617.061793	0.119390
617.270346	0.119492
617.478880	0.119600
617.687397	0.119582
617.895895	0.119437
618.104375	0.119489
618.312837	0.119818
618.521281	0.119880
618.729706	0.119876
618.938113	0.119743
619.146502	0.119810
619.354873	0.119836
619.563226	0.119725
619.771560	0.119881
619.979876	0.119916
620.188174	0.119949
620.396453	0.120110
620.604715	0.120097
620.812958	0.120338
621.021183	0.120200
621.229390	0.120268
621.437578	0.120376
621.645748	0.120367
621.853900	0.120692
622.062034	0.120835
622.270150	0.120963
622.478247	0.120814
622.686326	0.120711
622.894387	0.121030
623.102430	0.121196
623.310454	0.121463
623.518461	0.121522
623.726449	0.121517
623.934418	0.121554
624.142370	0.121203
624.350303	0.121513
624.558218	0.121552
624.766115	0.121585
624.973994	0.121662
625.181855	0.121512
625.389697	0.121550
625.597521	0.121793
625.805327	0.121830
626.013114	0.121937
626.220883	0.121965
626.428634	0.121891
626.636367	0.121639
626.844082	0.121669
627.051778	0.121715
627.259457	0.121857
627.467117	0.121673
627.674758	0.121672
627.882382	0.121948
628.089987	0.122030
628.297574	0.122363
628.505143	0.122619
628.712694	0.122616
628.920226	0.123269
629.127740	0.123623
629.335236	0.123900
629.542714	0.123928
629.750174	0.123969
629.957615	0.124074
630.165038	0.123892
630.372443	0.123924
630.579829	0.123876
630.787198	0.123695
630.994548	0.123573
631.201880	0.123376
631.409194	0.123578
631.616489	0.123639
631.823766	0.123783
632.031025	0.124220
632.238266	0.124344
632.445489	0.124501
632.652693	0.124574
632.859879	0.124747
633.067047	0.125174
633.274197	0.125105
633.481329	0.124981
633.688442	0.124981
633.895537	0.124857
634.102614	0.125113
634.309672	0.125499
634.516713	0.125715
634.723735	0.125651
634.930739	0.125510
635.137724	0.125790
635.344692	0.126096
635.551641	0.126360
635.758572	0.126638
635.965485	0.126783
636.172379	0.126673
636.379256	0.126642
636.586114	0.126941
636.792954	0.127160
636.999775	0.127226
637.206579	0.127381
637.413364	0.127420
637.620131	0.127386
637.826880	0.127338
638.033610	0.127369
638.240323	0.127379
638.447017	0.127165
638.653692	0.126979
638.860350	0.127024
639.066990	0.126887
639.273611	0.126800
639.480214	0.126767
639.686798	0.126697
639.893365	0.126989
640.099913	0.127200
640.306443	0.127281
640.512955	0.127587
640.719449	0.127666
640.925924	0.127955
641.132381	0.128276
641.338820	0.128455
641.545241	0.128737
641.751644	0.128852
641.958028	0.128773
642.164394	0.128947
642.370742	0.128974
642.577071	0.128964
642.783383	0.128835
642.989676	0.128671
643.195951	0.128590
643.402207	0.128530
643.608446	0.128354
643.814666	0.128419
644.020868	0.128353
644.227052	0.128438
644.433218	0.128581
644.639365	0.128483
644.845494	0.128434
645.051605	0.128760
645.257698	0.128850
645.463772	0.129129
645.669828	0.129300
645.875866	0.129414
646.081886	0.129524
646.287888	0.129559
646.493871	0.129991
646.699836	0.130353
646.905783	0.130536
647.111712	0.130560
647.317622	0.130455
647.523514	0.130448
647.729388	0.130658
647.935244	0.130773
648.141082	0.131093
648.346901	0.131355
648.552702	0.131515
648.758485	0.131284
648.964250	0.131610
649.169996	0.131950
649.375724	0.132151
649.581434	0.132339
649.787126	0.132483
649.992800	0.132420
650.198455	0.132319
650.404092	0.132440
650.609711	0.132800
650.815311	0.132800
651.020894	0.132973
651.226458	0.133092
651.432004	0.133171
651.637532	0.133259
651.843041	0.133635
652.048532	0.133922
652.254006	0.133616
652.459460	0.133611
652.664897	0.133669
652.870315	0.133573
653.075716	0.133783
653.281097	0.133870
653.486461	0.133925
653.691807	0.133968
653.897134	0.133992
654.102443	0.134273
654.307734	0.134477
654.513006	0.134731
654.718261	0.135003
654.923497	0.135064
655.128715	0.135312
655.333915	0.135409
655.539096	0.135371
655.744259	0.135599
655.949404	0.135823
656.154531	0.136013
656.359640	0.136117
656.564730	0.135935
656.769802	0.135917
656.974856	0.135983
657.179892	0.136237
657.384909	0.136366
657.589908	0.136187
657.794889	0.136300
657.999852	0.136332
658.204797	0.136384
658.409723	0.136671
658.614631	0.136994
658.819521	0.137008
659.024393	0.137020
659.229246	0.137133
659.434081	0.137210
659.638898	0.137429
659.843697	0.137461
660.048478	0.137715
660.253240	0.137892
660.457984	0.137732
660.662710	0.137735
660.867417	0.137859
661.072107	0.138074
661.276778	0.138152
661.481431	0.138098
661.686066	0.137997
661.890682	0.137930
662.095281	0.137907
662.299861	0.138054
662.504422	0.138001
662.708966	0.137865
662.913491	0.137758
663.117999	0.137887
663.322488	0.137783
663.526958	0.138033
663.731411	0.138096
663.935845	0.138088
664.140261	0.138232
664.344659	0.138349
664.549038	0.138651
664.753400	0.138724
664.957743	0.139033
665.162068	0.139175
665.366375	0.139010
665.570663	0.139152
665.774933	0.139343
665.979185	0.139484
666.183419	0.139604
666.387635	0.139589
666.591832	0.139735
666.796011	0.139767
667.000172	0.140000
667.204315	0.140421
667.408439	0.140345
667.612545	0.140406
667.816634	0.140411
668.020703	0.140736
668.224755	0.140858
668.428788	0.140975
668.632803	0.141099
668.836800	0.141204
669.040779	0.141225
669.244739	0.141654
669.448681	0.141810
669.652605	0.142007
669.856511	0.142184
670.060399	0.142103
670.264268	0.142136
670.468119	0.142188
670.671952	0.142377
670.875767	0.142558
671.079563	0.142476
671.283341	0.142618
671.487101	0.142851
671.690843	0.142724
671.894567	0.143160
672.098272	0.143361
672.301959	0.143368
672.505628	0.143506
672.709278	0.143497
672.912911	0.143529
673.116525	0.143556
673.320121	0.143300
673.523699	0.143601
673.727258	0.143798
673.930799	0.143720
674.134322	0.143931
674.337827	0.144006
674.541314	0.144322
674.744782	0.144568
674.948232	0.144877
675.151664	0.145218
675.355078	0.145423
675.558474	0.145517
675.761851	0.145848
675.965210	0.145932
676.168551	0.145971
676.371873	0.145932
676.575178	0.145960
676.778464	0.145908
676.981732	0.146009
677.184981	0.145923
677.388213	0.145806
677.591426	0.145784
677.794621	0.145996
677.997798	0.146008
678.200956	0.146179
678.404097	0.146389
678.607219	0.146499
678.810323	0.146444
679.013408	0.146677
679.216476	0.146892
679.419525	0.146950
679.622556	0.146696
679.825569	0.146804
680.028563	0.146707
680.231540	0.146615
680.434498	0.146684
680.637438	0.147000
680.840359	0.146872
681.043263	0.146858
681.246148	0.146994
681.449015	0.147402
681.651864	0.147617
681.854694	0.147920
682.057506	0.148180
682.260301	0.148202
682.463076	0.148100
682.665834	0.148335
682.868573	0.148571
683.071295	0.148626
683.273998	0.148584
683.476682	0.148484
683.679349	0.148652
683.881997	0.148736
684.084627	0.148728
684.287239	0.148863
684.489833	0.148915
684.692408	0.148874
684.894965	0.148880
685.097504	0.149113
685.300025	0.149338
685.502527	0.149366
685.705012	0.149424
685.907478	0.149702
686.109925	0.149832
686.312355	0.149908
686.514766	0.150127
686.717159	0.150384
686.919534	0.150454
687.121891	0.150499
687.324230	0.150294
687.526550	0.150270
687.728852	0.150362
687.931136	0.150375
688.133401	0.150662
688.335649	0.150652
688.537878	0.150506
688.740089	0.150417
688.942281	0.150480
689.144456	0.150741
689.346612	0.150751
689.548750	0.150639
689.750870	0.150758
689.952971	0.150628
690.155055	0.150811
690.357120	0.151167
690.559167	0.151390
690.761195	0.151569
690.963206	0.151589
691.165198	0.151882
691.367172	0.152130
691.569128	0.152135
691.771065	0.152391
691.972984	0.152269
692.174885	0.152283
692.376768	0.152299
692.578633	0.152199
692.780479	0.152555
692.982308	0.152595
693.184118	0.152715
693.385909	0.152959
