sample name	sample
index	1279
start time	 04-29-2021  02:35:01 PM
880	0.441179
Peak Time (s)	92.035
Peak Height 	0.4412
calc peak height	90,93
Baseline Time (s)	9.04
Baseline Value 	-0.003634
subtract baseline	10,4
Abs	0.305685
Peak Time (s)	92.035
Peak Height 	0.3057
calc peak height	90,93
Baseline Time (s)	9.535
Baseline Value 	0.002275
subtract baseline	10,3
PK_550	0.165094
Peak Time (s)	92.535
Peak Height 	0.1651
calc peak height	90,93
Baseline Time (s)	11.536
Baseline Value 	5.7736E-4
subtract baseline	10,2
PK_880	0.285000
Peak Time (s)	91.035
Peak Height 	0.285
calc peak height	90,93
Baseline Time (s)	11.536
Baseline Value 	0.001365
subtract baseline	10,1


Time (s)	A880-A510	A880-A775	A880-A975	A880	I510	I775	I975	I880	
0.034500	0.001467	0.000194	-0.006036	0.001594	6313.029183	41336.645600	3843.895877	20926.875145
0.535500	-0.000686	-0.000790	-0.003374	0.003382	6282.794620	41092.705762	3845.711379	20853.077709
1.035500	-0.003076	-0.001115	-0.007028	0.002921	6268.097730	41104.640222	3839.096334	20872.059906
1.535500	-0.001341	0.000327	-0.000397	0.001192	6294.541726	41383.942595	3856.518373	20943.531179
2.036000	0.001515	-0.000728	-0.001617	-0.000301	6328.041052	41422.731350	3857.092538	21005.461957
2.536000	0.001234	0.000561	-0.002315	0.000698	6318.138709	41448.290878	3853.526293	20963.973522
3.036500	-0.001286	-0.000400	0.000790	0.003413	6277.982434	41124.223365	3854.346443	20851.819616
3.537000	-0.001285	0.000028	-0.005373	0.000261	6302.112188	41439.876408	3848.047477	20982.113975
4.037000	0.000613	-0.000493	-0.001031	0.000001	6318.725879	41416.740078	3857.688565	20992.889727
4.535000	0.001037	0.000665	0.001153	0.000469	6318.392223	41477.882784	3861.312132	20973.488957
5.037500	0.000022	-0.000204	-0.001491	0.000457	6310.659405	41401.983703	3855.763825	20973.993737
5.535500	0.001385	-0.000835	-0.005714	-0.000276	6326.838895	41411.017039	3848.457251	21004.425950
6.035500	0.001534	-0.000424	-0.000741	-0.000202	6327.419296	41440.860350	3858.730273	21001.340339
6.535500	-0.000474	-0.000130	-0.001666	-0.000100	6311.126414	41457.822264	3856.567432	20997.113047
7.036000	-0.001316	0.000013	0.005303	0.000041	6303.558077	41457.949999	3871.044729	20991.233399
7.536500	0.000693	-0.000072	-0.002596	0.000395	6316.301060	41419.110358	3853.571823	20976.543796
8.036500	0.001212	0.000165	-0.003203	0.000567	6318.983149	41424.949597	3851.941456	20969.438989
8.537000	0.001531	0.000995	0.001601	0.000326	6323.303967	41519.792100	3862.563470	20979.406504
9.040000	0.002424	-0.000023	0.002795	0.000000	6332.745082	41458.415329	3865.787781	20992.943572
9.535000	-0.000141	-0.000159	0.000000	-0.000372	6315.787953	41479.330628	3860.653069	21008.405195
10.035000	-0.002174	0.000323	0.003926	0.004412	6263.627154	41100.016813	3858.840269	20810.693893
10.535500	-0.001416	-0.000369	-0.003728	-0.000214	6304.758455	41446.768602	3852.476545	21001.844491
11.035500	0.001525	0.000315	-0.004076	0.000358	6323.014285	41456.661696	3850.551942	20978.081878
11.536000	0.000000	0.000000	-0.001120	-0.000270	6316.085293	41484.351544	3858.073396	21004.137927
12.036500	0.000076	-0.000104	-0.003602	0.004209	6282.300930	41080.390439	3843.520737	20819.053419
12.536500	-0.000218	0.000372	-0.003706	0.000382	6309.389559	41459.583037	3851.276074	20977.104918
13.036500	0.003022	0.000165	0.001066	-0.000718	6342.955388	41538.690386	3863.641465	21022.758199
13.537500	-0.001193	-0.000331	0.000281	-0.000990	6312.443248	41518.855271	3862.554450	21034.088939
14.037500	-0.002562	-0.000032	0.003847	0.003946	6264.217239	41109.749725	3859.657786	20829.877150
14.535000	-0.001887	0.000361	0.000545	0.001850	6285.328137	41328.818444	3857.115828	20916.309535
15.036500	-0.000662	0.000086	0.003476	-0.001013	6316.715053	41557.943369	3869.393395	21035.039878
15.536000	0.001930	0.000783	0.002373	-0.000092	6329.629583	41538.039424	3865.086716	20996.761166
16.035500	-0.000240	0.000684	-0.000993	0.003443	6285.738227	41216.878547	3850.546830	20850.554366
16.536000	0.000207	0.000069	-0.001525	-0.001044	6323.663166	41559.206513	3858.852663	21036.348716
17.036000	0.000184	0.000247	0.003994	-0.004154	6347.609763	41852.290326	3877.232804	21166.231903
17.536500	0.000737	0.000440	0.001220	-0.000179	6321.069865	41515.342880	3862.824172	21000.368374
18.037000	0.000112	0.000521	0.002010	0.002264	6297.459048	41306.381088	3859.331034	20899.188302
18.540000	0.000030	0.001093	-0.002350	0.001404	6303.435297	41432.967678	3851.974351	20934.744717
19.035000	-0.000398	0.000198	0.004696	-0.000004	6310.971024	41478.313927	3869.844344	20993.089015
19.535000	-0.001779	0.000392	0.000649	0.000649	6295.344218	41437.729664	3859.867415	20966.016146
20.035000	-0.000324	0.000543	-0.002849	0.002548	6291.942891	41283.302932	3848.541546	20887.483478
20.536000	-0.001543	-0.000222	-0.001388	0.000430	6298.835765	41402.773333	3856.037523	20975.116651
21.035000	-0.000442	-0.000396	-0.004504	0.000370	6307.755078	41392.717383	3849.633450	20977.597126
21.536500	0.000146	0.000069	-0.008178	0.000444	6311.710620	41427.280840	3841.839417	20974.508872
22.036500	-0.001267	0.000271	-0.003631	0.002143	6287.827859	41295.049561	3847.757012	20904.209815
22.536500	0.000294	0.000192	0.001408	0.000629	6311.422716	41421.743489	3861.512363	20966.847456
23.034500	0.000049	0.000294	0.004584	0.000350	6311.691103	41455.533447	3868.851385	20978.436677
23.537500	0.001495	0.001413	-0.001852	0.001257	6315.842253	41474.220026	3853.324341	20940.813603
24.037500	-0.001288	-0.000180	-0.003826	0.002397	6285.722169	41232.951441	3846.821460	20893.715732
24.535500	-0.001187	-0.000545	0.000984	0.000168	6303.581200	41397.399973	3861.591993	20985.975936
25.035500	0.002221	-0.000164	-0.000794	0.000378	6328.249209	41412.499947	3857.396671	20977.272740
25.536000	0.001441	0.000560	0.004318	0.000743	6319.390818	41444.224699	3867.445209	20962.113637
26.036000	-0.000303	-0.000108	0.001538	0.000716	6306.158888	41387.506494	3861.602735	20963.229899
26.535500	-0.000094	-0.000082	-0.001118	0.000410	6310.125201	41416.973649	3856.646702	20975.936918
27.036500	0.000762	0.000746	0.003896	-0.000027	6320.089849	41528.974429	3868.186606	20994.055535
27.537000	0.003098	0.001518	-0.003574	-0.001609	6350.485385	41738.380181	3855.726178	21059.858738
28.034500	0.001109	0.000565	0.001370	0.000015	6322.444754	41509.192287	3862.732062	20992.304417
28.534500	0.000086	0.000285	-0.002747	-0.000119	6315.581920	41496.228051	3854.334273	20997.875084
29.035000	0.001123	0.000183	-0.004358	0.000056	6322.245786	41471.768427	3850.593342	20990.623573
29.535500	0.000725	0.000217	-0.001856	-0.000089	6320.287186	41487.582994	3856.144662	20996.651642
30.035500	0.002006	0.000230	-0.001319	-0.000177	6330.872304	41496.491103	3857.458813	21000.291760
30.536000	0.000799	-0.000067	-0.002541	0.001219	6310.768005	41346.728650	3851.960907	20942.406675
31.036000	-0.002140	-0.000000	0.003905	0.001899	6283.013054	41292.570094	3864.111418	20914.261313
31.536500	-0.000701	0.000052	-0.002568	0.000052	6308.201038	41460.437267	3854.351400	20990.768833
32.036500	0.000547	0.000928	-0.001055	0.000348	6315.538638	41511.853468	3856.908006	20978.483725
32.537000	0.001185	0.000065	0.000673	0.000502	6319.280143	41421.801094	3860.227820	20972.119446
33.037000	0.002007	0.001480	0.000621	0.000848	6322.952179	41516.518572	3859.388442	20957.781304
33.537500	0.001500	0.001501	0.001527	-0.000778	6331.615111	41662.823108	3864.746676	21025.274562
34.038500	0.000716	0.000437	0.006008	0.001647	6306.842257	41353.455919	3869.121262	20924.696794
34.535500	0.000766	0.000674	-0.000833	0.002441	6301.121548	41304.294586	3852.979772	20891.877568
35.035500	0.000001	0.000623	-0.002419	0.001758	6300.485513	41360.036137	3851.088100	20920.082938
35.536000	-0.000825	-0.000473	-0.000048	0.000859	6301.049659	41342.604462	3857.953398	20957.303953
36.036500	-0.002290	0.000063	0.000779	0.003507	6269.624006	41156.677852	3854.125624	20847.948208
36.536500	-0.000545	0.000122	-0.002013	0.002185	6293.030766	41278.245632	3851.046993	20902.472957
37.037000	0.001718	0.000585	0.002651	0.002064	6311.337191	41329.640502	3861.106342	20907.434996
37.542500	0.001409	0.000128	-0.001019	0.001410	6313.999861	41347.116396	3854.752756	20934.502146
38.037500	-0.001324	-0.000194	-0.003538	0.003024	6280.652368	41176.478214	3846.114766	20867.810748
38.537500	0.000251	0.000371	0.002425	0.001429	6304.932917	41366.797446	3861.971867	20933.693251
39.038000	0.001509	0.000697	0.000089	0.001753	6312.124267	41367.028600	3856.359473	20920.305774
39.535500	-0.001457	-0.000115	-0.002960	0.001264	6293.103397	41338.539656	3850.992598	20940.558100
40.036000	0.000375	0.001136	-0.001113	0.001873	6302.477316	41395.205750	3853.582719	20915.334500
40.535500	-0.000209	-0.000040	0.003362	0.001266	6302.652914	41344.908678	3864.302784	20940.442589
41.036500	0.000568	0.000966	-0.000082	0.002062	6302.510716	41363.560118	3855.350815	20907.557244
41.539500	0.001060	0.000768	-0.002988	0.001943	6307.205014	41356.538797	3849.512489	20912.441946
42.039500	-0.000059	0.000668	-0.005622	0.001839	6299.409051	41356.914770	3844.247348	20916.761072
42.534500	-0.000985	-0.000155	-0.000023	0.001004	6298.707353	41357.890381	3857.699306	20951.300102
43.035000	0.001204	0.000219	0.002463	0.001321	6313.100134	41362.950977	3862.281044	20938.170179
43.535000	-0.001135	0.000054	-0.004595	0.001144	6296.486937	41364.042348	3847.827640	20945.503895
44.035000	-0.002504	-0.000644	-0.002320	0.003834	6265.505614	41065.905355	3846.965264	20834.475906
44.536000	-0.000491	0.000324	-0.000715	-0.000459	6313.761268	41529.875241	3859.326231	21012.023714
45.036000	0.001175	-0.000250	0.001491	-0.000523	6327.117657	41484.614009	3864.128856	21014.654656
45.536500	0.001298	0.000313	0.005724	-0.000497	6327.877757	41532.347787	3873.098176	21013.601503
46.036500	-0.000310	0.001154	0.003225	0.004179	6279.587171	41193.455673	3857.855280	20820.287775
46.536500	-0.003021	0.000827	-0.001263	0.003702	6262.585327	41206.630042	3849.441637	20839.890360
47.037000	0.003456	-0.000010	-0.001889	-0.000648	6345.788963	41517.031948	3857.249338	21019.855960
47.534500	0.003973	0.000516	0.000858	0.001526	6332.921619	41371.113511	3858.457470	20929.711838
48.037500	-0.000104	-0.000043	0.003313	0.003252	6288.237553	41169.726023	3859.995881	20858.438587
48.535000	-0.000685	0.000585	-0.000948	0.002777	6287.423599	41266.814806	3852.035064	20878.006307
49.035500	0.001367	0.000743	-0.000673	-0.000312	6326.968888	41554.014135	3859.104208	21005.886334
49.536000	0.002148	0.000433	-0.002246	-0.001452	6341.866821	41627.787529	3858.190450	21053.313256
50.036000	-0.001994	0.000448	-0.000376	0.003606	6271.112040	41181.705547	3851.496514	20843.832425
50.536500	-0.002052	-0.000389	-0.003378	0.010364	6219.653039	40519.682345	3831.303282	20567.747158
51.036000	-0.017182	-0.035679	0.014568	0.358858	4374.688425	18501.321749	3357.883595	10853.615937
51.539000	-0.024097	-0.037994	0.019658	0.267526	4676.847493	22029.156700	3461.060985	12700.586580
52.034500	-0.019339	-0.024497	0.000289	0.041302	5877.741116	36052.454440	3777.229839	19357.214739
52.534500	-0.035326	-0.036980	-0.010408	-0.152488	7350.667300	53181.091133	4214.763721	28577.639628
53.035000	-0.030918	-0.045511	0.009093	-0.204994	7964.567810	58529.071642	4444.142504	31869.531695
53.535500	-0.007132	-0.030514	0.017277	-0.155940	7682.067080	54340.386510	4309.305600	28782.061077
54.035000	-0.006834	-0.026576	0.024868	-0.119884	7309.354818	50680.156529	4222.616437	26725.032023
54.536000	-0.008070	-0.026260	0.026511	-0.078784	6905.969146	46405.759311	4111.468830	24579.310667
55.036000	0.005346	-0.013894	0.029919	-0.045191	6727.131993	44334.887977	4033.003218	22970.256974
55.536500	0.023606	-0.001483	0.034183	-0.027141	6728.948396	43801.596609	3998.942762	22155.736744
56.036500	0.035460	0.010538	0.047223	-0.023524	6800.985721	44598.919921	4022.108020	21996.539111
56.537000	0.054727	0.021638	0.060934	-0.015321	6899.927480	44877.325382	4035.881705	21640.375090
57.034500	0.075116	0.031567	0.078981	-0.005760	6999.236740	44912.873971	4057.449404	21233.668100
57.535000	0.085983	0.039306	0.090695	0.019327	6869.331000	43271.405477	4023.651166	20208.141979
58.035500	0.101248	0.049153	0.103855	0.055894	6682.509738	40868.052799	3966.940798	18815.497678
58.535000	0.111111	0.055791	0.113183	0.090783	6474.429154	38482.672527	3908.406131	17591.747107
59.035500	0.121803	0.059626	0.127070	0.122962	6305.083019	36240.443254	3868.581060	16546.927243
59.536000	0.134534	0.066207	0.146520	0.138676	6282.230820	35548.614187	3876.580797	16064.203223
60.036000	0.149073	0.074909	0.160809	0.190616	6008.621684	32463.557369	3799.039771	14587.312228
60.536500	0.145910	0.076909	0.172427	0.227242	5742.287746	30205.137848	3751.130063	13647.120186
61.040000	0.160587	0.082247	0.179073	0.246228	5714.884633	29363.324293	3728.488103	13190.074106
61.537000	0.168496	0.083753	0.184719	0.278577	5564.478140	27555.456173	3681.634753	12455.902780
62.037000	0.173293	0.090975	0.187513	0.281770	5574.098806	27784.423388	3680.958114	12386.374238
62.535000	0.177693	0.097522	0.201634	0.290323	5549.272936	27670.135036	3690.480633	12202.571554
63.035500	0.181479	0.099474	0.200023	0.288250	5584.363016	27899.967376	3691.277786	12246.800516
63.536500	0.185799	0.102324	0.205278	0.286484	5621.304728	28166.058557	3703.474964	12284.616830
64.036000	0.191821	0.106182	0.209577	0.288900	5643.438084	28249.752768	3706.779750	12232.897581
64.536500	0.191932	0.106957	0.207945	0.296567	5597.264848	27852.179563	3690.596413	12070.680243
65.036500	0.201586	0.110142	0.213666	0.292476	5681.862296	28272.148504	3707.683972	12156.885699
65.537000	0.201814	0.113527	0.218065	0.295340	5665.429539	28302.512150	3710.391973	12096.452095
66.037000	0.205199	0.115336	0.216741	0.298110	5669.253555	28246.509270	3703.189164	12038.367392
66.537500	0.207234	0.116707	0.219811	0.301122	5663.182640	28151.332579	3703.291792	11975.652985
67.034500	0.208968	0.116332	0.223898	0.304747	5651.462856	27920.631269	3704.100599	11900.715130
67.535500	0.213093	0.119760	0.227016	0.311993	5632.238769	27702.491158	3696.900405	11752.833351
68.038000	0.217659	0.120601	0.225205	0.316489	5632.665312	27495.367319	3686.027982	11662.286359
68.535500	0.217907	0.123844	0.226805	0.323365	5592.288083	27291.259707	3677.053015	11525.627210
69.036000	0.218133	0.123191	0.231592	0.327445	5569.084836	27027.926791	3678.250181	11445.551283
69.535500	0.221708	0.124488	0.237107	0.332950	5557.548803	26796.206364	3678.266706	11338.708234
70.036500	0.222651	0.126837	0.232577	0.343642	5500.028718	26343.274888	3652.937935	11135.003095
70.542500	0.230899	0.128998	0.243171	0.343503	5549.427091	26467.246750	3670.702735	11137.602845
71.037000	0.230807	0.131835	0.242697	0.349372	5514.225100	26303.949117	3660.151262	11027.879662
71.534500	0.232778	0.132347	0.249710	0.353607	5500.976520	26104.990870	3664.754414	10949.609087
72.035000	0.234987	0.135121	0.249373	0.359526	5479.413535	25938.202635	3654.430524	10841.486285
72.538000	0.236537	0.135163	0.241189	0.363777	5463.836088	25716.916219	3634.344275	10764.737279
73.035500	0.238349	0.136221	0.251802	0.367678	5451.850388	25568.687469	3645.113933	10694.967548
73.536000	0.240812	0.138405	0.257224	0.372997	5435.560916	25406.266441	3645.281251	10600.834826
74.036000	0.243935	0.140108	0.255537	0.376988	5430.628667	25288.502997	3636.157230	10530.961377
74.536500	0.240983	0.139900	0.257222	0.385454	5366.685534	24847.625532	3625.415373	10384.840065
75.039000	0.247624	0.143713	0.259468	0.384862	5406.993492	25070.444186	3629.890798	10394.964151
75.536500	0.248783	0.143869	0.264966	0.387039	5401.283011	24967.918175	3635.164047	10357.801221
76.037500	0.245529	0.144516	0.260944	0.395180	5338.222856	24592.004342	3616.043491	10220.461223
76.537500	0.248786	0.145898	0.260500	0.398645	5337.087252	24488.642832	3610.012371	10162.780779
77.035000	0.253460	0.147983	0.269349	0.395961	5377.597884	24725.996191	3627.966505	10207.420279
77.535500	0.255158	0.146388	0.269696	0.396701	5382.918335	24609.444384	3627.345381	10195.077537
78.035500	0.253424	0.148529	0.267617	0.406403	5320.115646	24236.376524	3609.026935	10035.286384
78.536000	0.255041	0.148522	0.264333	0.408607	5316.939720	24128.515697	3600.662643	9999.485595
79.036500	0.258556	0.148873	0.275740	0.404581	5358.108276	24342.592485	3624.457736	10065.025024
79.536500	0.260979	0.150541	0.277843	0.407023	5358.006198	24304.618537	3623.926846	10025.206848
80.037000	0.260048	0.151279	0.274196	0.416176	5303.112716	23895.628825	3604.145264	9877.896808
80.537000	0.259326	0.149966	0.270513	0.416902	5295.333553	23797.730490	3597.466735	9866.346600
81.034500	0.263934	0.151969	0.286017	0.415268	5329.050869	23972.684005	3623.815645	9892.369593
81.535000	0.264397	0.153465	0.281651	0.417995	5316.764913	23913.312912	3612.783341	9848.996092
82.035000	0.260988	0.152845	0.284878	0.425987	5255.867761	23502.542175	3605.474891	9723.427281
82.535500	0.264456	0.151989	0.283898	0.426772	5270.053866	23425.209057	3602.786564	9711.211447
83.035500	0.269833	0.154400	0.290740	0.424526	5310.848696	23645.467604	3616.742215	9746.212423
83.536000	0.269084	0.155166	0.292576	0.426339	5297.058056	23595.760063	3616.778209	9717.946860
84.036500	0.269261	0.154920	0.287406	0.427317	5292.762287	23537.760934	3607.304146	9702.752051
84.539500	0.271791	0.157343	0.291387	0.435744	5261.391972	23255.718954	3600.536725	9573.221410
85.037000	0.273191	0.156436	0.287352	0.431080	5293.657322	23431.731998	3601.490385	9644.596211
85.537000	0.276844	0.158568	0.291726	0.432985	5303.045471	23442.443709	3605.245207	9615.347433
86.037000	0.274884	0.157593	0.297442	0.432802	5293.504304	23405.186221	3614.304470	9618.158800
86.535000	0.271584	0.158815	0.283178	0.439564	5240.205875	23146.469207	3582.571023	9515.326127
87.035000	0.277651	0.159750	0.297289	0.434619	5298.595153	23421.139711	3611.264983	9590.361172
87.535500	0.279999	0.161268	0.294731	0.436431	5301.476950	23407.312713	3604.572097	9562.765110
88.035500	0.280325	0.161603	0.294340	0.436855	5300.954357	23403.141119	3603.332929	9556.328518
88.536000	0.280455	0.161495	0.297702	0.437406	5298.689968	23372.219730	3607.621654	9547.970497
89.036500	0.279584	0.161973	0.295765	0.437860	5291.584538	23373.341625	3603.970958	9541.088410
89.536500	0.280312	0.162588	0.301100	0.438205	5293.634692	23386.024810	3611.610739	9535.860367
90.037000	0.282715	0.163037	0.302639	0.439447	5299.864258	23348.800134	3612.068745	9517.080881
90.537000	0.281980	0.162853	0.295227	0.438752	5299.648788	23372.751692	3601.797599	9527.580945
91.035000	0.285000	0.163690	0.295104	0.439982	5309.285017	23354.317801	3599.747835	9509.007843
91.535000	0.284350	0.164721	0.300037	0.440563	5302.654749	23375.466836	3606.364309	9500.266534
92.035500	0.283103	0.164905	0.305685	0.441179	5292.652008	23355.158353	3614.096269	9490.991501
92.535500	0.284802	0.165094	0.298735	0.440688	5304.417741	23387.100434	3604.188161	9498.385019
93.036000	0.284058	0.166295	0.301427	0.441687	5295.047873	23396.542445	3606.769349	9483.358903
93.574500	0.286923	0.166546	0.303135	0.442170	5307.858645	23385.662240	3608.645409	9476.116060
94.038500	0.286783	0.166412	0.302251	0.441921	5308.445321	23391.051109	3607.672968	9479.851862
94.537000	0.286863	0.167462	0.305964	0.442873	5303.750134	23395.684443	3611.913219	9465.577640
95.037000	0.283757	0.166309	0.297220	0.440938	5297.449420	23432.432419	3601.503829	9494.612518
95.537500	0.285681	0.168134	0.311064	0.442480	5299.510247	23445.763215	3620.429800	9471.473326
96.035000	0.281913	0.167745	0.299616	0.448468	5247.676531	23147.660994	3593.764501	9382.332484
