sample name	sample
index	1467
start time	 05-10-2021  02:12:27 PM


Wavelength (nm)	Absorbance
494.344910	-0.037606
494.563924	-0.037606
494.782919	-0.037606
495.001897	0.038907
495.220856	-0.020519
495.439797	-0.018832
495.658719	-0.016557
495.877624	-0.005619
496.096510	-0.013698
496.315378	-0.012021
496.534227	-0.013099
496.753059	-0.005536
496.971872	-0.002294
497.190667	0.059635
497.409444	0.096661
497.628203	0.109658
497.846943	0.115008
498.065665	0.118621
498.284369	0.120870
498.503055	0.121314
498.721723	0.123281
498.940372	0.125015
499.159003	0.127104
499.377616	0.127457
499.596210	0.127713
499.814787	0.127979
500.033345	0.127822
500.251885	0.128251
500.470406	0.129810
500.688910	0.130816
500.907395	0.131077
501.125862	0.129408
501.344311	0.128680
501.562742	0.128551
501.781154	0.127536
501.999548	0.129370
502.217924	0.128881
502.436282	0.129123
502.654621	0.128235
502.872942	0.128469
503.091245	0.128937
503.309530	0.129013
503.527797	0.128464
503.746045	0.129438
503.964275	0.128674
504.182487	0.129668
504.400681	0.128788
504.618856	0.128880
504.837013	0.128509
505.055152	0.130201
505.273273	0.131318
505.491376	0.131701
505.709460	0.131095
505.927526	0.131039
506.145574	0.132023
506.363604	0.132721
506.581615	0.132662
506.799608	0.132676
507.017583	0.132588
507.235540	0.132059
507.453478	0.132359
507.671399	0.133041
507.889301	0.133601
508.107185	0.132906
508.325050	0.133674
508.542898	0.133759
508.760727	0.134122
508.978538	0.132843
509.196330	0.132483
509.414105	0.133022
509.631861	0.133054
509.849599	0.133156
510.067319	0.131948
510.285021	0.132545
510.502704	0.132243
510.720369	0.133192
510.938016	0.133975
511.155645	0.133861
511.373255	0.133380
511.590848	0.133402
511.808422	0.133632
512.025977	0.134439
512.243515	0.134027
512.461034	0.135148
512.678536	0.134555
512.896018	0.135031
513.113483	0.136008
513.330930	0.136047
513.548358	0.137419
513.765768	0.136953
513.983160	0.136751
514.200533	0.136139
514.417889	0.135904
514.635226	0.136390
514.852545	0.135126
515.069845	0.134484
515.287128	0.135132
515.504392	0.134831
515.721638	0.135566
515.938866	0.135933
516.156075	0.136613
516.373267	0.136950
516.590440	0.136658
516.807594	0.137114
517.024731	0.138377
517.241850	0.138327
517.458950	0.138812
517.676032	0.138696
517.893095	0.138613
518.110141	0.139060
518.327168	0.139463
518.544177	0.139911
518.761168	0.140299
518.978141	0.139978
519.195095	0.140612
519.412031	0.140529
519.628949	0.141042
519.845849	0.141971
520.062731	0.142281
520.279594	0.142351
520.496439	0.142261
520.713266	0.142707
520.930074	0.142163
521.146865	0.142047
521.363637	0.141502
521.580391	0.141613
521.797127	0.141559
522.013844	0.140970
522.230543	0.140652
522.447224	0.140913
522.663887	0.141019
522.880532	0.141400
523.097158	0.141237
523.313766	0.141397
523.530356	0.141118
523.746928	0.141315
523.963481	0.141476
524.180017	0.141810
524.396534	0.141797
524.613032	0.141801
524.829513	0.142765
525.045975	0.143562
525.262420	0.144194
525.478845	0.144644
525.695253	0.144988
525.911643	0.145108
526.128014	0.145304
526.344367	0.146073
526.560702	0.146980
526.777018	0.146750
526.993316	0.146560
527.209597	0.146360
527.425858	0.146657
527.642102	0.146893
527.858328	0.147479
528.074535	0.147942
528.290724	0.148190
528.506894	0.147832
528.723047	0.147737
528.939181	0.148634
529.155297	0.149290
529.371395	0.149386
529.587475	0.149389
529.803536	0.149452
530.019579	0.149690
530.235604	0.149348
530.451611	0.149604
530.667600	0.149838
530.883570	0.148834
531.099522	0.148769
531.315456	0.149129
531.531372	0.149332
531.747269	0.149435
531.963148	0.150167
532.179009	0.150750
532.394852	0.151118
532.610676	0.152240
532.826482	0.153946
533.042271	0.154716
533.258040	0.154515
533.473792	0.155379
533.689525	0.155904
533.905240	0.155528
534.120937	0.155711
534.336616	0.156405
534.552277	0.156062
534.767919	0.155370
534.983543	0.155613
535.199149	0.155799
535.414736	0.155208
535.630306	0.155722
535.845857	0.156753
536.061390	0.156966
536.276904	0.156349
536.492401	0.156498
536.707879	0.157116
536.923339	0.157211
537.138781	0.158335
537.354204	0.158636
537.569610	0.158930
537.784997	0.158567
538.000366	0.158657
538.215716	0.159201
538.431049	0.159721
538.646363	0.159603
538.861659	0.159588
539.076937	0.159251
539.292196	0.159600
539.507438	0.159569
539.722661	0.159529
539.937866	0.159822
540.153052	0.160060
540.368221	0.160132
540.583371	0.160448
540.798503	0.160912
541.013617	0.161211
541.228712	0.161350
541.443789	0.161341
541.658848	0.161822
541.873889	0.162233
542.088912	0.162629
542.303916	0.162905
542.518902	0.163193
542.733870	0.163331
542.948820	0.164124
543.163752	0.164731
543.378665	0.165072
543.593560	0.165152
543.808437	0.165069
544.023295	0.165166
544.238136	0.165593
544.452958	0.165341
544.667762	0.164942
544.882548	0.164486
545.097315	0.164208
545.312064	0.164152
545.526795	0.164584
545.741508	0.165375
545.956203	0.165486
546.170879	0.165192
546.385537	0.165752
546.600177	0.166606
546.814799	0.166815
547.029402	0.167563
547.243988	0.168332
547.458555	0.168136
547.673103	0.167514
547.887634	0.167717
548.102146	0.167856
548.316640	0.167829
548.531116	0.167581
548.745574	0.167709
548.960013	0.167521
549.174435	0.167435
549.388838	0.167833
549.603222	0.168400
549.817589	0.168491
550.031937	0.168889
550.246267	0.169592
550.460579	0.170049
550.674873	0.170071
550.889148	0.170150
551.103405	0.170128
551.317644	0.170298
551.531865	0.170797
551.746068	0.171174
551.960252	0.171382
552.174418	0.171232
552.388566	0.171240
552.602696	0.171397
552.816807	0.171967
553.030900	0.172307
553.244975	0.172230
553.459032	0.172073
553.673070	0.171805
553.887091	0.171716
554.101093	0.171577
554.315077	0.171515
554.529042	0.172015
554.742990	0.171976
554.956919	0.172081
555.170830	0.172232
555.384722	0.172455
555.598597	0.172721
555.812453	0.172866
556.026291	0.173082
556.240111	0.172944
556.453913	0.173041
556.667696	0.172628
556.881461	0.172599
557.095208	0.172511
557.308937	0.172575
557.522647	0.172743
557.736339	0.172542
557.950013	0.172665
558.163669	0.172953
558.377307	0.172980
558.590926	0.173447
558.804527	0.173298
559.018110	0.173375
559.231675	0.173095
559.445221	0.173210
559.658749	0.173378
559.872259	0.173504
560.085751	0.173710
560.299225	0.173196
560.512680	0.173136
560.726117	0.173451
560.939536	0.173385
561.152937	0.173875
561.366319	0.174365
561.579683	0.174585
561.793029	0.174833
562.006357	0.175104
562.219667	0.175888
562.432958	0.176064
562.646231	0.176080
562.859486	0.176481
563.072723	0.176043
563.285941	0.175959
563.499141	0.176358
563.712323	0.176400
563.925487	0.176570
564.138632	0.176622
564.351760	0.177039
564.564869	0.176863
564.777960	0.177160
564.991032	0.177426
565.204087	0.177408
565.417123	0.177535
565.630141	0.177427
565.843140	0.177143
566.056122	0.177441
566.269085	0.177216
566.482030	0.177889
566.694957	0.178040
566.907866	0.178220
567.120756	0.178464
567.333628	0.178117
567.546482	0.178505
567.759318	0.179111
567.972135	0.178870
568.184935	0.178831
568.397716	0.178775
568.610478	0.178887
568.823223	0.178907
569.035949	0.178850
569.248657	0.179165
569.461347	0.179021
569.674019	0.179096
569.886672	0.179261
570.099308	0.179345
570.311925	0.179654
570.524523	0.179368
570.737104	0.179796
570.949666	0.180031
571.162210	0.180355
571.374736	0.180298
571.587244	0.180467
571.799733	0.180249
572.012205	0.179961
572.224658	0.179861
572.437092	0.180081
572.649509	0.179752
572.861907	0.179975
573.074287	0.179690
573.286649	0.179742
573.498993	0.179453
573.711318	0.179894
573.923625	0.180638
574.135914	0.180902
574.348185	0.181192
574.560438	0.181680
574.772672	0.181460
574.984888	0.182136
575.197086	0.182396
575.409266	0.182579
575.621427	0.182360
575.833570	0.182921
576.045695	0.182750
576.257802	0.183010
576.469890	0.183230
576.681961	0.183392
576.894013	0.183520
577.106046	0.183725
577.318062	0.183849
577.530059	0.184474
577.742039	0.184434
577.954000	0.184445
578.165942	0.184330
578.377867	0.184678
578.589773	0.185012
578.801661	0.184803
579.013531	0.185007
579.225382	0.185320
579.437216	0.185126
579.649031	0.184991
579.860828	0.185677
580.072606	0.185837
580.284367	0.185872
580.496109	0.185818
580.707833	0.185804
580.919539	0.186190
581.131227	0.185924
581.342896	0.186291
581.554547	0.186542
581.766180	0.186251
581.977795	0.187054
582.189391	0.186745
582.400969	0.187146
582.612529	0.187700
582.824071	0.188014
583.035595	0.188266
583.247100	0.188026
583.458587	0.188275
583.670056	0.188763
583.881506	0.188400
584.092939	0.188811
584.304353	0.188691
584.515749	0.188856
584.727127	0.189249
584.938486	0.189784
585.149828	0.190441
585.361151	0.190748
585.572456	0.190984
585.783742	0.191107
585.995011	0.191208
586.206261	0.191502
586.417493	0.191601
586.628706	0.191374
586.839902	0.190993
587.051079	0.190949
587.262238	0.190614
587.473379	0.190531
587.684502	0.190348
587.895606	0.190531
588.106692	0.190552
588.317760	0.190183
588.528810	0.190486
588.739841	0.191009
588.950855	0.191073
589.161850	0.191342
589.372827	0.191407
589.583785	0.191921
589.794726	0.191765
590.005648	0.192093
590.216552	0.192708
590.427437	0.192449
590.638305	0.193049
590.849154	0.193191
591.059985	0.193585
591.270798	0.193585
591.481592	0.193637
591.692369	0.194216
591.903127	0.194461
592.113867	0.194551
592.324588	0.194699
592.535292	0.194368
592.745977	0.194521
592.956644	0.194237
593.167293	0.194492
593.377923	0.194813
593.588536	0.194776
593.799130	0.194440
594.009706	0.194170
594.220263	0.194360
594.430803	0.194314
594.641324	0.194223
594.851827	0.194772
595.062312	0.194703
595.272778	0.194345
595.483227	0.194298
595.693657	0.194573
595.904069	0.194735
596.114462	0.194982
596.324838	0.195269
596.535195	0.195674
596.745534	0.195320
596.955855	0.196114
597.166157	0.196587
597.376441	0.196856
597.586707	0.196860
597.796955	0.197456
598.007185	0.197342
598.217396	0.197347
598.427589	0.197602
598.637764	0.197962
598.847921	0.197646
599.058060	0.197569
599.268180	0.197935
599.478282	0.197986
599.688366	0.197821
599.898431	0.197887
600.108479	0.198071
600.318508	0.197959
600.528519	0.198007
600.738511	0.197892
600.948486	0.197928
601.158442	0.197786
601.368380	0.197855
601.578300	0.197886
601.788202	0.198124
601.998085	0.198101
602.207950	0.198177
602.417797	0.198252
602.627626	0.198383
602.837436	0.198765
603.047228	0.198944
603.257002	0.199361
603.466758	0.199535
603.676496	0.199681
603.886215	0.200059
604.095916	0.200655
604.305599	0.200885
604.515264	0.201224
604.724910	0.201206
604.934538	0.201167
605.144148	0.201077
605.353740	0.201510
605.563314	0.201543
605.772869	0.201468
605.982406	0.201332
606.191925	0.201568
606.401425	0.201606
606.610908	0.201726
606.820372	0.201816
607.029818	0.201949
607.239246	0.201630
607.448655	0.201872
607.658047	0.202018
607.867420	0.202036
608.076775	0.201811
608.286111	0.201750
608.495430	0.201789
608.704730	0.201971
608.914012	0.202114
609.123275	0.202351
609.332521	0.202440
609.541748	0.202649
609.750957	0.202698
609.960148	0.202902
610.169321	0.203015
610.378475	0.202929
610.587611	0.203307
610.796729	0.203307
611.005829	0.203457
611.214910	0.203615
611.423974	0.203662
611.633019	0.203837
611.842045	0.204045
612.051054	0.204235
612.260044	0.204583
612.469017	0.204241
612.677970	0.204164
612.886906	0.204105
613.095824	0.203853
613.304723	0.203895
613.513604	0.203881
613.722467	0.203779
613.931311	0.204007
614.140138	0.204157
614.348946	0.204387
614.557736	0.204647
614.766507	0.204748
614.975261	0.204907
615.183996	0.204913
615.392713	0.205086
615.601412	0.205351
615.810092	0.205658
616.018754	0.205957
616.227399	0.206189
616.436024	0.206608
616.644632	0.206836
616.853222	0.207024
617.061793	0.207215
617.270346	0.207272
617.478880	0.207418
617.687397	0.207238
617.895895	0.207105
618.104375	0.207206
618.312837	0.207238
618.521281	0.207571
618.729706	0.207923
618.938113	0.208521
619.146502	0.208743
619.354873	0.208658
619.563226	0.208956
619.771560	0.209054
619.979876	0.209165
620.188174	0.209087
620.396453	0.208928
620.604715	0.208696
620.812958	0.208421
621.021183	0.208187
621.229390	0.208140
621.437578	0.208243
621.645748	0.208346
621.853900	0.208423
622.062034	0.208758
622.270150	0.208753
622.478247	0.209152
622.686326	0.209401
622.894387	0.209734
623.102430	0.210250
623.310454	0.210346
623.518461	0.210604
623.726449	0.210532
623.934418	0.210824
624.142370	0.211234
624.350303	0.211204
624.558218	0.211237
624.766115	0.211310
624.973994	0.211448
625.181855	0.211620
625.389697	0.211771
625.597521	0.212184
625.805327	0.211972
626.013114	0.211857
626.220883	0.212197
626.428634	0.212127
626.636367	0.212372
626.844082	0.212281
627.051778	0.212276
627.259457	0.212350
627.467117	0.212224
627.674758	0.212232
627.882382	0.212516
628.089987	0.212362
628.297574	0.212507
628.505143	0.212614
628.712694	0.212790
628.920226	0.212670
629.127740	0.212713
629.335236	0.212954
629.542714	0.213297
629.750174	0.213194
629.957615	0.213241
630.165038	0.213345
630.372443	0.213327
630.579829	0.213464
630.787198	0.213565
630.994548	0.213370
631.201880	0.213104
631.409194	0.212744
631.616489	0.212945
631.823766	0.212826
632.031025	0.212927
632.238266	0.212932
632.445489	0.212831
632.652693	0.213055
632.859879	0.213614
633.067047	0.213952
633.274197	0.214514
633.481329	0.214598
633.688442	0.215000
633.895537	0.215280
634.102614	0.215360
634.309672	0.215698
634.516713	0.215695
634.723735	0.215617
634.930739	0.215707
635.137724	0.215687
635.344692	0.215712
635.551641	0.215620
635.758572	0.215522
635.965485	0.215747
636.172379	0.215970
636.379256	0.216410
636.586114	0.216420
636.792954	0.216414
636.999775	0.216444
637.206579	0.216771
637.413364	0.217051
637.620131	0.217339
637.826880	0.217604
638.033610	0.217365
638.240323	0.217386
638.447017	0.217521
638.653692	0.217994
638.860350	0.218283
639.066990	0.218335
639.273611	0.218483
639.480214	0.218373
639.686798	0.218505
639.893365	0.219158
640.099913	0.219300
640.306443	0.219439
640.512955	0.219494
640.719449	0.219781
640.925924	0.219864
641.132381	0.220034
641.338820	0.220475
641.545241	0.220639
641.751644	0.220541
641.958028	0.220674
642.164394	0.220878
642.370742	0.220843
642.577071	0.220486
642.783383	0.220581
642.989676	0.220722
643.195951	0.220660
643.402207	0.220446
643.608446	0.220608
643.814666	0.220597
644.020868	0.220922
644.227052	0.221112
644.433218	0.221629
644.639365	0.221838
644.845494	0.221845
645.051605	0.221739
645.257698	0.221946
645.463772	0.222133
645.669828	0.222059
645.875866	0.221641
646.081886	0.222016
646.287888	0.221812
646.493871	0.221751
646.699836	0.222004
646.905783	0.222375
647.111712	0.222614
647.317622	0.222618
647.523514	0.222739
647.729388	0.223158
647.935244	0.222752
648.141082	0.222961
648.346901	0.223049
648.552702	0.223001
648.758485	0.222910
648.964250	0.222619
649.169996	0.222592
649.375724	0.222856
649.581434	0.222960
649.787126	0.223292
649.992800	0.223595
650.198455	0.223664
650.404092	0.224012
650.609711	0.224473
650.815311	0.225174
651.020894	0.225280
651.226458	0.225484
651.432004	0.225746
651.637532	0.225867
651.843041	0.225859
652.048532	0.225942
652.254006	0.225967
652.459460	0.226036
652.664897	0.225887
652.870315	0.226230
653.075716	0.226291
653.281097	0.226316
653.486461	0.226401
653.691807	0.226621
653.897134	0.227048
654.102443	0.227185
654.307734	0.226982
654.513006	0.227152
654.718261	0.227268
654.923497	0.227442
655.128715	0.227493
655.333915	0.227866
655.539096	0.228056
655.744259	0.228509
655.949404	0.228714
656.154531	0.229323
656.359640	0.229514
656.564730	0.229535
656.769802	0.229807
656.974856	0.230009
657.179892	0.230091
657.384909	0.230240
657.589908	0.230096
657.794889	0.230358
657.999852	0.230424
658.204797	0.230626
658.409723	0.230755
658.614631	0.230870
658.819521	0.231046
659.024393	0.231118
659.229246	0.231194
659.434081	0.231408
659.638898	0.231058
659.843697	0.231052
660.048478	0.231003
660.253240	0.231128
660.457984	0.231171
660.662710	0.231239
660.867417	0.231421
661.072107	0.231521
661.276778	0.231476
661.481431	0.231863
661.686066	0.231954
661.890682	0.232001
662.095281	0.232080
662.299861	0.232057
662.504422	0.232272
662.708966	0.232391
662.913491	0.232621
663.117999	0.232690
663.322488	0.232809
663.526958	0.233043
663.731411	0.233405
663.935845	0.233550
664.140261	0.233969
664.344659	0.234100
664.549038	0.234239
664.753400	0.234306
664.957743	0.234665
665.162068	0.234915
665.366375	0.234870
665.570663	0.234989
665.774933	0.235358
665.979185	0.235430
666.183419	0.235744
666.387635	0.236183
666.591832	0.236131
666.796011	0.236312
667.000172	0.236322
667.204315	0.236685
667.408439	0.236938
667.612545	0.237089
667.816634	0.237040
668.020703	0.237114
668.224755	0.236798
668.428788	0.237142
668.632803	0.237045
668.836800	0.237200
669.040779	0.237361
669.244739	0.237650
669.448681	0.237575
669.652605	0.237901
669.856511	0.238050
670.060399	0.238595
670.264268	0.238837
670.468119	0.239248
670.671952	0.239587
670.875767	0.239663
671.079563	0.239509
671.283341	0.239676
671.487101	0.239922
671.690843	0.239992
671.894567	0.239881
672.098272	0.239905
672.301959	0.239982
672.505628	0.240240
672.709278	0.240500
672.912911	0.241001
673.116525	0.241373
673.320121	0.241457
673.523699	0.241597
673.727258	0.241852
673.930799	0.242254
674.134322	0.242478
674.337827	0.242365
674.541314	0.242599
674.744782	0.242359
674.948232	0.242367
675.151664	0.242494
675.355078	0.242641
675.558474	0.242973
675.761851	0.242872
675.965210	0.243028
676.168551	0.243188
676.371873	0.243153
676.575178	0.243357
676.778464	0.243449
676.981732	0.243467
677.184981	0.243530
677.388213	0.243356
677.591426	0.243444
677.794621	0.243531
677.997798	0.243804
678.200956	0.243791
678.404097	0.244064
678.607219	0.244161
678.810323	0.244635
679.013408	0.244837
679.216476	0.245427
679.419525	0.245743
679.622556	0.246125
679.825569	0.246354
680.028563	0.246696
680.231540	0.246935
680.434498	0.247089
680.637438	0.247270
680.840359	0.247761
681.043263	0.247753
681.246148	0.247931
681.449015	0.247833
681.651864	0.247852
681.854694	0.247890
682.057506	0.248118
682.260301	0.248316
682.463076	0.248131
682.665834	0.247889
682.868573	0.248089
683.071295	0.248100
683.273998	0.248245
683.476682	0.248556
683.679349	0.248882
683.881997	0.248855
684.084627	0.248857
684.287239	0.249222
684.489833	0.249297
684.692408	0.248947
684.894965	0.249115
685.097504	0.249081
685.300025	0.249095
685.502527	0.249061
685.705012	0.249105
685.907478	0.249461
686.109925	0.249344
686.312355	0.249654
686.514766	0.250057
686.717159	0.250237
686.919534	0.250547
687.121891	0.250510
687.324230	0.250820
687.526550	0.250958
687.728852	0.250935
687.931136	0.250962
688.133401	0.250779
688.335649	0.250863
688.537878	0.250822
688.740089	0.251051
688.942281	0.251223
689.144456	0.251241
689.346612	0.251584
689.548750	0.251786
689.750870	0.252101
689.952971	0.252538
690.155055	0.252715
690.357120	0.252894
690.559167	0.252996
690.761195	0.253092
690.963206	0.253019
691.165198	0.252861
691.367172	0.252921
691.569128	0.252865
691.771065	0.253020
691.972984	0.253109
692.174885	0.253197
692.376768	0.253084
692.578633	0.253192
692.780479	0.253232
692.982308	0.253305
693.184118	0.253463
693.385909	0.253593
