sample name	sample
index	469
start time	 03-11-2021  12:14:28 PM
880	0.472916
Peak Time (s)	92.536
Peak Height 	0.4729
calc peak height	90,93
Baseline Time (s)	8.537
Baseline Value 	-0.00527
subtract baseline	10,4
Abs	0.300612
Peak Time (s)	91.035
Peak Height 	0.3006
calc peak height	90,93
Baseline Time (s)	9.035
Baseline Value 	0.0046
subtract baseline	10,3
PK_550	0.141130
Peak Time (s)	90.038
Peak Height 	0.1411
calc peak height	90,93
Baseline Time (s)	11.036
Baseline Value 	2.9061E-4
subtract baseline	10,2
PK_880	0.288829
Peak Time (s)	91.035
Peak Height 	0.2888
calc peak height	90,93
Baseline Time (s)	11.536
Baseline Value 	0.003198
subtract baseline	10,1


Time (s)	A880-A510	A880-A775	A880-A975	A880	I510	I775	I975	I880	
0.035000	-0.001224	-0.000324	-0.001811	0.001353	7075.122736	45699.004222	3954.268864	24246.795826
0.535500	-0.002264	-0.000565	-0.007031	0.004507	7034.394460	45365.579878	3932.294764	24091.818748
1.036000	-0.004895	0.000107	-0.003907	0.006812	6986.975538	45206.266264	3934.426121	23979.317773
1.536000	0.001042	0.000185	-0.002238	0.000914	7101.587731	45792.514512	3954.299435	24268.433092
2.036000	-0.001777	-0.000776	-0.001197	0.000604	7077.033460	45728.280360	3957.884616	24283.744460
2.539500	-0.000471	0.000324	-0.000392	0.001088	7085.062531	45789.130571	3958.739624	24259.845011
3.037000	-0.001073	0.000028	-0.000845	0.003788	7052.891354	45494.100351	3950.383458	24127.050076
3.537000	-0.000400	-0.000141	-0.000315	-0.000005	7096.456021	45851.193462	3961.855144	24313.835829
4.034500	0.001582	0.000120	-0.001803	0.000099	7114.913734	45866.745911	3957.618715	24308.708373
4.535000	-0.001130	0.000078	-0.001583	0.000019	7089.074349	45870.445327	3958.413543	24312.651163
5.035500	-0.000540	-0.000293	0.001179	-0.000589	7100.820517	45894.006867	3967.411509	24342.754500
5.535500	-0.000511	0.000658	-0.002203	0.000775	7087.728414	45853.056903	3954.759629	24275.277816
6.036000	0.000199	-0.000420	0.000701	-0.000396	7106.177332	45862.254943	3965.611550	24333.165789
6.535500	0.000764	0.000206	-0.001682	-0.000006	7107.901341	45885.622701	3958.218804	24313.898847
7.036500	0.000421	0.000857	-0.003838	0.000343	7101.099428	45915.578367	3951.579040	24296.646223
7.536500	-0.000234	0.000539	-0.001109	0.000183	7096.236697	45899.854163	3959.238583	24304.517391
8.037000	-0.000654	-0.000179	0.001707	0.000091	7093.036265	45837.948433	3967.003077	24309.111785
8.537000	0.000425	-0.000102	-0.000838	0.000000	7104.507277	45854.584471	3960.448366	24313.587995
9.035000	-0.001465	0.000514	0.000000	0.000147	7084.539493	45900.993508	3962.289190	24306.315702
9.535000	0.002427	0.001076	0.003226	0.000528	7119.013203	45918.911679	3969.903580	24287.479002
10.035500	-0.000974	-0.000061	-0.006134	-0.000113	7091.885888	45869.747745	3946.721797	24319.159678
10.535500	0.000568	0.000687	0.001370	0.000305	7102.914842	45902.449464	3965.526205	24298.489985
11.036000	-0.000593	0.000000	0.002145	-0.000060	7095.106726	45870.569822	3968.580117	24316.555780
11.536000	0.000000	-0.000207	-0.004058	-0.000153	7101.832402	45859.241207	3952.306477	24321.143621
12.036500	0.000700	0.000154	-0.002805	-0.000032	7107.527912	45883.030605	3955.305615	24315.177065
12.536500	0.000587	0.000192	0.001361	-0.000238	7108.441277	45907.235912	3966.957702	24325.369164
13.036500	0.000895	0.000109	0.002768	-0.001787	7126.738412	46052.668255	3974.901994	24402.142443
13.537500	-0.000558	0.000083	-0.003616	0.000456	7090.397310	45827.735835	3951.864617	24291.051046
14.043500	-0.001043	0.000011	-0.000437	0.000239	7087.766952	45841.981689	3960.877746	24301.746366
14.535500	-0.003145	-0.000627	-0.003619	0.002435	7045.913695	45562.662892	3946.636743	24193.482634
15.034500	-0.002034	-0.000805	-0.007586	0.001609	7064.729767	45626.424080	3938.399886	24234.153056
15.538500	0.001020	0.000672	0.003117	0.000401	7106.412615	45891.484590	3969.951658	24293.769073
16.042000	-0.000653	-0.000574	-0.002423	-0.000514	7098.963253	45858.606339	3957.596475	24339.004201
16.539000	-0.000067	0.000288	-0.000992	-0.000226	7101.894805	45915.508713	3960.638906	24324.778348
17.036500	0.000758	0.000302	0.002587	0.002670	7081.611598	45630.961374	3962.459657	24181.927042
17.537000	0.002660	0.000157	0.002353	-0.002854	7154.802363	46163.618058	3976.663169	24455.225520
18.037000	0.000244	-0.000051	-0.001132	-0.001435	7116.842838	46001.759314	3963.491313	24384.673903
18.537500	-0.001622	0.000519	0.000138	0.001137	7073.343341	45803.512162	3960.019278	24257.442715
19.035000	0.000650	0.000852	-0.001745	0.001766	7089.393281	45774.265431	3953.348633	24226.402065
19.535000	-0.001534	0.000534	0.003381	0.001546	7070.209461	45764.608691	3967.589791	24237.248290
20.035500	-0.001690	-0.000055	-0.002477	0.000549	7078.417934	45804.918349	3954.634381	24286.452802
20.535500	-0.002199	-0.000419	-0.002937	0.000818	7070.826079	45742.431896	3952.702944	24273.181561
21.038500	0.000473	0.000529	-0.004166	0.001365	7091.589289	45781.969484	3948.015497	24246.200289
21.536500	-0.001089	0.000257	-0.005041	0.001699	7073.060180	45722.182336	3944.832362	24229.720166
22.037000	-0.000164	0.000471	-0.001085	0.001804	7081.054271	45732.829831	3954.994872	24224.526684
22.537000	-0.001266	-0.000217	0.000545	0.001268	7075.542115	45717.965479	3960.754307	24250.989970
23.037500	-0.001216	0.000551	0.000894	0.001889	7069.970176	45732.424341	3960.028143	24220.368489
23.534500	-0.000700	-0.000356	-0.003731	0.001520	7078.601734	45679.373746	3948.751886	24238.549734
24.035000	0.000186	0.000216	-0.002799	0.001815	7084.375062	45706.631223	3950.431312	24223.997418
24.535500	-0.000349	0.000005	0.002328	0.001717	7080.106616	45695.511021	3964.312582	24228.830772
25.035500	-0.001356	-0.000040	-0.000113	0.001428	7073.095656	45719.545855	3958.577264	24243.071541
25.539000	0.000342	-0.000037	0.000847	0.001517	7088.819599	45711.162622	3960.896905	24238.704045
26.036000	-0.002497	-0.000130	-0.002199	0.001071	7065.454145	45745.885802	3953.985611	24260.667087
26.537000	0.000668	0.000702	0.001947	0.001674	7090.470435	45768.561875	3963.410012	24230.943485
27.034000	0.000043	0.000121	-0.000879	0.001712	7083.978312	45707.431199	3955.786309	24229.057280
27.537000	-0.001050	-0.000183	-0.003373	0.001065	7079.626020	45741.328091	3950.900215	24261.002364
28.037000	0.003731	0.000775	0.006972	-0.002000	7156.949606	46140.129870	3986.874515	24412.718615
28.535000	0.000364	0.000431	0.001165	0.000247	7101.483677	45882.834589	3965.134298	24301.391323
29.048500	-0.000129	-0.000105	0.000666	0.001051	7088.769746	45750.430842	3961.654019	24261.677645
29.535500	-0.000050	-0.000285	-0.001389	0.000055	7099.305901	45830.979975	3958.835195	24310.876559
30.036000	-0.000009	0.000238	-0.000938	0.000207	7098.219804	45867.715956	3959.632124	24303.375893
30.536000	-0.001431	-0.000109	-0.000299	-0.000206	7088.324971	45874.174096	3962.433217	24323.761565
31.036000	-0.000796	-0.000161	-0.000985	0.000433	7088.287668	45805.859665	3958.903637	24292.190680
31.537000	-0.000829	0.000759	-0.003706	0.002790	7064.957985	45664.078965	3945.473987	24176.039902
32.037000	-0.000993	0.000380	-0.006634	0.002019	7070.875833	45702.765711	3939.817939	24213.965709
32.538000	0.000899	0.000183	0.000631	0.000119	7108.002579	45871.050843	3964.048799	24307.721491
33.056500	-0.000387	0.000320	-0.000370	0.000749	7089.194115	45822.152579	3959.698397	24276.564788
33.535500	0.001113	0.000757	-0.001768	0.000405	7107.287688	45899.525871	3956.897527	24293.584891
34.035500	0.000868	-0.000209	-0.004047	-0.000262	7111.436862	45869.811247	3952.623004	24326.529465
34.539500	-0.001824	0.000024	0.000626	-0.000180	7084.231234	45884.859219	3964.834676	24322.493184
35.036000	-0.001118	0.000211	-0.000443	0.000656	7082.954174	45820.568010	3959.750382	24281.146671
35.536000	-0.000954	0.000023	-0.000814	0.002117	7070.295728	45657.882393	3954.884118	24209.120441
36.036500	-0.001436	-0.000729	-0.003981	0.001679	7069.871952	45626.985467	3947.673339	24230.704940
36.537000	0.000546	0.000690	0.000318	0.002626	7079.966593	45673.480766	3956.538086	24184.087492
37.037000	-0.000890	0.001125	0.001948	0.003184	7060.533804	45661.295503	3959.388170	24156.680582
37.534000	-0.002084	0.000207	-0.001354	0.002005	7060.399364	45687.146611	3953.752399	24214.674107
38.035000	-0.002651	-0.000015	0.002329	0.002063	7054.315059	45659.527717	3963.391835	24211.799875
38.535500	-0.002138	0.000034	-0.006859	0.001935	7060.541413	45676.923796	3939.446259	24218.082813
39.035000	-0.002128	0.000639	-0.002158	0.002753	7052.700292	45655.938238	3949.649859	24177.865617
39.538500	-0.001275	-0.000369	0.001579	0.001691	7071.316754	45661.202723	3962.381972	24230.093677
40.036000	-0.001686	0.001074	-0.003798	0.002439	7060.034581	45729.724834	3946.154018	24193.279351
40.536500	-0.000323	0.000043	-0.002445	0.002173	7075.905515	45654.366175	3950.422602	24206.385749
41.036500	-0.003497	-0.000563	-0.003618	0.001803	7048.630962	45631.159514	3948.303484	24224.607543
41.537000	-0.002549	-0.000353	-0.000441	0.001971	7056.203203	45635.295988	3956.262425	24216.339523
42.037000	-0.000426	0.000704	0.002225	0.002942	7067.410225	45643.739536	3960.768353	24168.571452
42.535000	-0.000885	0.000541	-0.003921	0.002573	7066.532929	45664.031101	3945.479479	24186.717143
43.035000	-0.002423	0.000377	-0.002217	0.002133	7055.846918	45691.136215	3951.130725	24208.336721
43.535000	0.000517	0.000524	0.001747	0.002581	7080.125540	45661.605540	3960.457455	24186.328197
44.038000	-0.000743	0.000164	-0.001731	0.002290	7070.664612	45654.722812	3951.999934	24200.615083
44.536000	0.000019	0.000944	-0.000974	0.002837	7072.769659	45677.750175	3952.556283	24173.743755
45.036000	-0.001435	0.000002	-0.001681	0.002030	7066.459360	45664.432178	3952.819998	24213.418298
45.537000	-0.001235	-0.000574	-0.000919	-0.000099	7089.196882	45817.633889	3960.493226	24318.462019
46.036500	0.000183	-0.000359	0.000489	0.000267	7099.500916	45802.700340	3963.274024	24300.370989
46.568500	-0.001615	0.000034	-0.000970	0.000490	7079.732644	45819.548893	3958.793262	24289.387318
47.037000	0.001064	0.001247	0.003450	0.001662	7094.476472	45823.621206	3967.463941	24231.565403
47.535000	-0.000589	0.000424	0.002247	0.001297	7081.862000	45778.355854	3965.220488	24249.550070
48.035000	0.001883	0.000660	0.004157	0.000750	7111.466457	45855.692414	3971.807888	24276.508147
48.535500	0.001865	0.000420	0.002737	0.000544	7113.316359	45852.347218	3968.549459	24286.714414
49.035500	-0.001553	0.000712	0.000494	0.002039	7065.232251	45733.606131	3958.566591	24213.000420
49.536000	-0.001240	0.000005	0.003179	0.003725	7051.879913	45498.072010	3961.223881	24130.130821
50.036500	0.000612	0.000962	0.000782	0.001490	7091.726842	45812.427870	3960.793296	24240.016343
50.536500	0.000328	0.000587	0.004783	0.001039	7093.351985	45819.895514	3972.714279	24262.240332
51.037000	-0.001049	0.000551	-0.004569	0.000752	7082.696854	45844.747774	3948.566906	24276.431320
51.537000	0.000209	-0.000236	0.000681	0.000063	7101.763625	45835.061205	3964.331965	24310.457444
52.038000	0.004107	0.000684	0.010114	-0.001411	7154.834133	46072.441737	3993.850430	24383.496699
52.535000	-0.001063	0.000186	0.001390	0.001556	7074.697527	45729.226491	3962.236894	24236.745314
53.034500	0.018377	0.006298	0.005955	0.047448	6824.353350	41979.439201	3857.069919	22090.516499
53.535000	-0.025055	-0.006282	-0.017461	0.122567	5872.073324	34831.458193	3643.237494	19031.911822
54.036000	-0.035795	-0.030658	-0.030338	-0.154393	8438.741070	60031.768119	4345.888631	33483.201498
54.536500	-0.063000	-0.140281	-0.032176	-0.303948	10261.249049	65535.000000	4970.699635	46082.763255
55.035500	-0.123567	-0.272024	-0.074579	-0.435691	11583.215563	65535.000000	5465.654934	61409.560640
55.536500	-0.074552	-0.301582	-0.071939	-0.465249	13317.551194	65535.000000	5670.515405	65535.000000
56.037000	-0.005308	-0.155854	-0.004545	-0.319520	11625.369372	65535.000000	5197.364838	47661.654619
56.537000	-0.009488	-0.133191	-0.000461	-0.296858	11098.689602	65535.000000	5097.121088	45382.437355
57.034500	-0.018241	-0.082153	-0.003755	-0.245518	10031.214265	65491.554711	4826.014802	40638.523606
57.535000	-0.003580	-0.075369	0.002535	-0.238596	10160.555167	65471.618942	4823.073657	40040.728554
58.038000	0.018018	-0.055327	0.017504	-0.214480	10118.214643	64887.320066	4780.987316	38031.000898
58.535500	0.037535	-0.024950	0.033277	-0.172793	9755.903107	63293.515733	4666.454466	34809.639329
59.036000	0.054442	0.005546	0.060319	-0.101253	8938.164223	57846.154035	4485.038582	29953.340414
59.536000	0.071520	0.022839	0.072930	-0.037217	8312.993200	52238.190658	4297.278374	26235.444421
60.036500	0.100488	0.041236	0.102918	0.032971	7817.256115	46690.399833	4165.229033	22743.252223
60.537000	0.125522	0.056642	0.128646	0.098772	7371.122992	41891.345227	4045.216163	19944.176229
61.037000	0.154195	0.073945	0.150792	0.152471	7117.289293	38755.868124	3958.209492	17954.120370
61.534500	0.165937	0.084664	0.170202	0.242963	6407.615785	32737.098873	3783.891464	15110.175358
62.034500	0.187235	0.098536	0.187825	0.272613	6339.622837	31672.109019	3757.119026	14300.031346
62.538000	0.202091	0.107775	0.210776	0.301306	6229.820656	30411.190970	3744.594873	13566.974206
63.035500	0.216291	0.116460	0.223230	0.321697	6181.808734	29679.225830	3727.555255	13074.689932
63.535500	0.227350	0.123012	0.243633	0.335804	6158.428259	29217.253255	3741.047786	12747.408640
64.036000	0.233453	0.128943	0.244648	0.375031	5914.588408	27273.989753	3662.091788	11891.227342
64.563500	0.252562	0.137005	0.258328	0.393565	5918.668261	26693.063484	3652.550402	11512.840295
65.036500	0.257347	0.141624	0.258241	0.401533	5896.169530	26510.172217	3636.950853	11355.058075
65.539500	0.262565	0.143325	0.264475	0.406677	5896.701609	26323.639377	3639.045477	11254.739543
66.037000	0.265400	0.143530	0.268614	0.409207	5898.848555	26198.502204	3642.145522	11205.819960
66.548500	0.266115	0.145755	0.270147	0.418339	5840.092666	25830.694289	3627.601883	11031.622323
67.038000	0.270665	0.147710	0.267708	0.418712	5869.106001	25914.428362	3622.285272	11024.582343
67.535000	0.271475	0.147003	0.271736	0.420487	5862.377904	25783.197780	3626.542513	10991.169323
68.036000	0.271654	0.149067	0.273209	0.423628	5841.825816	25726.515263	3623.389502	10932.398844
68.536000	0.272244	0.148864	0.272116	0.429447	5805.870890	25411.994681	3610.444075	10824.602360
69.036500	0.275496	0.150508	0.274604	0.430410	5821.554516	25447.304846	3613.281834	10806.903339
69.536000	0.274074	0.149764	0.276102	0.431195	5806.432861	25368.058043	3614.613784	10792.514483
70.037000	0.275634	0.149151	0.271170	0.432707	5806.757080	25258.331907	3602.667858	10764.844366
70.537000	0.276415	0.150745	0.277544	0.440294	5760.600000	24951.746788	3600.440035	10627.507889
71.035000	0.278264	0.151280	0.276401	0.440940	5768.706544	24946.122571	3597.166200	10615.929735
71.537000	0.276913	0.150010	0.278852	0.443681	5741.224427	24743.343619	3596.636067	10566.970627
72.035000	0.275220	0.149861	0.275936	0.443057	5734.089895	24767.237442	3592.460799	10578.087583
72.535500	0.275793	0.151072	0.276917	0.448195	5703.806566	24570.284691	3584.947763	10487.008737
73.035500	0.278748	0.150823	0.281769	0.445730	5739.793904	24681.206441	3598.222420	10530.566779
73.536000	0.279792	0.150721	0.285452	0.446156	5743.922375	24654.704536	3604.202294	10523.014528
74.036500	0.278514	0.150255	0.282712	0.446645	5732.127441	24606.906633	3598.273131	10514.362496
74.536500	0.278140	0.149237	0.278548	0.451576	5696.987903	24311.432288	3581.804218	10427.658784
75.037000	0.280303	0.149480	0.289000	0.448540	5731.418825	24473.800306	3606.350486	10480.920147
75.537500	0.281110	0.149191	0.286416	0.449923	5727.587891	24390.893125	3599.052932	10456.621196
76.037000	0.281837	0.149482	0.285989	0.450053	5731.564086	24398.826886	3598.033533	10454.339851
76.535000	0.280378	0.149466	0.281185	0.455607	5685.214116	24124.696877	3579.310942	10357.505919
77.035500	0.283865	0.150341	0.288682	0.452661	5727.694367	24312.383125	3598.188680	10408.706305
77.536000	0.286325	0.148588	0.283364	0.451999	5748.541225	24258.621032	3589.715977	10420.257476
78.036000	0.284769	0.149021	0.283595	0.452334	5735.903037	24263.443277	3589.528450	10414.415397
78.536000	0.287560	0.150671	0.291140	0.453728	5745.237628	24276.039468	3600.736645	10390.116294
79.036500	0.282122	0.148069	0.285775	0.453082	5713.332466	24179.903188	3592.122703	10401.367473
79.536500	0.286122	0.146966	0.282670	0.452263	5745.417376	24166.042663	3587.983721	10415.656405
80.037000	0.288170	0.148901	0.287699	0.454668	5743.026254	24142.964214	3592.736391	10373.780079
80.534500	0.286354	0.148295	0.290881	0.459757	5697.209994	23866.101318	3589.279315	10285.953008
81.037500	0.287863	0.146812	0.289740	0.454073	5744.957284	24070.035455	3597.542613	10384.129078
81.535000	0.287039	0.148398	0.287074	0.456156	5725.561058	24045.755990	3588.907928	10347.996861
82.035500	0.286374	0.147291	0.275973	0.455826	5723.338913	24007.940392	3569.670990	10353.711185
82.536000	0.285677	0.146606	0.292167	0.462679	5673.605007	23644.537568	3586.325622	10235.974766
83.036000	0.286220	0.146496	0.291876	0.457267	5712.762589	23899.530831	3595.609903	10328.803584
83.536500	0.287082	0.145185	0.288137	0.456949	5720.576042	23851.515819	3589.395766	10334.284395
84.036500	0.286587	0.144441	0.293640	0.457405	5714.277007	23793.688133	3598.580345	10326.420268
84.537000	0.290837	0.146107	0.297189	0.460316	5723.155706	23733.811720	3599.749109	10276.365260
85.038000	0.290279	0.147218	0.291180	0.461659	5710.554723	23722.668555	3586.384751	10253.378966
85.537500	0.287046	0.144497	0.290075	0.460931	5694.036193	23627.316467	3585.707355	10265.842543
86.035000	0.287507	0.143493	0.297751	0.461044	5696.328844	23574.008039	3599.444218	10263.905715
86.535000	0.285495	0.143179	0.295823	0.467181	5643.190054	23269.015162	3584.803580	10159.650740
87.035500	0.287935	0.143114	0.288099	0.462412	5690.143301	23491.000918	3579.506215	10240.537578
87.535500	0.285822	0.142670	0.289433	0.463480	5669.327619	23419.336127	3579.980454	10222.336269
88.035500	0.288002	0.141989	0.290227	0.463102	5686.057419	23405.036769	3582.079277	10228.782278
88.536500	0.279394	0.140061	0.290675	0.468354	5596.600601	23068.623170	3573.515668	10139.889933
89.036500	0.286210	0.140713	0.293560	0.464273	5666.693753	23289.791117	3585.964683	10208.871911
89.537000	0.287750	0.140065	0.289139	0.464783	5673.411030	23235.430265	3577.132178	10200.210828
90.037500	0.286396	0.141130	0.296441	0.466312	5654.650986	23213.715155	3587.482215	10174.320249
90.535000	0.285859	0.140318	0.289539	0.471454	5618.052911	22936.924440	3566.042379	10087.921950
91.035000	0.288829	0.140134	0.300612	0.467075	5665.499798	23131.522603	3593.657052	10161.431271
91.535000	0.287735	0.139591	0.296849	0.466854	5659.824644	23116.540843	3587.240138	10165.171709
92.035500	0.287102	0.139399	0.297017	0.467518	5651.411521	23076.736595	3586.345383	10153.968930
92.536000	0.285510	0.137724	0.288564	0.472916	5606.488517	22750.570971	3561.776652	10063.540727
93.036000	0.286887	0.138441	0.292794	0.468246	5645.305279	22998.496000	3577.473355	10141.712066
93.536500	0.287873	0.136360	0.295865	0.467003	5659.746480	22959.694354	3585.198705	10162.647251
94.037000	0.287673	0.135808	0.295543	0.467926	5652.460413	22891.632391	3582.960657	10147.084888
94.537500	0.285409	0.135097	0.291062	0.473310	5603.332156	22612.884795	3565.457472	10056.984713
95.037000	0.289012	0.136314	0.292183	0.469951	5648.024572	22821.827489	3573.358110	10113.078889
95.535000	0.292336	0.136905	0.297578	0.470420	5666.555805	22827.442184	3582.139233	10105.223241
96.084500	0.287941	0.136801	0.300469	0.470590	5636.975903	22814.820835	3587.030663	10102.364742
96.550000	0.288065	0.135080	0.296999	0.475813	5604.303625	22498.755911	3571.504669	10015.475734
97.036000	0.290438	0.135544	0.298514	0.471508	5647.172227	22715.311929	3581.864845	10087.021244
97.536000	0.288872	0.133939	0.296171	0.470722	5642.135875	22677.972171	3579.080208	10100.166930
