sample name	sample
index	130
start time	 02-15-2021  01:14:50 PM
880	0.409305
Peak Time (s)	91.037
Peak Height 	0.4093
calc peak height	90,93
Baseline Time (s)	9.534
Baseline Value 	-0.002425
subtract baseline	10,4
Abs	0.270380
Peak Time (s)	90.037
Peak Height 	0.2704
calc peak height	90,93
Baseline Time (s)	10.035
Baseline Value 	0.008147
subtract baseline	10,3
PK_550	0.135077
Peak Time (s)	92.535
Peak Height 	0.1351
calc peak height	90,93
Baseline Time (s)	9.534
Baseline Value 	0.001667
subtract baseline	10,2
PK_880	0.262828
Peak Time (s)	91.535
Peak Height 	0.2628
calc peak height	90,93
Baseline Time (s)	9.534
Baseline Value 	0.003573
subtract baseline	10,1


Time (s)	A880-A510	A880-A775	A880-A975	A880	I510	I775	I975	I880	
0.035000	0.000453	-0.000606	0.000842	-0.001150	4289.890724	15836.092294	3269.247365	8938.007919
0.535000	-0.004250	-0.001954	-0.015076	0.003584	4262.649523	15658.298426	3255.646111	8873.636971
1.035500	-0.004489	-0.002109	-0.009563	0.001182	4268.843613	15723.705634	3260.782476	8906.214259
1.537000	-0.001349	-0.001463	0.002898	-0.002149	4287.547677	15840.254531	3271.315014	8951.678211
2.036000	0.001179	-0.001471	-0.000144	-0.001718	4293.669631	15827.348579	3268.965696	8945.776482
2.536500	-0.002277	-0.002936	-0.014281	0.002288	4272.022257	15667.439941	3256.994517	8891.196536
3.036500	0.007255	-0.001320	-0.005915	-0.003171	4315.898049	15874.630284	3266.070908	8965.705921
3.537000	0.003703	-0.000890	0.005628	-0.001123	4299.331395	15826.961381	3272.474688	8937.648094
4.037000	-0.001837	-0.000754	-0.003015	-0.000863	4282.393288	15823.294338	3266.466256	8934.086308
4.535000	-0.000665	-0.001916	-0.010763	0.002625	4275.693453	15687.308107	3259.056830	8886.625184
5.035000	0.002935	-0.001326	0.005200	-0.001245	4297.432134	15817.692845	3272.265816	8939.306591
5.535000	0.002060	0.001054	-0.000355	-0.000185	4291.765429	15856.563559	3267.793472	8924.836455
6.035500	0.000094	0.000456	-0.010812	-0.000200	4286.075947	15839.380800	3260.869337	8925.031498
6.535500	-0.000828	0.000408	-0.009482	0.000344	4281.819113	15821.964543	3261.385268	8917.615991
7.036000	-0.002491	0.000800	0.007460	-0.000293	4278.847441	15852.248867	3273.158384	8926.302675
7.539000	0.000936	0.000676	0.006054	0.000628	4286.115770	15821.487770	3271.572119	8913.746751
8.036500	0.005308	0.002347	0.016746	0.001471	4296.426969	15845.872760	3278.344188	8902.292015
8.537000	0.000043	0.000827	-0.010575	-0.000104	4285.648811	15847.477288	3260.962051	8923.722178
9.036500	-0.004029	-0.002406	-0.014618	0.001497	4269.260472	15705.869367	3257.288064	8901.934450
9.534500	0.000000	0.000000	0.010476	0.000000	4285.221675	15820.093668	3275.025579	8922.310072
10.035000	0.001156	-0.000429	0.000000	-0.000142	4289.001323	15811.652207	3268.002792	8924.248740
10.535500	-0.000711	0.000580	-0.002713	0.000002	4283.151263	15837.088688	3266.090290	8922.284173
11.035500	0.004508	0.001009	0.009737	0.000866	4295.853485	15824.302231	3273.923244	8910.511007
11.536000	-0.000111	-0.000216	0.002151	-0.000319	4285.827620	15823.138313	3269.570433	8926.667043
12.039000	0.000785	0.000272	0.009241	0.000257	4286.758080	15820.539625	3274.001154	8918.809470
12.536500	-0.000830	-0.001229	-0.013531	-0.000359	4283.852320	15794.520810	3259.197484	8927.201364
13.036500	-0.002959	0.001321	0.005694	0.005548	4260.734550	15696.449530	3268.005494	8847.149533
13.537000	-0.000253	-0.000123	-0.003795	-0.001815	4289.769575	15869.918086	3266.581210	8947.105506
14.037000	0.000983	-0.000683	-0.000068	-0.000697	4290.116521	15820.529114	3268.329991	8931.826050
14.534500	-0.000201	0.000970	-0.002333	0.003337	4274.978315	15750.707513	3264.126027	8876.988975
15.035500	-0.001801	0.000820	-0.019048	0.004844	4266.050257	15702.348022	3252.301820	8856.624962
15.548500	-0.000354	0.000249	0.005800	-0.000115	4284.529611	15830.817830	3271.905257	8923.884012
16.036000	0.001634	0.000877	-0.006563	0.000251	4289.249551	15838.526882	3263.368845	8918.893064
16.536000	0.003316	0.001296	0.012642	0.000530	4293.347735	15842.627814	3276.152272	8915.089699
17.036500	0.002580	0.001466	-0.001845	0.007576	4270.783241	15641.742094	3261.651462	8819.909720
17.536500	0.002156	0.001697	0.010544	-0.002031	4297.454566	15930.166883	3276.472414	8950.074102
18.040000	0.003172	-0.000903	-0.003625	-0.000722	4296.591202	15814.764876	3265.964819	8932.159554
18.536500	0.002194	0.001531	0.003211	0.003080	4282.649076	15774.663575	3267.995579	8880.468130
19.034500	0.002114	0.000697	0.008747	0.003925	4279.967729	15725.558272	3271.162792	8869.038123
19.535000	0.003166	0.000207	0.001818	0.001701	4289.488737	15776.250158	3267.986112	8899.168505
20.035000	0.002069	0.001500	0.001449	0.003554	4280.912270	15759.838572	3266.497362	8874.046065
20.535500	0.003146	0.001348	0.009053	0.003076	4285.427659	15769.421869	3271.947482	8880.523449
21.036000	0.000734	0.001716	-0.003680	0.003505	4277.192703	15767.592668	3263.123532	8874.710669
21.539000	-0.001047	0.000924	0.007739	0.002187	4275.855463	15783.022949	3271.658067	8892.562649
22.036500	0.003913	0.000864	-0.009221	0.003103	4287.576729	15754.434523	3259.750683	8880.146960
22.536500	-0.002215	0.000315	-0.004003	0.002403	4271.869189	15758.867209	3263.639015	8889.637397
23.036000	0.003613	0.000639	-0.007047	0.003729	4284.883326	15729.572669	3260.762491	8871.678270
23.537000	0.007947	0.001699	-0.014961	0.003038	4299.572409	15780.793514	3256.071515	8881.027419
24.034500	-0.001833	0.000636	0.011818	0.002584	4272.446329	15762.959774	3274.172224	8887.177766
24.534500	0.001936	0.002199	0.008435	0.004087	4278.984303	15764.716885	3270.840327	8866.841273
25.035500	0.007736	0.000431	-0.010913	0.002485	4300.578613	15759.865635	3259.050599	8888.524205
25.536000	0.002696	-0.000050	0.009713	0.002130	4286.867718	15756.164480	3273.042089	8893.336112
26.036000	0.002074	-0.001297	-0.000112	0.001553	4286.739108	15736.577382	3266.791579	8901.175484
26.536000	0.000988	0.000922	-0.006952	0.003339	4278.406175	15749.221510	3261.079930	8876.953719
27.036500	0.000732	0.000827	0.000961	0.004274	4274.967791	15719.159843	3265.691792	8864.320037
27.536500	0.004705	0.000939	-0.007768	0.003704	4288.136230	15739.053791	3260.306963	8872.020497
28.037000	0.003152	0.001089	0.006412	-0.000542	4296.007095	15868.131037	3272.613001	8929.703681
28.534500	0.000878	0.001036	0.008843	0.005317	4272.383383	15694.876332	3270.284047	8850.260593
29.068000	-0.003523	0.003073	0.013552	0.008771	4249.984160	15653.675602	3271.134389	8803.916511
29.535500	0.002227	0.002727	0.014099	0.003467	4281.623949	15798.379547	3275.132941	8875.231602
30.035500	0.003684	0.002050	0.015782	0.002135	4289.733161	15817.605485	3277.214276	8893.271650
30.535000	0.007375	0.002806	0.002666	0.005935	4289.416551	15728.453996	3265.721089	8841.939538
31.038500	-0.001435	0.000393	0.012944	0.007205	4260.351387	15621.386222	3271.785414	8824.876785
31.536500	0.000330	0.000403	0.004107	0.004317	4273.683566	15705.535875	3267.766430	8863.738340
32.036500	0.002740	-0.000803	0.006058	0.003497	4283.021270	15694.286764	3269.631593	8874.814747
32.547000	0.002849	0.001566	0.003926	0.004543	4280.305188	15732.875439	3267.493384	8860.684341
33.037500	-0.001777	0.001337	0.008013	0.008060	4256.946947	15623.991576	3267.876047	8813.431015
33.535000	0.001294	0.001087	0.004613	0.002147	4282.743495	15788.960333	3269.567575	8893.109213
34.034500	0.005848	0.001664	0.003646	0.003126	4293.161070	15777.186860	3268.256592	8879.845518
34.535500	0.002362	0.002084	0.009493	0.004630	4278.646991	15745.473003	3271.190214	8859.514837
35.035500	0.001974	0.001377	0.004315	0.006816	4271.223717	15661.188639	3266.233423	8830.099504
35.536000	0.003441	0.000765	-0.005237	0.003984	4283.642630	15725.806913	3261.782269	8868.231933
36.036000	0.002498	0.000322	0.014658	0.004076	4280.642895	15710.201619	3275.098015	8866.989573
36.536500	0.003051	0.000899	-0.010407	0.005543	4277.998950	15684.327696	3257.394979	8847.218417
37.036500	0.003601	0.001013	0.003505	0.004582	4282.372784	15715.603434	3267.185499	8860.165692
37.537000	0.000435	0.002152	0.003958	0.005059	4271.851303	15734.939583	3267.169645	8853.736891
38.037500	0.005623	0.000586	0.002451	0.004314	4289.033834	15710.972224	3266.659188	8863.781775
38.534500	0.006324	0.001315	-0.013951	0.004792	4289.681924	15718.283806	3255.592697	8857.328037
39.035500	0.003807	0.002334	0.004566	0.005181	4281.233820	15736.661538	3267.494366	8852.083688
39.535000	0.003696	0.000867	0.008967	0.004769	4282.105780	15705.900514	3270.738749	8857.640271
40.036000	0.000133	0.000881	0.003617	0.003908	4274.296033	15731.440559	3267.712705	8869.270315
40.538000	0.001205	-0.000698	-0.010637	0.003613	4278.240557	15693.964845	3258.496264	8873.245321
41.036000	0.003468	0.001678	-0.005401	0.005906	4278.152660	15696.393610	3260.414928	8842.322947
41.537000	0.002112	0.000953	0.008440	0.004899	4277.145765	15704.612449	3270.294186	8855.885159
42.037000	0.000753	0.000592	-0.007072	0.003851	4276.246877	15724.652864	3260.666473	8870.033192
42.537000	0.002218	0.001314	0.005026	0.004838	4277.627645	15716.924769	3268.033742	8856.711352
43.035000	0.004769	0.001745	0.009838	0.005353	4283.524495	15714.472548	3270.933643	8849.768233
43.535000	0.003233	0.000695	0.005610	0.004462	4281.653199	15709.824144	3268.678914	8861.779669
44.035500	0.002342	-0.000081	-0.000960	0.004107	4280.101922	15697.562783	3264.525507	8866.573467
44.535500	0.004686	0.001611	0.004463	0.005611	4282.535930	15703.051885	3267.138093	8846.301290
45.039000	0.003830	0.000174	-0.002026	0.006019	4278.873727	15649.407035	3262.556510	8840.804356
45.536000	0.005609	0.001140	0.020110	0.003489	4291.399165	15751.222794	3279.280944	8874.927761
46.036500	0.003307	0.001274	-0.002189	0.003258	4285.363428	15761.899109	3264.273136	8878.048986
46.533500	0.003731	0.001074	0.008917	0.003590	4285.629838	15746.342815	3271.504796	8873.557707
47.036500	0.000672	0.001101	-0.006883	0.008892	4261.549394	15593.113162	3257.507453	8802.301121
47.536500	0.003500	0.002414	-0.006756	0.004112	4283.443020	15770.288916	3260.702691	8866.509937
48.034500	0.008847	0.000764	0.005959	0.003560	4300.686323	15738.178468	3269.522045	8873.969482
48.558000	0.005520	0.002207	0.011126	0.004623	4287.833455	15749.282722	3272.306010	8859.612659
49.035500	0.004121	0.002473	0.006395	0.007365	4275.827696	15677.096791	3267.257333	8822.738683
49.535500	0.004178	0.001478	0.009355	0.005975	4280.009528	15688.571471	3270.185239	8841.403803
50.061500	0.007492	0.003168	0.003019	0.005062	4292.307242	15764.538813	3266.539363	8853.694747
50.536000	0.001685	0.002257	0.002036	0.005313	4274.718673	15730.560145	3265.715306	8850.304960
51.037000	0.000650	0.003300	0.007346	0.009491	4259.780473	15639.378149	3266.470319	8794.298593
51.537000	0.002254	0.000062	-0.005590	-0.000399	4292.957655	15833.661386	3264.443088	8927.751930
52.037500	0.007819	0.002040	0.000077	0.001186	4304.653525	15845.235639	3267.163930	8906.163904
52.534500	0.004993	0.002347	0.017354	0.006292	4281.449142	15704.626640	3275.428072	8837.132565
53.035000	-0.054372	-0.031623	0.050221	0.307402	3571.576913	8901.827354	3137.624857	5918.407231
53.535000	0.001565	-0.004732	-0.016488	0.092649	4046.363579	13255.619856	3203.125281	7784.708255
54.036000	0.021174	-0.008807	0.019572	0.026502	4269.825260	14823.158180	3263.291831	8571.757144
54.537500	0.001594	-0.013938	0.012521	-0.029943	4380.310712	16299.378166	3297.853121	9344.984464
55.036500	0.012887	-0.007146	0.027863	0.006794	4303.057188	15416.784588	3282.399322	8830.393271
55.536500	0.044596	0.007957	0.045265	0.020005	4358.770949	15470.767599	3285.367062	8655.728509
56.037000	0.066371	0.019462	0.082331	0.030152	4395.026031	15509.681196	3305.125801	8525.140414
56.536500	0.092657	0.027386	0.093873	0.072480	4345.258923	14560.958274	3282.627508	8012.113409
57.037500	0.110126	0.037731	0.131822	0.115906	4268.529623	13716.925245	3278.789422	7535.254333
57.534500	0.122172	0.045423	0.126899	0.172223	4147.794437	12587.377781	3239.015527	6983.776586
58.035000	0.138519	0.059483	0.144472	0.194042	4133.705617	12418.552575	3236.460108	6788.608631
58.535500	0.157954	0.064534	0.157154	0.225118	4104.321373	11873.806779	3225.673926	6527.037447
59.035500	0.158136	0.071111	0.172752	0.251865	4040.148441	11473.514640	3219.356093	6316.421404
59.539000	0.170149	0.076561	0.183560	0.273323	4018.257137	11168.782507	3213.469243	6156.573701
60.036500	0.176751	0.084576	0.189267	0.295378	3983.458220	10910.614356	3204.710360	6000.314915
60.536500	0.181716	0.088740	0.191677	0.307048	3968.740282	10775.983994	3199.893534	5920.787300
61.036500	0.196660	0.099374	0.211845	0.324655	3962.956381	10652.958354	3201.215414	5804.768034
61.536500	0.206993	0.103611	0.227917	0.337685	3957.136658	10500.644766	3202.795982	5721.893166
62.037000	0.216180	0.108541	0.235048	0.348918	3952.743258	10393.328590	3200.667173	5652.411428
62.535000	0.220120	0.113431	0.227804	0.361547	3934.321367	10263.690159	3190.634420	5576.410857
63.034500	0.235239	0.120747	0.257772	0.373754	3940.455278	10182.945395	3199.579176	5505.027570
63.538500	0.243097	0.123063	0.246788	0.377313	3949.585169	10162.566507	3192.228208	5484.588327
64.038500	0.244470	0.124173	0.246473	0.370708	3966.767057	10289.982864	3195.377089	5522.648412
64.536000	0.237325	0.125685	0.238401	0.368986	3955.054191	10344.080720	3192.198755	5532.672391
65.036500	0.242227	0.128703	0.239630	0.369889	3963.677892	10379.674811	3192.360444	5527.408673
65.587500	0.245018	0.127378	0.233603	0.368171	3973.498119	10386.305145	3190.228106	5537.423655
66.037000	0.242123	0.129038	0.270359	0.368139	3967.251556	10414.927884	3209.132887	5537.613374
66.537500	0.245391	0.128142	0.235986	0.367603	3975.560823	10408.824954	3191.686353	5540.745880
67.034500	0.238499	0.127602	0.256242	0.374194	3946.434194	10289.049148	3198.568865	5502.490723
67.535000	0.249378	0.129722	0.253404	0.370636	3977.656433	10384.271799	3198.937774	5523.071315
68.035000	0.250028	0.130746	0.261234	0.371516	3977.151330	10386.701003	3202.528205	5517.964588
68.536000	0.242045	0.131423	0.250171	0.373908	3954.620434	10357.800271	3195.628857	5504.139382
69.036000	0.242459	0.129762	0.240252	0.379133	3944.353604	10242.870386	3188.114703	5474.197214
69.536500	0.249634	0.133204	0.250592	0.377769	3962.652964	10322.888655	3193.898856	5481.979373
70.036500	0.247475	0.130588	0.272453	0.377239	3959.133649	10288.059364	3205.408258	5485.008252
70.537000	0.245237	0.131353	0.265855	0.379369	3949.763583	10265.355735	3200.851170	5472.857123
71.037000	0.256648	0.132249	0.276299	0.381331	3970.154698	10247.677580	3205.278587	5461.713421
71.537500	0.248588	0.133671	0.251862	0.382383	3950.482970	10253.806128	3192.230395	5455.759955
72.035000	0.255057	0.133550	0.267660	0.383323	3962.370397	10236.229762	3199.742965	5450.452198
72.535000	0.250023	0.131052	0.245904	0.381674	3955.074893	10222.205669	3189.637329	5459.772080
73.035500	0.253288	0.134516	0.271664	0.386145	3952.488953	10205.598286	3200.351541	5434.583704
73.538500	0.253207	0.134931	0.259153	0.386913	3950.673489	10199.787740	3193.607117	5430.284641
74.035500	0.257688	0.133270	0.255493	0.387879	3958.214701	10156.692350	3191.305206	5424.887035
74.536500	0.254939	0.133913	0.251679	0.387566	3952.983087	10172.349134	3189.579784	5426.635289
75.036500	0.249575	0.134583	0.272698	0.387008	3942.745063	10192.501006	3200.440123	5429.754200
75.536500	0.255505	0.137174	0.246217	0.390977	3946.908911	10169.896125	3185.267855	5407.657782
76.037500	0.258946	0.137773	0.257371	0.391004	3954.200808	10179.257570	3190.688746	5407.503380
76.537000	0.260778	0.137448	0.262276	0.392463	3955.001175	10150.035704	3192.396128	5399.431152
77.035000	0.256632	0.139402	0.249778	0.394264	3942.321978	10152.542473	3185.399557	5389.505537
77.535500	0.260136	0.137536	0.263499	0.393799	3950.764400	10129.688732	3192.340391	5392.066481
78.038500	0.255517	0.132121	0.262131	0.390512	3947.922081	10095.084901	3193.296598	5410.231901
78.535500	0.253979	0.134737	0.279261	0.393415	3938.510215	10090.446403	3200.520666	5394.181150
79.036000	0.256918	0.134803	0.267117	0.393331	3944.907276	10092.870407	3194.381961	5394.645656
79.536500	0.258305	0.136498	0.251242	0.394127	3946.162646	10107.459367	3186.171319	5390.259631
80.036500	0.250054	0.130218	0.253721	0.392922	3931.302214	10025.503023	3187.958797	5396.897611
80.536500	0.254396	0.135095	0.248304	0.393669	3938.853307	10092.127561	3184.976942	5392.781348
81.037500	0.259300	0.134374	0.284397	0.393896	3948.772944	10076.787021	3202.935879	5391.532793
81.535000	0.257521	0.134690	0.271939	0.394317	3944.094951	10075.077390	3196.315945	5389.216132
82.035000	0.257142	0.135037	0.262312	0.394240	3943.453827	10081.933366	3191.532032	5389.638676
82.535500	0.255341	0.135390	0.288609	0.396454	3934.982501	10051.890322	3203.800578	5377.493802
83.036000	0.262488	0.137469	0.260275	0.403020	3936.202149	9979.951804	3186.239314	5341.830269
83.535500	0.257591	0.135020	0.274833	0.395316	3942.125432	10064.272314	3197.277489	5383.727050
84.036000	0.258687	0.138382	0.267548	0.401840	3930.706496	10013.408124	3190.364095	5348.198489
84.536500	0.259198	0.134201	0.254279	0.396945	3942.079086	10024.866745	3186.277029	5374.804684
85.037000	0.266666	0.135974	0.272194	0.397966	3955.828619	10036.949925	3194.603829	5369.231015
85.537500	0.260617	0.135679	0.255931	0.398915	3940.913195	10016.977479	3186.123689	5364.062049
86.034500	0.251399	0.134006	0.269566	0.397526	3924.509935	10012.412114	3193.506812	5371.631508
86.535000	0.258670	0.136067	0.276036	0.400029	3934.464404	10005.342252	3195.499478	5358.005827
87.035000	0.255695	0.134534	0.270452	0.405090	3917.747203	9900.573658	3190.193317	5330.694060
87.535000	0.260679	0.136355	0.260685	0.401837	3934.886352	9981.051928	3187.010629	5348.214161
88.036000	0.254934	0.135652	0.262306	0.404966	3916.437533	9920.194356	3186.280489	5331.362031
88.536000	0.256634	0.131926	0.263986	0.399156	3932.026097	9953.220283	3189.931857	5362.748338
89.036000	0.258494	0.134501	0.268896	0.407641	3918.260952	9859.956600	3188.181337	5317.052615
89.536500	0.261476	0.134171	0.264822	0.402601	3934.956463	9934.192137	3188.652874	5344.090107
90.036500	0.257687	0.131162	0.270380	0.404697	3922.677672	9853.762372	3190.351546	5332.805239
90.537000	0.253731	0.130910	0.255673	0.400880	3922.391004	9909.835749	3185.052975	5353.394797
91.037000	0.251255	0.134150	0.269179	0.409305	3900.089807	9828.453719	3187.508606	5308.193329
91.535000	0.262828	0.133586	0.262556	0.404036	3934.780618	9902.249525	3186.851195	5336.357280
92.035000	0.256221	0.132247	0.264402	0.406429	3916.073936	9843.641438	3186.586430	5323.522208
92.535000	0.258867	0.135077	0.249865	0.405928	3922.572481	9895.921135	3179.901204	5326.205370
93.036000	0.252820	0.128204	0.254236	0.405286	3911.441548	9798.443194	3182.263897	5329.643946
93.536500	0.258538	0.132106	0.254303	0.402433	3929.154675	9904.184927	3183.653031	5344.993609
94.036500	0.256760	0.129799	0.258846	0.407070	3915.864246	9795.508029	3183.607793	5320.096685
94.536500	0.259420	0.132486	0.269622	0.405394	3924.827582	9863.599619	3189.636210	5329.067962
95.037000	0.251677	0.128330	0.250434	0.407527	3904.544325	9765.685684	3179.419081	5317.658829
95.537500	0.262416	0.135193	0.279457	0.408209	3925.202345	9861.893449	3193.111240	5314.023316
96.043000	0.260348	0.130298	0.294592	0.403847	3929.983502	9853.555480	3203.063381	5337.376804
96.568500	0.260879	0.130996	0.288626	0.405211	3928.243040	9843.124381	3199.269328	5330.046335
97.038500	0.257097	0.132057	0.264261	0.406404	3917.930557	9841.059797	3186.530382	5323.658082
97.535500	0.257510	0.129310	0.274909	0.404901	3921.889953	9821.660183	3192.493507	5331.712408
98.035500	0.259190	0.129831	0.264493	0.406455	3922.149891	9805.565444	3186.617982	5323.383234
98.536500	0.264800	0.129005	0.275822	0.406294	3934.181047	9795.247578	3192.254803	5324.247631
99.037000	0.259882	0.132374	0.269728	0.409162	3917.985055	9803.009951	3187.845049	5308.951692
