sample name	sample
index	1506
start time	 05-18-2021  02:42:41 PM
880	0.494063
Peak Time (s)	91.538
Peak Height 	0.4941
calc peak height	90,93
Baseline Time (s)	10.035
Baseline Value 	-0.004094
subtract baseline	10,4
Abs	0.353544
Peak Time (s)	91.035
Peak Height 	0.3535
calc peak height	90,93
Baseline Time (s)	11.537
Baseline Value 	1.6148E-4
subtract baseline	10,3
PK_550	0.199483
Peak Time (s)	91.538
Peak Height 	0.1995
calc peak height	90,93
Baseline Time (s)	9.035
Baseline Value 	4.8967E-4
subtract baseline	10,2
PK_880	0.345383
Peak Time (s)	91.538
Peak Height 	0.3454
calc peak height	90,93
Baseline Time (s)	9.035
Baseline Value 	0.001768
subtract baseline	10,1


Time (s)	A880-A510	A880-A775	A880-A975	A880	I510	I775	I975	I880	
0.035500	0.000601	0.000564	0.000415	0.002777	6609.318132	44181.347390	3993.005939	22842.487463
0.536000	-0.001628	-0.000906	0.000216	0.004010	6580.469377	43925.854319	3989.571706	22786.175325
1.036000	-0.002796	-0.001038	0.001059	0.002900	6579.987694	44018.113588	3994.260203	22836.889759
1.536500	-0.000429	-0.000113	-0.000011	0.001722	6609.534047	44217.199863	3994.520235	22890.847575
2.039500	0.000786	0.000380	0.001129	0.001771	6619.302592	44259.330170	3997.147400	22888.587682
2.537500	-0.000803	-0.000267	-0.000574	0.001507	6608.201501	44222.994534	3993.681683	22900.692635
3.037500	0.000668	0.000405	0.002250	-0.000628	6638.486560	44490.231249	4005.672313	22998.889853
3.534500	-0.001564	0.000248	0.002399	0.000501	6610.251754	44367.587808	4003.292716	22946.903547
4.035000	-0.001121	-0.000030	0.006685	0.000306	6615.601158	44359.667103	4014.221876	22955.896423
4.534500	-0.000349	-0.000462	-0.001081	0.000329	6621.878798	44316.366176	3995.297109	22954.834097
5.036000	-0.001649	-0.000221	-0.002727	0.000298	6611.246791	44342.289427	3991.415611	22956.274027
5.536000	-0.000072	0.000244	-0.002261	0.002209	6608.439699	44204.814044	3987.955454	22868.506905
6.036500	0.000143	-0.000229	-0.000432	0.000445	6625.037629	44327.478030	3996.580671	22949.498875
6.536500	-0.001210	-0.001283	-0.001632	-0.000545	6621.988435	44321.382167	3996.075705	22995.083241
7.037000	0.002078	0.000678	0.004462	0.000561	6640.359881	44402.898798	4008.164540	22944.164738
7.539500	-0.001569	-0.000368	0.001097	0.002153	6596.408790	44152.182746	3996.149725	22871.080390
8.037500	-0.001116	-0.000808	-0.001240	-0.000513	6622.506186	44363.527379	3996.941162	22993.592597
8.534500	0.000261	-0.000164	0.001052	-0.000304	6632.331106	44405.023277	4001.977446	22983.960895
9.035000	0.000000	0.000000	0.004327	0.000138	6626.419435	44378.562497	4008.866345	22963.632321
9.535500	-0.003238	0.000077	-0.002273	0.002063	6583.266439	44202.895542	3988.274769	22875.198640
10.035000	-0.000145	0.000128	-0.000763	0.000000	6626.358465	44403.874446	3996.856109	22969.972655
10.536000	-0.001107	-0.000335	-0.001085	-0.000957	6626.308859	44450.936772	3998.387463	23014.073412
11.036500	0.000082	0.000235	0.005160	0.000261	6626.073279	44389.240534	4010.600030	22957.970392
11.536500	0.000902	-0.000447	0.000000	-0.000175	6636.643921	44365.752420	3999.120684	22978.038323
12.039500	0.001150	-0.000080	0.002401	-0.000062	6637.779080	44389.972741	4004.663362	22972.814671
12.537000	-0.001309	-0.000348	0.001787	0.000008	6616.520353	44357.801099	4003.004282	22969.613671
13.034500	-0.000585	-0.000132	0.003117	-0.000520	6627.030469	44428.674520	4007.521399	22993.941500
13.535500	-0.002921	-0.000146	0.003344	0.001692	6588.989518	44216.912568	4002.694813	22892.208784
14.035000	-0.002991	-0.000409	-0.001636	0.001811	6587.415365	44180.678043	3990.405300	22886.763954
14.535000	-0.002570	0.000775	-0.000201	0.002437	6585.711366	44233.565288	3992.343571	22858.061978
15.038500	-0.000113	0.000085	0.001862	0.000262	6624.427039	44374.774182	4002.569944	22957.911765
15.536000	-0.001438	0.000223	0.000094	0.001705	6601.240344	44250.669513	3994.812955	22891.618425
16.036500	0.000241	0.000239	0.003896	0.000458	6625.751235	44370.830575	4007.037244	22948.897503
16.539000	-0.001146	-0.000114	0.004139	0.000106	6617.065772	44370.776577	4008.485577	22965.113968
17.037000	0.002178	-0.000797	0.003960	-0.003897	6679.030147	44688.186877	4017.851985	23150.246548
17.539000	-0.001413	0.000035	0.000285	0.001000	6607.339373	44299.783183	3996.970839	22923.967731
18.035000	-0.000333	0.000533	0.002867	0.001383	6613.169916	44310.752928	4002.288344	22906.379860
18.535000	-0.001456	-0.000302	-0.000894	0.000537	6610.851820	44311.823846	3995.246243	22945.260364
19.035500	-0.002069	-0.000688	0.000921	0.000500	6606.042203	44278.668847	3999.715126	22946.982810
19.536000	0.000565	-0.000271	0.001496	0.001605	6618.842896	44213.286486	3998.433441	22896.187249
20.036000	-0.000072	-0.000148	-0.000148	0.001092	6617.803342	44273.728791	3995.706281	22919.757768
20.536000	-0.000376	0.000157	0.000528	0.001615	6610.872423	44252.914457	3996.073295	22895.727678
21.036500	-0.001655	0.000014	0.002547	0.001349	6602.399960	44264.617269	4001.594578	22907.947392
21.539500	-0.001423	0.000639	0.004528	0.003080	6589.905699	44159.776678	4002.201259	22828.649533
22.037000	-0.002902	-0.000572	0.004737	0.000995	6594.954304	44242.632187	4007.777454	22924.213639
22.534500	-0.000816	-0.000458	-0.001204	0.001133	6611.225644	44240.386016	3993.068150	22917.880407
23.034500	-0.003183	0.000727	0.000404	0.001659	6587.086107	44302.976913	3995.670442	22893.741274
23.535500	-0.001505	-0.000463	0.001883	0.002111	6597.288063	44147.111987	3998.145988	22872.997733
24.035500	0.000692	0.000049	0.003347	0.001509	6620.711770	44252.846725	4003.147931	22900.611386
24.535500	-0.001484	0.000335	0.003777	0.001567	6602.006719	44274.445599	4004.050879	22897.946906
25.036000	-0.001226	-0.000915	0.002005	0.000788	6610.671133	44229.678517	4001.641003	22933.701281
25.536500	-0.001132	-0.000002	-0.000375	0.002551	6596.731773	44149.085494	3991.654452	22852.855984
26.036500	-0.000577	0.000288	-0.000542	0.001665	6608.773058	44260.655827	3993.379650	22893.450151
26.537000	-0.001708	-0.000237	0.001808	0.001126	6603.821936	44261.976723	4000.346992	22918.177061
27.034000	0.000382	0.000122	0.000196	-0.000739	6637.024119	44473.879082	4000.958805	23004.053221
27.540000	0.001053	0.000058	0.003031	-0.000333	6639.252737	44428.971611	4006.855501	22985.310915
28.035000	-0.000907	0.000299	-0.001482	0.000431	6616.346682	44379.130952	3994.087326	22950.141727
28.535000	-0.002437	-0.000306	0.005588	-0.000256	6609.280828	44386.863954	4012.910514	22981.744255
29.035500	0.000627	0.000213	-0.001118	0.000535	6628.346760	44361.001036	3994.712203	22945.347960
29.535500	0.001186	0.000444	0.002099	0.000409	6634.122015	44395.017058	4002.788955	22951.153973
30.036500	-0.001459	-0.000211	0.006884	-0.000017	6615.466273	44373.157075	4015.500257	22970.736671
30.536500	-0.001957	0.000087	0.003061	0.004565	6573.135631	43967.170753	3995.070507	22760.873095
31.039500	-0.000816	0.000672	0.002142	0.002459	6600.137350	44221.692150	3997.931556	22857.043056
31.537000	-0.000827	0.000360	0.002759	0.000220	6618.778665	44404.996049	4004.848187	22959.842100
32.034500	-0.000224	-0.000427	0.001215	-0.000071	6626.290973	44357.738733	4001.808389	22973.224820
32.537500	-0.003288	-0.000019	0.000025	0.004469	6562.921026	43966.214698	3988.017664	22765.252200
33.034500	-0.000558	0.000221	0.004847	0.000003	6622.863311	44412.517544	4010.465246	22969.844358
33.535500	-0.000533	-0.000075	-0.002882	0.002695	6600.529604	44128.568214	3985.311316	22846.240863
34.038000	-0.000906	-0.000692	0.004126	0.001183	6610.045721	44213.313110	4005.830921	22915.555145
34.536000	-0.003659	-0.000661	-0.002782	0.003085	6571.296698	44036.240390	3984.619718	22828.432769
35.038500	-0.000889	0.000250	-0.000552	0.001511	6607.440611	44271.638059	3993.724064	22900.490222
35.537000	-0.002404	0.000308	0.002858	0.001700	6593.227331	44259.251361	4001.498628	22891.845202
36.037000	0.000106	-0.000281	-0.002835	0.001341	6617.203029	44237.378176	3988.656967	22908.296386
36.537000	-0.004287	-0.000290	0.001566	0.003104	6565.935337	44069.499211	3994.987193	22827.525151
37.037500	-0.001702	0.000673	0.001861	0.001635	6599.623057	44300.197096	3999.245552	22894.844332
37.534500	-0.001088	0.001017	0.009793	0.002279	6599.366232	44271.574301	4017.006289	22865.295769
38.035500	-0.001082	-0.000338	-0.001026	0.001592	6605.162041	44208.192620	3992.392561	22896.802758
38.536000	-0.000697	-0.000025	0.000429	0.003347	6593.718500	44071.538032	3991.672561	22816.429727
39.036000	-0.001238	-0.000886	0.001522	0.000562	6612.470836	44253.964794	4001.021084	22944.132224
39.536500	-0.003002	-0.000180	-0.001469	0.002254	6583.642931	44160.398454	3989.741658	22866.454657
40.036500	-0.000031	-0.000257	0.001950	0.001452	6615.123576	44229.189897	3999.901535	22903.228008
40.539000	0.000190	0.000978	0.002456	0.002490	6608.285594	44247.873655	3998.616389	22855.644369
41.037000	0.000252	0.000760	0.003933	0.002441	6609.211409	44231.793199	4002.307279	22857.877132
41.578500	-0.003089	-0.001098	0.006057	0.001288	6590.955481	44164.935748	4010.282677	22910.767542
42.053500	-0.001972	0.000275	0.002261	0.002057	6593.845826	44222.241818	3999.190933	22875.468736
42.535500	0.000930	-0.000603	-0.002222	0.001012	6626.890100	44238.078083	3990.915895	22923.446408
43.035500	0.000444	0.000273	0.002417	0.001765	6616.479788	44249.720452	4000.274643	22888.854947
43.536000	-0.001674	0.000371	-0.001466	0.000386	6610.293356	44390.270711	3994.234435	22952.210104
44.036000	-0.000811	0.000139	0.001926	-0.000178	6622.250300	44421.898837	4003.791296	22978.154254
44.536500	0.000783	0.000061	0.000525	0.000198	6632.498601	44378.660166	3999.487630	22960.866223
45.039000	0.000352	0.000822	-0.000634	0.000463	6626.646862	44425.959083	3996.051589	22948.679510
45.536500	-0.003597	-0.000484	0.001171	0.002048	6580.404454	44151.048142	3996.579466	22875.868902
46.037500	-0.000602	-0.000166	0.001868	0.000231	6620.577775	44353.909842	4002.659732	22959.349076
46.537500	-0.000765	0.000435	0.003410	0.000327	6618.408398	44401.963288	4006.172855	22954.932943
47.038000	-0.002139	-0.000062	-0.001626	0.001823	6594.401028	44212.405267	3990.398398	22886.185831
47.535500	-0.001583	0.000540	0.000139	0.003703	6583.391640	44091.342239	3990.121532	22800.169132
48.035500	0.000991	-0.000124	0.001412	-0.000027	6636.147168	44382.403674	4002.179329	22971.210471
48.535500	-0.002703	0.000781	0.001606	0.006356	6552.178443	43863.817484	3987.285270	22679.433644
49.036000	-0.000392	0.000168	0.000574	0.000276	6621.961804	44381.367382	3999.416778	22957.253783
49.536500	-0.000430	-0.000651	0.006339	0.000658	6618.438092	44267.070113	4012.511860	22939.687328
50.037000	0.000404	0.000209	0.002680	0.001381	6619.372406	44280.161680	4001.841302	22906.477591
50.536500	-0.013941	-0.008071	0.003598	0.013129	6406.861318	42419.963306	3975.925525	22374.448867
51.034000	-0.005061	-0.019160	-0.003884	0.326055	4679.057336	21696.800858	3440.345057	12410.547932
51.535000	-0.017827	-0.025616	-0.025687	-0.050120	6909.521120	46793.970358	4059.413444	25416.424159
52.035000	-0.012662	-0.091099	-0.023985	-0.268824	9563.116021	65318.806241	4793.184339	40110.198256
52.535000	-0.014305	-0.089996	-0.017839	-0.266598	9504.690872	65157.945247	4809.899236	39920.329756
53.035500	-0.010927	-0.069186	-0.014256	-0.237185	9124.751882	63938.858748	4702.480304	37500.748222
53.536000	-0.004712	-0.052332	-0.005879	-0.212643	8870.625438	62869.551659	4638.433617	35603.558903
54.036000	0.002425	-0.030986	0.004739	-0.167075	8371.333712	59622.142825	4507.843952	32353.121251
54.542000	0.003414	-0.026304	0.000302	-0.154218	8225.874093	58566.447894	4447.013021	31496.029142
55.036500	0.012934	-0.024698	0.018689	-0.160798	8424.184056	59623.617073	4535.621830	31931.517817
55.539000	0.026253	-0.013162	0.033905	-0.110389	7978.119462	54775.981033	4412.162470	28757.748860
56.037500	0.046428	-0.001218	0.053039	-0.061459	7657.594778	50549.567681	4315.182312	26010.187473
56.535000	0.073319	0.016935	0.076677	0.010733	7193.765869	44986.898239	4170.730778	22481.765930
57.035000	0.105468	0.036231	0.111553	0.085030	6803.578874	39993.096110	4064.767391	19413.869707
57.535500	0.137263	0.055680	0.144381	0.143357	6576.680736	36825.854320	4001.174510	17347.403732
58.036000	0.172561	0.076094	0.173023	0.195310	6441.181515	34456.858188	3946.217812	15726.496257
58.536000	0.204214	0.098227	0.210547	0.265043	6150.198046	31191.861215	3874.975218	13834.350587
59.036500	0.233725	0.115447	0.245398	0.314886	6004.971981	29152.200102	3843.573928	12656.466661
59.536500	0.253646	0.129707	0.262217	0.358344	5845.127684	27452.042460	3790.383448	11734.178427
60.036500	0.268498	0.142055	0.277979	0.385032	5767.968234	26658.051764	3769.495314	11211.886111
60.537500	0.277769	0.150663	0.285584	0.406420	5691.119859	25972.192016	3743.882016	10815.869110
61.037500	0.286826	0.159189	0.302475	0.424264	5636.714137	25484.631860	3742.139466	10500.067339
61.534500	0.293772	0.166748	0.304368	0.435000	5613.585201	25320.819038	3726.164331	10316.221670
62.035000	0.299540	0.172590	0.301746	0.419458	5746.288496	26447.103228	3749.613961	10583.848084
62.535000	0.303438	0.177000	0.311200	0.443829	5618.679607	25394.091213	3722.602819	10168.413587
63.036000	0.305002	0.177840	0.319711	0.442995	5633.318838	25480.515363	3739.416816	10182.244360
63.542500	0.309617	0.182006	0.320477	0.448105	5630.287580	25431.713981	3731.554564	10097.890878
64.039500	0.313121	0.183969	0.317678	0.452451	5625.147124	25308.989351	3718.795546	10026.931701
64.537000	0.315674	0.185377	0.321052	0.456278	5617.384612	25185.131637	3717.993436	9965.030190
65.037500	0.316409	0.188470	0.323392	0.460485	5596.343973	25128.295603	3714.696621	9897.602089
65.537500	0.318925	0.189036	0.322602	0.463043	5596.088680	25027.070089	3708.820872	9856.927422
66.035000	0.321823	0.192385	0.327225	0.467565	5586.307437	24967.643533	3708.996229	9785.591244
66.535000	0.318085	0.192548	0.330305	0.474487	5522.990654	24628.494246	3702.307027	9677.833833
67.035500	0.325183	0.193507	0.335069	0.473279	5572.192035	24736.669101	3712.731376	9696.526686
67.535500	0.323430	0.193949	0.333726	0.476231	5544.201851	24611.414301	3705.220595	9650.956701
68.036000	0.328054	0.194841	0.338690	0.477971	5561.325486	24569.291446	3710.852459	9624.258610
68.537000	0.322397	0.194700	0.331782	0.481003	5510.087883	24412.276244	3693.624556	9577.956191
69.036500	0.329780	0.196779	0.335477	0.481156	5552.650646	24507.466100	3699.718110	9575.637788
69.536500	0.324459	0.195425	0.333581	0.483336	5508.512100	24333.190538	3692.709661	9542.562542
70.037000	0.334133	0.199621	0.336854	0.482771	5568.956127	24568.335189	3699.307131	9551.127611
70.534500	0.329277	0.199276	0.336569	0.485356	5524.887049	24423.297899	3694.367623	9512.065026
71.035000	0.332606	0.200396	0.339857	0.482897	5559.095089	24600.536898	3704.291430	9549.214514
71.535500	0.335246	0.201437	0.344204	0.483076	5573.779677	24643.429186	3711.568173	9546.500909
72.035500	0.337560	0.202090	0.344573	0.483814	5583.230328	24639.177208	3710.920074	9535.332332
72.535500	0.338654	0.202584	0.346397	0.482838	5595.691436	24712.576607	3715.846672	9550.104268
73.039000	0.336650	0.202783	0.340944	0.482215	5587.368730	24753.690653	3707.369769	9559.547329
73.538500	0.333685	0.201661	0.340963	0.484757	5554.457711	24571.003220	3702.981876	9521.102903
74.039000	0.335428	0.203562	0.338028	0.481073	5586.890753	24850.059754	3704.281068	9576.894255
74.537000	0.336206	0.203818	0.334783	0.482338	5583.963253	24799.387020	3696.484934	9557.684465
75.036500	0.338386	0.204334	0.334052	0.480330	5609.242000	24926.395233	3698.683236	9588.204389
75.534500	0.335883	0.204862	0.335247	0.483553	5574.741561	24790.825570	3695.193781	9539.286372
76.035000	0.335456	0.204690	0.343312	0.480040	5593.281143	24959.092043	3715.340657	9592.635659
76.535500	0.336325	0.206236	0.344471	0.482462	5583.929210	24914.819533	3713.115157	9555.803224
77.035500	0.339812	0.206070	0.343698	0.481478	5610.929595	24956.123534	3713.485856	9570.737231
77.535500	0.338937	0.203912	0.342068	0.480533	5611.353767	24894.943383	3712.282613	9585.120283
78.038500	0.338244	0.204432	0.349041	0.481533	5601.099635	24870.732308	3722.846480	9569.908571
78.536000	0.336626	0.203948	0.347238	0.484388	5574.187395	24703.296260	3714.596763	9526.669653
79.037000	0.340319	0.205464	0.343346	0.483472	5601.915171	24825.111106	3709.371524	9540.501297
79.537000	0.339145	0.202729	0.344965	0.482342	5601.653307	24744.614746	3714.196010	9557.622257
80.034500	0.337369	0.202539	0.346233	0.482738	5588.551075	24715.326596	3715.733595	9551.623248
80.535000	0.336649	0.203170	0.348428	0.485702	5566.478738	24599.002499	3714.378734	9506.866464
81.035500	0.337902	0.201729	0.340396	0.483985	5584.255751	24612.724522	3703.336875	9532.749338
81.535500	0.337533	0.202664	0.348234	0.489038	5551.888620	24408.840501	3708.187285	9456.855732
82.035500	0.337845	0.203311	0.347291	0.486208	5570.595648	24580.865242	3711.490866	9499.256274
82.536000	0.338270	0.202734	0.351495	0.488683	5558.370514	24429.769387	3714.528700	9462.148060
83.036000	0.342500	0.202045	0.345536	0.487042	5593.533028	24476.801060	3706.961269	9486.728023
83.536500	0.337653	0.200207	0.350915	0.491971	5535.247655	24144.817749	3707.746251	9413.189342
84.037000	0.339517	0.199905	0.346664	0.487999	5569.881943	24324.194281	3707.258189	9472.379715
84.540000	0.338865	0.200382	0.352588	0.489251	5558.528078	24286.174666	3715.452908	9453.661414
85.035000	0.340704	0.201151	0.355614	0.490410	5562.578879	24267.089757	3718.753923	9436.384724
85.535000	0.341433	0.201007	0.351041	0.491665	5559.449645	24198.740390	3708.501333	9417.739065
86.035500	0.341631	0.200530	0.355815	0.492020	5558.515380	24158.162352	3716.261404	9412.465119
86.535500	0.341016	0.198621	0.348870	0.490550	5563.602326	24136.791409	3706.658341	9434.307265
87.036000	0.341191	0.198062	0.348423	0.489819	5569.008451	24145.127016	3707.153306	9445.192181
87.538500	0.341244	0.197661	0.347971	0.490678	5564.197797	24083.900429	3704.869348	9432.399613
88.036500	0.339725	0.198455	0.351030	0.491413	5550.796989	24086.770152	3708.921401	9421.475020
88.536000	0.344977	0.199949	0.350523	0.493530	5569.455597	24056.576502	3704.347031	9390.106730
89.037500	0.344030	0.198173	0.350105	0.492026	5572.788790	24043.399057	3706.237516	9412.380204
89.537500	0.341958	0.199992	0.354909	0.494221	5547.393933	24025.186488	3710.797995	9379.907170
90.034500	0.342764	0.199481	0.351128	0.493305	5557.610267	24044.759010	3705.791232	9393.432866
90.535000	0.344511	0.198064	0.346573	0.492385	5573.518652	24020.741186	3699.489029	9407.059180
91.035500	0.345157	0.197984	0.353544	0.492976	5573.845143	23988.266300	3710.586265	9398.300183
91.538500	0.345383	0.199483	0.352873	0.494063	5568.699846	24008.185188	3707.512436	9382.239954
92.036000	0.343907	0.198857	0.352698	0.492937	5566.610461	24032.385990	3709.174443	9398.881461
92.539000	0.342009	0.198598	0.350243	0.493461	5552.197867	23994.503467	3703.982185	9391.133534
93.036500	0.345964	0.199125	0.353375	0.494347	5570.475388	23977.147050	3707.891862	9378.041090
93.535000	0.345181	0.197293	0.357464	0.492682	5575.748109	23969.121919	3718.006656	9402.653962
94.037500	0.343405	0.197325	0.353919	0.492637	5565.401436	23972.794784	3711.838119	9403.316549
94.534000	0.344950	0.198541	0.348786	0.495561	5557.188763	23890.488999	3697.827402	9360.154488
95.036000	0.346134	0.198860	0.354720	0.494697	5569.399173	23947.472764	3709.632002	9372.877088
95.536500	0.344796	0.197211	0.354351	0.497346	5545.690428	23741.269751	3704.369495	9333.955074
96.036000	0.345767	0.196942	0.353186	0.494232	5569.984070	23877.538845	3707.763155	9379.737156
