sample name	sample
index	272
start time	 02-25-2021  11:36:33 AM


Wavelength (nm)	Absorbance
494.344910	0.022550
494.563924	0.022550
494.782919	0.022550
495.001897	-0.111734
495.220856	0.021142
495.439797	0.003306
495.658719	-0.021506
495.877624	-0.037420
496.096510	-0.018924
496.315378	-0.051474
496.534227	-0.111664
496.753059	-0.096297
496.971872	-0.088486
497.190667	0.095447
497.409444	0.123798
497.628203	0.133811
497.846943	0.139530
498.065665	0.140125
498.284369	0.144945
498.503055	0.148324
498.721723	0.147411
498.940372	0.146935
499.159003	0.146422
499.377616	0.147939
499.596210	0.148034
499.814787	0.148141
500.033345	0.148397
500.251885	0.147327
500.470406	0.146226
500.688910	0.147084
500.907395	0.147022
501.125862	0.147457
501.344311	0.147371
501.562742	0.147158
501.781154	0.147388
501.999548	0.148250
502.217924	0.148743
502.436282	0.149753
502.654621	0.149713
502.872942	0.149110
503.091245	0.148800
503.309530	0.148670
503.527797	0.148968
503.746045	0.149168
503.964275	0.149733
504.182487	0.149683
504.400681	0.150200
504.618856	0.149387
504.837013	0.150635
505.055152	0.152120
505.273273	0.151354
505.491376	0.151994
505.709460	0.152440
505.927526	0.151844
506.145574	0.151915
506.363604	0.150496
506.581615	0.151282
506.799608	0.151497
507.017583	0.151337
507.235540	0.151609
507.453478	0.151559
507.671399	0.150807
507.889301	0.151687
508.107185	0.152013
508.325050	0.152695
508.542898	0.153473
508.760727	0.153476
508.978538	0.153339
509.196330	0.154319
509.414105	0.153785
509.631861	0.154278
509.849599	0.154233
510.067319	0.154346
510.285021	0.154140
510.502704	0.154914
510.720369	0.155239
510.938016	0.155307
511.155645	0.154715
511.373255	0.155460
511.590848	0.155201
511.808422	0.155313
512.025977	0.155668
512.243515	0.156882
512.461034	0.156562
512.678536	0.157680
512.896018	0.158394
513.113483	0.159786
513.330930	0.159355
513.548358	0.160227
513.765768	0.160140
513.983160	0.160609
514.200533	0.160463
514.417889	0.160338
514.635226	0.159924
514.852545	0.159214
515.069845	0.158664
515.287128	0.159468
515.504392	0.159812
515.721638	0.160547
515.938866	0.160695
516.156075	0.161254
516.373267	0.162179
516.590440	0.162365
516.807594	0.163381
517.024731	0.163800
517.241850	0.164295
517.458950	0.163416
517.676032	0.163570
517.893095	0.163266
518.110141	0.163527
518.327168	0.163532
518.544177	0.163691
518.761168	0.163555
518.978141	0.164343
519.195095	0.163661
519.412031	0.164248
519.628949	0.163540
519.845849	0.163432
520.062731	0.163342
520.279594	0.163745
520.496439	0.163593
520.713266	0.163814
520.930074	0.163637
521.146865	0.164905
521.363637	0.165190
521.580391	0.166431
521.797127	0.167271
522.013844	0.167198
522.230543	0.166941
522.447224	0.166969
522.663887	0.167225
522.880532	0.167832
523.097158	0.168270
523.313766	0.169131
523.530356	0.169131
523.746928	0.169432
523.963481	0.169616
524.180017	0.169930
524.396534	0.170500
524.613032	0.171160
524.829513	0.171238
525.045975	0.171237
525.262420	0.170825
525.478845	0.170048
525.695253	0.170916
525.911643	0.171617
526.128014	0.171953
526.344367	0.172770
526.560702	0.172787
526.777018	0.172911
526.993316	0.173462
527.209597	0.174620
527.425858	0.176164
527.642102	0.175744
527.858328	0.176106
528.074535	0.176440
528.290724	0.176414
528.506894	0.177043
528.723047	0.177530
528.939181	0.177662
529.155297	0.178204
529.371395	0.178071
529.587475	0.178311
529.803536	0.178546
530.019579	0.179103
530.235604	0.178887
530.451611	0.179645
530.667600	0.180090
530.883570	0.180675
531.099522	0.180029
531.315456	0.180102
531.531372	0.180675
531.747269	0.181040
531.963148	0.180690
532.179009	0.181363
532.394852	0.181697
532.610676	0.181951
532.826482	0.181613
533.042271	0.182424
533.258040	0.183272
533.473792	0.183722
533.689525	0.183588
533.905240	0.184690
534.120937	0.185311
534.336616	0.185059
534.552277	0.185246
534.767919	0.186182
534.983543	0.185950
535.199149	0.186021
535.414736	0.186434
535.630306	0.187272
535.845857	0.187119
536.061390	0.187599
536.276904	0.187644
536.492401	0.188205
536.707879	0.188039
536.923339	0.189081
537.138781	0.189508
537.354204	0.189010
537.569610	0.188925
537.784997	0.189188
538.000366	0.189446
538.215716	0.189955
538.431049	0.189899
538.646363	0.190276
538.861659	0.190001
539.076937	0.190223
539.292196	0.190861
539.507438	0.191485
539.722661	0.192191
539.937866	0.192306
540.153052	0.192937
540.368221	0.193548
540.583371	0.194115
540.798503	0.194442
541.013617	0.194768
541.228712	0.195456
541.443789	0.195899
541.658848	0.195836
541.873889	0.195991
542.088912	0.196021
542.303916	0.196051
542.518902	0.196545
542.733870	0.196915
542.948820	0.197697
543.163752	0.197913
543.378665	0.198525
543.593560	0.199104
543.808437	0.199680
544.023295	0.199875
544.238136	0.200482
544.452958	0.200712
544.667762	0.201085
544.882548	0.201090
545.097315	0.201255
545.312064	0.200874
545.526795	0.200787
545.741508	0.201163
545.956203	0.201627
546.170879	0.201712
546.385537	0.201764
546.600177	0.202243
546.814799	0.202717
547.029402	0.203143
547.243988	0.204231
547.458555	0.205497
547.673103	0.205245
547.887634	0.204795
548.102146	0.205208
548.316640	0.205557
548.531116	0.205787
548.745574	0.205965
548.960013	0.205786
549.174435	0.205366
549.388838	0.204965
549.603222	0.205673
549.817589	0.206584
550.031937	0.206824
550.246267	0.207383
550.460579	0.207668
550.674873	0.207535
550.889148	0.208163
551.103405	0.208654
551.317644	0.209178
551.531865	0.208951
551.746068	0.209051
551.960252	0.209046
552.174418	0.208760
552.388566	0.208901
552.602696	0.208948
552.816807	0.209362
553.030900	0.209497
553.244975	0.209905
553.459032	0.210233
553.673070	0.210329
553.887091	0.210440
554.101093	0.210929
554.315077	0.211453
554.529042	0.212103
554.742990	0.212257
554.956919	0.212942
555.170830	0.212722
555.384722	0.213345
555.598597	0.214017
555.812453	0.214304
556.026291	0.214683
556.240111	0.214577
556.453913	0.214869
556.667696	0.214667
556.881461	0.214347
557.095208	0.214137
557.308937	0.214064
557.522647	0.214042
557.736339	0.214418
557.950013	0.214475
558.163669	0.214583
558.377307	0.214853
558.590926	0.215403
558.804527	0.215755
559.018110	0.216327
559.231675	0.216580
559.445221	0.216610
559.658749	0.216456
559.872259	0.216614
560.085751	0.216942
560.299225	0.216671
560.512680	0.216925
560.726117	0.216806
560.939536	0.216990
561.152937	0.217250
561.366319	0.217485
561.579683	0.218186
561.793029	0.218344
562.006357	0.218292
562.219667	0.218985
562.432958	0.218924
562.646231	0.219266
562.859486	0.219557
563.072723	0.220061
563.285941	0.220312
563.499141	0.220297
563.712323	0.220507
563.925487	0.220867
564.138632	0.220897
564.351760	0.221348
564.564869	0.221764
564.777960	0.222157
564.991032	0.221772
565.204087	0.222164
565.417123	0.222490
565.630141	0.222863
565.843140	0.223346
566.056122	0.223681
566.269085	0.223821
566.482030	0.223984
566.694957	0.223990
566.907866	0.224661
567.120756	0.224999
567.333628	0.224739
567.546482	0.224874
567.759318	0.224977
567.972135	0.225155
568.184935	0.225155
568.397716	0.225442
568.610478	0.225445
568.823223	0.225411
569.035949	0.224984
569.248657	0.225305
569.461347	0.225529
569.674019	0.225552
569.886672	0.225522
570.099308	0.225463
570.311925	0.225495
570.524523	0.226081
570.737104	0.226215
570.949666	0.226497
571.162210	0.227010
571.374736	0.226952
571.587244	0.227153
571.799733	0.227244
572.012205	0.227820
572.224658	0.228150
572.437092	0.227989
572.649509	0.227956
572.861907	0.228546
573.074287	0.228604
573.286649	0.228836
573.498993	0.228843
573.711318	0.228741
573.923625	0.228692
574.135914	0.228833
574.348185	0.229331
574.560438	0.229649
574.772672	0.229717
574.984888	0.229805
575.197086	0.230139
575.409266	0.230221
575.621427	0.230828
575.833570	0.231445
576.045695	0.231646
576.257802	0.231763
576.469890	0.231967
576.681961	0.232216
576.894013	0.232360
577.106046	0.232063
577.318062	0.232499
577.530059	0.232663
577.742039	0.232760
577.954000	0.232959
578.165942	0.233115
578.377867	0.233350
578.589773	0.233174
578.801661	0.233617
579.013531	0.234332
579.225382	0.234499
579.437216	0.234507
579.649031	0.234760
579.860828	0.234660
580.072606	0.234911
580.284367	0.235235
580.496109	0.235279
580.707833	0.234984
580.919539	0.235169
581.131227	0.235331
581.342896	0.235690
581.554547	0.235672
581.766180	0.236137
581.977795	0.236285
582.189391	0.236659
582.400969	0.237266
582.612529	0.237595
582.824071	0.237356
583.035595	0.237339
583.247100	0.237342
583.458587	0.237700
583.670056	0.237884
583.881506	0.238214
584.092939	0.238306
584.304353	0.238638
584.515749	0.239043
584.727127	0.239221
584.938486	0.239346
585.149828	0.239890
585.361151	0.239875
585.572456	0.240038
585.783742	0.240289
585.995011	0.240187
586.206261	0.240253
586.417493	0.240600
586.628706	0.241262
586.839902	0.241977
587.051079	0.241686
587.262238	0.241732
587.473379	0.242035
587.684502	0.242052
587.895606	0.242114
588.106692	0.242309
588.317760	0.242897
588.528810	0.242618
588.739841	0.243053
588.950855	0.243799
589.161850	0.244067
589.372827	0.243965
589.583785	0.244279
589.794726	0.244698
590.005648	0.244450
590.216552	0.243408
590.427437	0.243861
590.638305	0.243757
590.849154	0.243799
591.059985	0.243941
591.270798	0.244052
591.481592	0.243978
591.692369	0.244026
591.903127	0.244375
592.113867	0.245134
592.324588	0.245249
592.535292	0.245283
592.745977	0.245278
592.956644	0.245547
593.167293	0.245478
593.377923	0.245495
593.588536	0.245778
593.799130	0.246064
594.009706	0.246237
594.220263	0.246684
594.430803	0.246898
594.641324	0.247085
594.851827	0.247236
595.062312	0.247716
595.272778	0.247674
595.483227	0.248042
595.693657	0.248242
595.904069	0.247968
596.114462	0.247881
596.324838	0.248065
596.535195	0.248255
596.745534	0.248227
596.955855	0.248244
597.166157	0.248668
597.376441	0.248552
597.586707	0.248921
597.796955	0.249758
598.007185	0.249938
598.217396	0.250040
598.427589	0.249930
598.637764	0.250338
598.847921	0.250604
599.058060	0.250645
599.268180	0.250691
599.478282	0.250636
599.688366	0.250495
599.898431	0.250396
600.108479	0.250562
600.318508	0.250936
600.528519	0.251175
600.738511	0.251489
600.948486	0.251851
601.158442	0.252277
601.368380	0.252588
601.578300	0.252705
601.788202	0.252657
601.998085	0.252766
602.207950	0.252874
602.417797	0.252650
602.627626	0.252789
602.837436	0.252856
603.047228	0.252894
603.257002	0.253203
603.466758	0.253431
603.676496	0.254175
603.886215	0.254309
604.095916	0.254539
604.305599	0.255177
604.515264	0.255347
604.724910	0.255765
604.934538	0.256041
605.144148	0.255815
605.353740	0.255964
605.563314	0.255909
605.772869	0.255962
605.982406	0.256125
606.191925	0.256287
606.401425	0.256236
606.610908	0.255937
606.820372	0.255775
607.029818	0.256106
607.239246	0.256215
607.448655	0.256331
607.658047	0.256448
607.867420	0.256544
608.076775	0.256314
608.286111	0.256427
608.495430	0.256744
608.704730	0.256957
608.914012	0.256647
609.123275	0.256843
609.332521	0.256798
609.541748	0.257026
609.750957	0.257227
609.960148	0.257105
610.169321	0.257580
610.378475	0.257989
610.587611	0.258301
610.796729	0.258670
611.005829	0.258636
611.214910	0.259036
611.423974	0.259093
611.633019	0.259161
611.842045	0.259701
612.051054	0.259490
612.260044	0.259285
612.469017	0.259310
612.677970	0.259377
612.886906	0.259911
613.095824	0.260233
613.304723	0.260741
613.513604	0.260940
613.722467	0.261049
613.931311	0.261132
614.140138	0.261365
614.348946	0.261571
614.557736	0.262089
614.766507	0.262228
614.975261	0.262217
615.183996	0.261996
615.392713	0.262104
615.601412	0.262563
615.810092	0.262887
616.018754	0.262964
616.227399	0.262882
616.436024	0.262738
616.644632	0.262679
616.853222	0.262861
617.061793	0.263318
617.270346	0.263600
617.478880	0.263735
617.687397	0.263991
617.895895	0.264230
618.104375	0.264404
618.312837	0.264802
618.521281	0.265095
618.729706	0.265330
618.938113	0.265162
619.146502	0.264960
619.354873	0.264959
619.563226	0.264910
619.771560	0.265213
619.979876	0.265679
620.188174	0.265976
620.396453	0.266007
620.604715	0.265726
620.812958	0.266262
621.021183	0.266618
621.229390	0.266688
621.437578	0.267026
621.645748	0.267180
621.853900	0.267341
622.062034	0.267300
622.270150	0.267799
622.478247	0.268326
622.686326	0.268232
622.894387	0.268579
623.102430	0.269011
623.310454	0.269090
623.518461	0.269142
623.726449	0.269269
623.934418	0.269491
624.142370	0.269612
624.350303	0.269812
624.558218	0.270526
624.766115	0.270435
624.973994	0.270483
625.181855	0.270609
625.389697	0.270809
625.597521	0.271188
625.805327	0.271891
626.013114	0.271951
626.220883	0.272358
626.428634	0.272359
626.636367	0.272890
626.844082	0.272907
627.051778	0.273261
627.259457	0.273252
627.467117	0.273430
627.674758	0.273008
627.882382	0.273156
628.089987	0.272869
628.297574	0.272741
628.505143	0.272933
628.712694	0.273010
628.920226	0.272974
629.127740	0.273064
629.335236	0.273060
629.542714	0.273436
629.750174	0.273702
629.957615	0.273910
630.165038	0.273998
630.372443	0.274051
630.579829	0.274483
630.787198	0.274736
630.994548	0.275311
631.201880	0.275667
631.409194	0.275647
631.616489	0.275651
631.823766	0.275977
632.031025	0.276438
632.238266	0.276407
632.445489	0.276497
632.652693	0.276464
632.859879	0.276579
633.067047	0.276314
633.274197	0.276318
633.481329	0.276381
633.688442	0.276705
633.895537	0.276523
634.102614	0.276695
634.309672	0.276891
634.516713	0.277277
634.723735	0.277205
634.930739	0.277547
635.137724	0.277863
635.344692	0.278178
635.551641	0.278322
635.758572	0.278520
635.965485	0.278718
636.172379	0.278735
636.379256	0.278634
636.586114	0.278798
636.792954	0.278995
636.999775	0.279075
637.206579	0.279054
637.413364	0.279205
637.620131	0.279399
637.826880	0.279677
638.033610	0.279691
638.240323	0.279880
638.447017	0.280077
638.653692	0.280441
638.860350	0.280929
639.066990	0.281128
639.273611	0.281208
639.480214	0.281410
639.686798	0.281415
639.893365	0.281786
640.099913	0.282222
640.306443	0.282410
640.512955	0.282518
640.719449	0.282535
640.925924	0.282745
641.132381	0.283006
641.338820	0.283443
641.545241	0.283593
641.751644	0.283677
641.958028	0.283805
642.164394	0.284163
642.370742	0.284251
642.577071	0.284471
642.783383	0.284818
642.989676	0.284471
643.195951	0.284468
643.402207	0.284965
643.608446	0.285535
643.814666	0.285812
644.020868	0.286165
644.227052	0.286173
644.433218	0.286431
644.639365	0.286644
644.845494	0.287158
645.051605	0.287232
645.257698	0.287536
645.463772	0.287563
645.669828	0.287574
645.875866	0.287647
646.081886	0.287963
646.287888	0.288002
646.493871	0.288139
646.699836	0.288555
646.905783	0.288849
647.111712	0.289060
647.317622	0.288870
647.523514	0.289374
647.729388	0.289271
647.935244	0.289577
648.141082	0.289743
648.346901	0.289771
648.552702	0.290076
648.758485	0.290254
648.964250	0.290151
649.169996	0.290792
649.375724	0.290703
649.581434	0.291276
649.787126	0.291548
649.992800	0.291945
650.198455	0.292701
650.404092	0.292817
650.609711	0.293250
650.815311	0.293402
651.020894	0.293544
651.226458	0.293986
651.432004	0.294059
651.637532	0.293973
651.843041	0.293878
652.048532	0.293534
652.254006	0.293386
652.459460	0.293619
652.664897	0.293923
652.870315	0.294058
653.075716	0.294245
653.281097	0.294531
653.486461	0.295030
653.691807	0.295436
653.897134	0.295701
654.102443	0.296056
654.307734	0.296102
654.513006	0.296388
654.718261	0.296451
654.923497	0.296525
655.128715	0.296667
655.333915	0.296582
655.539096	0.296675
655.744259	0.297002
655.949404	0.297321
656.154531	0.297641
656.359640	0.297683
656.564730	0.297988
656.769802	0.298177
656.974856	0.298461
657.179892	0.298975
657.384909	0.299479
657.589908	0.299847
657.794889	0.300133
657.999852	0.300245
658.204797	0.300861
658.409723	0.301003
658.614631	0.301282
658.819521	0.301533
659.024393	0.301662
659.229246	0.301699
659.434081	0.301816
659.638898	0.302104
659.843697	0.302129
660.048478	0.302068
660.253240	0.302337
660.457984	0.302576
660.662710	0.302722
660.867417	0.302919
661.072107	0.303136
661.276778	0.303378
661.481431	0.303396
661.686066	0.303783
661.890682	0.303974
662.095281	0.304442
662.299861	0.304679
662.504422	0.305073
662.708966	0.305324
662.913491	0.305760
663.117999	0.305775
663.322488	0.305963
663.526958	0.306226
663.731411	0.306546
663.935845	0.306669
664.140261	0.306803
664.344659	0.306709
664.549038	0.306859
664.753400	0.306799
664.957743	0.307343
665.162068	0.307536
665.366375	0.307765
665.570663	0.307789
665.774933	0.308023
665.979185	0.308220
666.183419	0.308384
666.387635	0.308721
666.591832	0.308955
666.796011	0.308975
667.000172	0.309086
667.204315	0.309369
667.408439	0.309643
667.612545	0.309868
667.816634	0.310153
668.020703	0.310559
668.224755	0.310616
668.428788	0.310686
668.632803	0.311026
668.836800	0.311281
669.040779	0.311470
669.244739	0.311617
669.448681	0.311804
669.652605	0.311841
669.856511	0.311846
670.060399	0.312236
670.264268	0.312726
670.468119	0.312925
670.671952	0.313181
670.875767	0.313425
671.079563	0.313617
671.283341	0.313881
671.487101	0.314531
671.690843	0.314920
671.894567	0.314833
672.098272	0.314827
672.301959	0.314888
672.505628	0.315295
672.709278	0.315282
672.912911	0.315658
673.116525	0.315792
673.320121	0.315895
673.523699	0.316248
673.727258	0.316853
673.930799	0.317356
674.134322	0.317549
674.337827	0.317886
674.541314	0.318330
674.744782	0.318601
674.948232	0.318891
675.151664	0.319048
675.355078	0.319405
675.558474	0.319474
675.761851	0.319661
675.965210	0.320038
676.168551	0.320159
676.371873	0.320348
676.575178	0.320623
676.778464	0.320856
676.981732	0.320973
677.184981	0.321304
677.388213	0.321667
677.591426	0.321820
677.794621	0.322142
677.997798	0.322448
678.200956	0.322904
678.404097	0.323138
678.607219	0.323495
678.810323	0.324042
679.013408	0.324109
679.216476	0.324360
679.419525	0.324626
679.622556	0.324906
679.825569	0.325085
680.028563	0.325271
680.231540	0.325460
680.434498	0.325453
680.637438	0.325550
680.840359	0.325576
681.043263	0.325723
681.246148	0.326078
681.449015	0.326331
681.651864	0.326634
681.854694	0.326782
682.057506	0.327112
682.260301	0.327464
682.463076	0.327747
682.665834	0.328155
682.868573	0.328541
683.071295	0.328818
683.273998	0.328936
683.476682	0.328905
683.679349	0.328990
683.881997	0.329239
684.084627	0.329231
684.287239	0.329258
684.489833	0.329263
684.692408	0.329202
684.894965	0.328918
685.097504	0.328941
685.300025	0.329235
685.502527	0.329492
685.705012	0.329750
685.907478	0.330030
686.109925	0.330199
686.312355	0.330447
686.514766	0.330656
686.717159	0.331237
686.919534	0.331233
687.121891	0.331302
687.324230	0.331465
687.526550	0.331301
687.728852	0.331492
687.931136	0.331948
688.133401	0.332107
688.335649	0.332513
688.537878	0.332431
688.740089	0.332845
688.942281	0.333385
689.144456	0.333651
689.346612	0.334048
689.548750	0.334216
689.750870	0.334341
689.952971	0.334386
690.155055	0.334470
690.357120	0.334712
690.559167	0.335014
690.761195	0.334787
690.963206	0.334808
691.165198	0.334631
691.367172	0.334709
691.569128	0.334599
691.771065	0.334807
691.972984	0.334720
692.174885	0.334964
692.376768	0.334955
692.578633	0.335369
692.780479	0.335334
692.982308	0.335426
693.184118	0.335854
693.385909	0.336275
