sample name	sample
index	876
start time	 04-08-2021  01:48:09 PM


Wavelength (nm)	Absorbance
494.344910	-0.026148
494.563924	-0.026148
494.782919	-0.026148
495.001897	0.009881
495.220856	-0.003464
495.439797	0.002327
495.658719	0.004912
495.877624	0.011690
496.096510	0.010169
496.315378	0.009038
496.534227	0.008591
496.753059	0.014648
496.971872	0.014012
497.190667	0.082273
497.409444	0.130180
497.628203	0.152111
497.846943	0.162150
498.065665	0.170421
498.284369	0.175835
498.503055	0.180606
498.721723	0.183081
498.940372	0.185930
499.159003	0.188158
499.377616	0.189283
499.596210	0.189133
499.814787	0.190129
500.033345	0.190768
500.251885	0.191288
500.470406	0.190628
500.688910	0.190424
500.907395	0.190151
501.125862	0.189893
501.344311	0.189061
501.562742	0.189748
501.781154	0.191432
501.999548	0.190811
502.217924	0.190078
502.436282	0.190458
502.654621	0.192207
502.872942	0.192802
503.091245	0.194243
503.309530	0.195056
503.527797	0.194666
503.746045	0.193247
503.964275	0.194898
504.182487	0.196499
504.400681	0.196713
504.618856	0.196979
504.837013	0.198188
505.055152	0.197008
505.273273	0.196929
505.491376	0.197638
505.709460	0.197930
505.927526	0.197863
506.145574	0.197478
506.363604	0.197802
506.581615	0.198869
506.799608	0.199074
507.017583	0.199156
507.235540	0.199023
507.453478	0.200586
507.671399	0.200980
507.889301	0.201425
508.107185	0.202135
508.325050	0.203201
508.542898	0.201595
508.760727	0.201003
508.978538	0.202620
509.196330	0.203226
509.414105	0.201952
509.631861	0.202905
509.849599	0.202905
510.067319	0.202712
510.285021	0.202884
510.502704	0.204560
510.720369	0.205418
510.938016	0.205126
511.155645	0.206400
511.373255	0.206890
511.590848	0.206702
511.808422	0.207319
512.025977	0.207795
512.243515	0.207879
512.461034	0.208255
512.678536	0.208675
512.896018	0.209624
513.113483	0.209155
513.330930	0.210099
513.548358	0.210700
513.765768	0.210418
513.983160	0.210821
514.200533	0.211751
514.417889	0.210449
514.635226	0.211122
514.852545	0.211797
515.069845	0.212480
515.287128	0.212918
515.504392	0.212872
515.721638	0.213474
515.938866	0.214326
516.156075	0.213489
516.373267	0.215543
516.590440	0.214090
516.807594	0.213560
517.024731	0.213462
517.241850	0.213227
517.458950	0.213621
517.676032	0.214257
517.893095	0.214276
518.110141	0.215336
518.327168	0.214816
518.544177	0.216488
518.761168	0.216386
518.978141	0.216216
519.195095	0.216883
519.412031	0.217191
519.628949	0.217071
519.845849	0.216964
520.062731	0.217247
520.279594	0.217550
520.496439	0.217946
520.713266	0.218790
520.930074	0.220210
521.146865	0.220141
521.363637	0.221117
521.580391	0.221415
521.797127	0.221932
522.013844	0.221831
522.230543	0.222057
522.447224	0.222444
522.663887	0.222497
522.880532	0.223322
523.097158	0.224453
523.313766	0.224610
523.530356	0.225893
523.746928	0.227051
523.963481	0.227889
524.180017	0.228792
524.396534	0.229770
524.613032	0.230949
524.829513	0.230420
525.045975	0.230113
525.262420	0.230051
525.478845	0.230131
525.695253	0.230890
525.911643	0.231285
526.128014	0.231425
526.344367	0.230374
526.560702	0.230250
526.777018	0.230874
526.993316	0.232314
527.209597	0.232829
527.425858	0.233553
527.642102	0.233369
527.858328	0.233558
528.074535	0.233896
528.290724	0.235046
528.506894	0.235531
528.723047	0.236975
528.939181	0.236777
529.155297	0.237492
529.371395	0.237333
529.587475	0.236767
529.803536	0.237618
530.019579	0.238360
530.235604	0.239336
530.451611	0.240107
530.667600	0.239995
530.883570	0.240161
531.099522	0.240361
531.315456	0.240398
531.531372	0.241946
531.747269	0.241698
531.963148	0.241829
532.179009	0.241888
532.394852	0.242074
532.610676	0.241941
532.826482	0.242719
533.042271	0.243281
533.258040	0.244108
533.473792	0.243902
533.689525	0.244709
533.905240	0.244930
534.120937	0.245939
534.336616	0.246322
534.552277	0.247525
534.767919	0.247358
534.983543	0.247524
535.199149	0.248171
535.414736	0.249069
535.630306	0.250014
535.845857	0.251124
536.061390	0.251223
536.276904	0.252312
536.492401	0.252141
536.707879	0.252921
536.923339	0.253917
537.138781	0.253988
537.354204	0.254311
537.569610	0.254374
537.784997	0.254851
538.000366	0.255269
538.215716	0.255142
538.431049	0.255225
538.646363	0.255479
538.861659	0.255387
539.076937	0.255914
539.292196	0.256029
539.507438	0.256186
539.722661	0.256058
539.937866	0.256474
540.153052	0.256370
540.368221	0.256939
540.583371	0.257875
540.798503	0.258279
541.013617	0.258650
541.228712	0.259454
541.443789	0.259851
541.658848	0.259841
541.873889	0.259637
542.088912	0.260189
542.303916	0.260704
542.518902	0.260415
542.733870	0.260627
542.948820	0.260840
543.163752	0.260620
543.378665	0.261060
543.593560	0.261672
543.808437	0.262173
544.023295	0.262878
544.238136	0.263350
544.452958	0.264244
544.667762	0.264792
544.882548	0.265026
545.097315	0.265790
545.312064	0.265693
545.526795	0.266639
545.741508	0.267289
545.956203	0.268248
546.170879	0.268499
546.385537	0.268729
546.600177	0.269284
546.814799	0.269694
547.029402	0.269702
547.243988	0.270459
547.458555	0.270554
547.673103	0.270278
547.887634	0.269906
548.102146	0.270310
548.316640	0.270990
548.531116	0.271537
548.745574	0.272517
548.960013	0.273500
549.174435	0.274172
549.388838	0.274083
549.603222	0.275085
549.817589	0.275648
550.031937	0.276474
550.246267	0.276066
550.460579	0.276163
550.674873	0.275950
550.889148	0.276340
551.103405	0.276113
551.317644	0.276674
551.531865	0.276705
551.746068	0.276651
551.960252	0.276335
552.174418	0.276847
552.388566	0.277373
552.602696	0.277442
552.816807	0.277592
553.030900	0.277763
553.244975	0.277998
553.459032	0.278216
553.673070	0.279116
553.887091	0.279572
554.101093	0.279745
554.315077	0.279920
554.529042	0.280607
554.742990	0.280595
554.956919	0.281490
555.170830	0.281801
555.384722	0.281878
555.598597	0.281252
555.812453	0.281325
556.026291	0.281589
556.240111	0.281496
556.453913	0.281922
556.667696	0.282203
556.881461	0.281799
557.095208	0.282021
557.308937	0.283001
557.522647	0.283798
557.736339	0.283830
557.950013	0.284513
558.163669	0.285031
558.377307	0.285348
558.590926	0.285959
558.804527	0.286273
559.018110	0.287081
559.231675	0.287158
559.445221	0.287638
559.658749	0.288322
559.872259	0.288635
560.085751	0.289111
560.299225	0.288902
560.512680	0.288667
560.726117	0.289030
560.939536	0.288784
561.152937	0.289122
561.366319	0.289163
561.579683	0.289386
561.793029	0.289533
562.006357	0.289624
562.219667	0.289795
562.432958	0.289982
562.646231	0.290188
562.859486	0.290033
563.072723	0.289987
563.285941	0.290446
563.499141	0.290952
563.712323	0.291201
563.925487	0.291553
564.138632	0.291983
564.351760	0.292429
564.564869	0.293048
564.777960	0.293408
564.991032	0.293222
565.204087	0.292886
565.417123	0.292615
565.630141	0.292459
565.843140	0.292573
566.056122	0.292786
566.269085	0.293005
566.482030	0.293308
566.694957	0.293922
566.907866	0.294631
567.120756	0.294878
567.333628	0.295353
567.546482	0.295624
567.759318	0.295104
567.972135	0.294980
568.184935	0.295238
568.397716	0.295271
568.610478	0.295464
568.823223	0.295710
569.035949	0.296061
569.248657	0.295879
569.461347	0.296444
569.674019	0.297153
569.886672	0.297365
570.099308	0.297488
570.311925	0.297478
570.524523	0.297235
570.737104	0.297530
570.949666	0.297948
571.162210	0.298299
571.374736	0.298311
571.587244	0.298278
571.799733	0.298911
572.012205	0.298857
572.224658	0.299000
572.437092	0.299017
572.649509	0.298864
572.861907	0.298586
573.074287	0.298777
573.286649	0.298907
573.498993	0.299567
573.711318	0.299423
573.923625	0.299930
574.135914	0.300491
574.348185	0.301044
574.560438	0.301255
574.772672	0.302089
574.984888	0.302517
575.197086	0.302328
575.409266	0.302222
575.621427	0.302308
575.833570	0.302515
576.045695	0.302740
576.257802	0.303187
576.469890	0.303017
576.681961	0.302660
576.894013	0.302494
577.106046	0.303005
577.318062	0.303483
577.530059	0.303837
577.742039	0.304145
577.954000	0.303987
578.165942	0.304512
578.377867	0.305322
578.589773	0.305788
578.801661	0.306131
579.013531	0.306153
579.225382	0.306030
579.437216	0.306175
579.649031	0.306447
579.860828	0.306416
580.072606	0.306134
580.284367	0.306437
580.496109	0.306068
580.707833	0.306449
580.919539	0.306601
581.131227	0.306768
581.342896	0.307214
581.554547	0.307065
581.766180	0.307435
581.977795	0.307308
582.189391	0.307803
582.400969	0.308701
582.612529	0.308917
582.824071	0.309131
583.035595	0.309439
583.247100	0.309569
583.458587	0.309571
583.670056	0.310178
583.881506	0.310824
584.092939	0.310209
584.304353	0.310366
584.515749	0.310238
584.727127	0.310616
584.938486	0.310496
585.149828	0.310796
585.361151	0.310833
585.572456	0.310747
585.783742	0.311037
585.995011	0.311997
586.206261	0.312195
586.417493	0.312610
586.628706	0.312703
586.839902	0.313335
587.051079	0.313174
587.262238	0.313754
587.473379	0.313734
587.684502	0.313713
587.895606	0.313417
588.106692	0.313525
588.317760	0.313794
588.528810	0.313833
588.739841	0.314294
588.950855	0.314325
589.161850	0.314429
589.372827	0.314719
589.583785	0.314506
589.794726	0.314923
590.005648	0.315123
590.216552	0.315035
590.427437	0.315532
590.638305	0.315755
590.849154	0.316070
591.059985	0.316144
591.270798	0.316267
591.481592	0.316633
591.692369	0.316175
591.903127	0.316314
592.113867	0.316763
592.324588	0.316868
592.535292	0.316683
592.745977	0.317175
592.956644	0.317382
593.167293	0.317768
593.377923	0.317885
593.588536	0.318560
593.799130	0.318731
594.009706	0.318877
594.220263	0.318983
594.430803	0.319352
594.641324	0.320108
594.851827	0.320502
595.062312	0.320823
595.272778	0.321410
595.483227	0.321424
595.693657	0.321654
595.904069	0.321751
596.114462	0.321920
596.324838	0.322013
596.535195	0.321533
596.745534	0.321982
596.955855	0.321832
597.166157	0.321636
597.376441	0.321707
597.586707	0.321428
597.796955	0.321678
598.007185	0.321943
598.217396	0.322213
598.427589	0.322693
598.637764	0.322445
598.847921	0.322873
599.058060	0.323259
599.268180	0.323421
599.478282	0.324162
599.688366	0.324039
599.898431	0.324432
600.108479	0.324702
600.318508	0.325054
600.528519	0.325253
600.738511	0.325638
600.948486	0.325635
601.158442	0.326067
601.368380	0.326032
601.578300	0.326262
601.788202	0.326095
601.998085	0.326355
602.207950	0.326039
602.417797	0.326192
602.627626	0.325954
602.837436	0.326236
603.047228	0.326304
603.257002	0.326588
603.466758	0.326993
603.676496	0.327391
603.886215	0.327205
604.095916	0.327340
604.305599	0.327651
604.515264	0.328109
604.724910	0.328142
604.934538	0.328496
605.144148	0.328643
605.353740	0.328774
605.563314	0.328942
605.772869	0.329738
605.982406	0.330192
606.191925	0.330440
606.401425	0.330471
606.610908	0.330815
606.820372	0.330723
607.029818	0.331313
607.239246	0.331560
607.448655	0.331736
607.658047	0.331261
607.867420	0.331437
608.076775	0.331761
608.286111	0.332238
608.495430	0.332552
608.704730	0.332834
608.914012	0.332650
609.123275	0.332760
609.332521	0.332970
609.541748	0.333321
609.750957	0.333513
609.960148	0.333517
610.169321	0.333400
610.378475	0.333437
610.587611	0.333723
610.796729	0.333942
611.005829	0.334182
611.214910	0.334457
611.423974	0.334826
611.633019	0.334902
611.842045	0.335230
612.051054	0.335293
612.260044	0.335261
612.469017	0.334801
612.677970	0.334917
612.886906	0.335149
613.095824	0.335372
613.304723	0.335699
613.513604	0.335689
613.722467	0.335456
613.931311	0.335721
614.140138	0.336407
614.348946	0.336760
614.557736	0.336820
614.766507	0.336959
614.975261	0.336911
615.183996	0.337098
615.392713	0.337231
615.601412	0.337599
615.810092	0.337790
616.018754	0.337830
616.227399	0.338309
616.436024	0.338372
616.644632	0.338742
616.853222	0.338767
617.061793	0.338593
617.270346	0.339121
617.478880	0.339511
617.687397	0.339723
617.895895	0.339818
618.104375	0.340112
618.312837	0.340608
618.521281	0.340556
618.729706	0.340843
618.938113	0.340987
619.146502	0.340760
619.354873	0.340983
619.563226	0.341217
619.771560	0.341174
619.979876	0.341126
620.188174	0.341235
620.396453	0.341205
620.604715	0.341219
620.812958	0.341277
621.021183	0.341916
621.229390	0.341894
621.437578	0.341637
621.645748	0.342068
621.853900	0.342275
622.062034	0.342390
622.270150	0.342686
622.478247	0.343091
622.686326	0.343249
622.894387	0.342906
623.102430	0.343304
623.310454	0.343871
623.518461	0.344293
623.726449	0.344602
623.934418	0.344524
624.142370	0.344554
624.350303	0.344639
624.558218	0.344902
624.766115	0.345476
624.973994	0.345483
625.181855	0.345235
625.389697	0.345048
625.597521	0.345324
625.805327	0.345684
626.013114	0.346020
626.220883	0.346226
626.428634	0.346388
626.636367	0.346544
626.844082	0.346780
627.051778	0.347294
627.259457	0.347366
627.467117	0.347422
627.674758	0.347491
627.882382	0.347554
628.089987	0.347616
628.297574	0.347659
628.505143	0.347422
628.712694	0.347489
628.920226	0.347736
629.127740	0.348175
629.335236	0.348584
629.542714	0.348782
629.750174	0.349127
629.957615	0.349368
630.165038	0.349476
630.372443	0.350009
630.579829	0.350524
630.787198	0.350491
630.994548	0.350574
631.201880	0.350472
631.409194	0.350900
631.616489	0.351369
631.823766	0.351788
632.031025	0.352405
632.238266	0.352572
632.445489	0.352403
632.652693	0.352660
632.859879	0.352886
633.067047	0.353132
633.274197	0.353109
633.481329	0.353058
633.688442	0.352956
633.895537	0.353039
634.102614	0.353108
634.309672	0.352987
634.516713	0.353369
634.723735	0.353522
634.930739	0.353546
635.137724	0.353888
635.344692	0.353738
635.551641	0.354102
635.758572	0.354262
635.965485	0.354488
636.172379	0.354992
636.379256	0.355234
636.586114	0.355696
636.792954	0.356047
636.999775	0.356148
637.206579	0.356558
637.413364	0.356648
637.620131	0.356784
637.826880	0.357020
638.033610	0.356973
638.240323	0.357346
638.447017	0.356819
638.653692	0.356666
638.860350	0.356818
639.066990	0.357233
639.273611	0.357375
639.480214	0.357484
639.686798	0.357788
639.893365	0.358281
640.099913	0.358121
640.306443	0.358713
640.512955	0.359219
640.719449	0.359456
640.925924	0.359364
641.132381	0.359735
641.338820	0.359838
641.545241	0.360001
641.751644	0.360053
641.958028	0.360289
642.164394	0.360411
642.370742	0.360835
642.577071	0.361012
642.783383	0.361447
642.989676	0.361618
643.195951	0.361880
643.402207	0.361796
643.608446	0.362127
643.814666	0.362520
644.020868	0.362851
644.227052	0.362782
644.433218	0.362941
644.639365	0.362608
644.845494	0.362761
645.051605	0.362956
645.257698	0.363456
645.463772	0.363609
645.669828	0.363436
645.875866	0.363627
646.081886	0.363909
646.287888	0.364160
646.493871	0.364589
646.699836	0.364799
646.905783	0.365106
647.111712	0.365013
647.317622	0.365326
647.523514	0.365487
647.729388	0.365703
647.935244	0.365831
648.141082	0.366097
648.346901	0.366550
648.552702	0.367135
648.758485	0.367275
648.964250	0.367688
649.169996	0.367891
649.375724	0.368455
649.581434	0.368720
649.787126	0.369123
649.992800	0.369217
650.198455	0.369264
650.404092	0.369028
650.609711	0.369097
650.815311	0.369313
651.020894	0.369345
651.226458	0.369063
651.432004	0.369063
651.637532	0.369173
651.843041	0.369459
652.048532	0.369589
652.254006	0.369693
652.459460	0.369949
652.664897	0.369902
652.870315	0.370371
653.075716	0.370765
653.281097	0.371003
653.486461	0.371061
653.691807	0.371083
653.897134	0.371555
654.102443	0.372062
654.307734	0.372175
654.513006	0.372754
654.718261	0.372743
654.923497	0.373000
655.128715	0.373400
655.333915	0.373884
655.539096	0.374377
655.744259	0.374512
655.949404	0.374871
656.154531	0.375518
656.359640	0.375643
656.564730	0.376153
656.769802	0.376868
656.974856	0.376614
657.179892	0.376812
657.384909	0.377054
657.589908	0.377308
657.794889	0.377454
657.999852	0.377367
658.204797	0.377630
658.409723	0.377648
658.614631	0.377230
658.819521	0.377656
659.024393	0.377950
659.229246	0.377960
659.434081	0.378236
659.638898	0.378258
659.843697	0.378587
660.048478	0.378727
660.253240	0.378765
660.457984	0.379447
660.662710	0.379563
660.867417	0.379544
661.072107	0.380014
661.276778	0.380280
661.481431	0.380526
661.686066	0.381073
661.890682	0.381231
662.095281	0.381607
662.299861	0.381572
662.504422	0.382083
662.708966	0.382263
662.913491	0.382249
663.117999	0.382237
663.322488	0.382280
663.526958	0.382358
663.731411	0.382634
663.935845	0.382955
664.140261	0.383256
664.344659	0.383538
664.549038	0.383987
664.753400	0.384443
664.957743	0.384824
665.162068	0.385360
665.366375	0.385403
665.570663	0.385635
665.774933	0.385914
665.979185	0.386551
666.183419	0.386835
666.387635	0.387016
666.591832	0.387270
666.796011	0.387419
667.000172	0.387556
667.204315	0.387684
667.408439	0.388005
667.612545	0.388204
667.816634	0.388143
668.020703	0.388184
668.224755	0.388473
668.428788	0.388563
668.632803	0.388708
668.836800	0.389025
669.040779	0.389490
669.244739	0.389494
669.448681	0.389735
669.652605	0.390099
669.856511	0.390473
670.060399	0.390955
670.264268	0.391327
670.468119	0.391882
670.671952	0.391902
670.875767	0.392051
671.079563	0.392915
671.283341	0.393002
671.487101	0.393303
671.690843	0.393604
671.894567	0.393558
672.098272	0.393479
672.301959	0.393710
672.505628	0.394208
672.709278	0.394805
672.912911	0.394664
673.116525	0.395076
673.320121	0.395127
673.523699	0.395151
673.727258	0.395395
673.930799	0.395872
674.134322	0.395839
674.337827	0.396157
674.541314	0.396062
674.744782	0.396092
674.948232	0.396298
675.151664	0.396618
675.355078	0.397366
675.558474	0.397410
675.761851	0.397594
675.965210	0.398180
676.168551	0.398427
676.371873	0.398870
676.575178	0.399583
676.778464	0.399786
676.981732	0.400035
677.184981	0.399920
677.388213	0.400340
677.591426	0.400533
677.794621	0.400440
677.997798	0.400571
678.200956	0.400913
678.404097	0.401050
678.607219	0.401435
678.810323	0.401508
679.013408	0.401915
679.216476	0.401992
679.419525	0.402382
679.622556	0.402771
679.825569	0.402999
680.028563	0.403081
680.231540	0.403399
680.434498	0.403677
680.637438	0.404047
680.840359	0.404195
681.043263	0.404649
681.246148	0.405093
681.449015	0.405335
681.651864	0.405646
681.854694	0.405677
682.057506	0.405625
682.260301	0.405712
682.463076	0.406060
682.665834	0.406627
682.868573	0.407170
683.071295	0.407149
683.273998	0.407545
683.476682	0.407749
683.679349	0.408156
683.881997	0.408607
684.084627	0.408789
684.287239	0.408826
684.489833	0.408922
684.692408	0.408706
684.894965	0.408912
685.097504	0.409127
685.300025	0.409522
685.502527	0.409823
685.705012	0.410133
685.907478	0.410228
686.109925	0.410763
686.312355	0.411114
686.514766	0.411739
686.717159	0.412138
686.919534	0.412212
687.121891	0.412125
687.324230	0.412329
687.526550	0.412606
687.728852	0.413396
687.931136	0.413346
688.133401	0.413464
688.335649	0.413340
688.537878	0.413622
688.740089	0.413743
688.942281	0.414227
689.144456	0.414408
689.346612	0.414170
689.548750	0.413637
689.750870	0.413667
689.952971	0.413535
690.155055	0.413767
690.357120	0.413841
690.559167	0.414192
690.761195	0.414105
690.963206	0.414337
691.165198	0.414769
691.367172	0.415583
691.569128	0.416052
691.771065	0.416151
691.972984	0.416390
692.174885	0.416824
692.376768	0.417070
692.578633	0.417484
692.780479	0.417681
692.982308	0.417886
693.184118	0.417797
693.385909	0.417764
