sample name	sample
index	7
start time	 02-11-2021  11:22:45 AM
880	0.092523
Peak Time (s)	81.537
Peak Height 	0.09252
calc peak height	80,83
Baseline Time (s)	10.537
Baseline Value 	-0.00401
subtract baseline	10,4
Abs	0.060344
Peak Time (s)	81.037
Peak Height 	0.06034
calc peak height	80,83
Baseline Time (s)	11.537
Baseline Value 	0.003141
subtract baseline	10,3
PK_550	0.028639
Peak Time (s)	82.04
Peak Height 	0.02864
calc peak height	80,83
Baseline Time (s)	9.039
Baseline Value 	0.001185
subtract baseline	10,2
PK_880	0.040135
Peak Time (s)	80.035
Peak Height 	0.04013
calc peak height	80,83
Baseline Time (s)	8.538
Baseline Value 	0.002272
subtract baseline	10,1


Time (s)	A880-A510	A880-A775	A880-A975	A880	I510	I775	I975	I880	
0.036000	-0.002670	-0.002123	0.003437	0.006580	4329.116885	18092.015062	3159.691068	9816.245628
0.536000	-0.002537	-0.001869	-0.000582	0.004137	4338.141240	18186.877120	3158.243338	9855.845933
1.042000	-0.000079	-0.001126	-0.006939	0.000244	4360.620850	18351.353613	3155.991691	9919.420047
1.537000	-0.002918	-0.001853	-0.009811	-0.000482	4353.105133	18351.320837	3154.039977	9931.326924
2.037500	-0.003709	-0.002424	0.006376	0.005089	4330.698351	18133.805047	3163.788272	9840.388580
2.535000	-0.002386	-0.001653	-0.002535	0.002581	4344.149011	18249.537214	3157.880300	9881.182334
3.035000	-0.001705	-0.000716	-0.000359	0.003644	4342.802384	18245.073180	3158.900594	9863.862812
3.535500	-0.002857	0.000153	-0.001049	0.002648	4342.256025	18311.307994	3159.182573	9880.097629
4.035500	-0.003982	-0.000731	-0.012057	0.002883	4337.472348	18271.537658	3148.983329	9876.263401
4.538500	-0.002902	-0.000944	0.000859	0.002428	4342.873236	18280.115827	3161.142705	9883.684804
5.036500	-0.001527	-0.001561	-0.003455	0.002417	4347.763388	18258.633684	3157.188547	9883.865045
5.539500	0.004068	-0.000276	0.006941	-0.000759	4379.086815	18417.586486	3169.794002	9935.887385
6.037000	-0.002190	0.000292	-0.002722	0.000197	4353.278310	18403.681687	3159.897685	9920.181358
6.539500	-0.002126	-0.002333	-0.004492	0.000602	4352.067210	18295.630739	3157.900285	9913.538864
7.034000	-0.002869	-0.000378	-0.007223	0.002674	4342.122375	18291.475662	3153.524717	9879.668616
7.599000	-0.000369	-0.001982	-0.000028	-0.002179	4368.241165	18407.321044	3164.591966	9959.257928
8.035000	0.001363	0.000847	-0.006397	-0.000696	4369.131012	18455.574991	3157.344607	9934.841572
8.538000	0.000000	0.000374	-0.004919	-0.000154	4362.320402	18419.210057	3158.202094	9925.946250
9.038500	-0.001894	0.000000	-0.006188	-0.000676	4357.432375	18424.509607	3157.517933	9934.524251
9.536000	0.000823	-0.000482	0.000602	-0.003239	4376.331454	18499.262475	3166.169745	9976.771171
10.036500	-0.001025	0.000561	0.007241	0.001066	4354.327054	18382.218056	3168.357082	9905.943354
10.536500	-0.000685	-0.001198	-0.001904	0.000000	4359.328819	18357.498420	3160.833460	9923.417102
11.037000	0.002300	0.001881	0.001934	0.002274	4361.862386	18386.262006	3162.278555	9886.201618
11.537000	0.001156	-0.001369	0.000000	0.000132	4365.428293	18346.684811	3162.471573	9921.254606
12.037500	-0.001485	-0.000767	-0.007416	0.000397	4355.072084	18358.703007	3155.417526	9916.904646
12.537500	-0.001825	-0.001411	-0.001422	0.000459	4353.641709	18333.517694	3160.854047	9915.885694
13.035500	0.001173	0.001002	0.007027	0.002040	4358.681025	18363.194891	3167.242266	9890.020235
13.538000	-0.000818	-0.000346	-0.000639	0.000390	4357.467307	18373.967154	3161.640837	9917.018378
14.038500	0.001379	-0.000796	0.002163	0.000925	4363.393406	18338.847493	3163.743499	9908.260435
14.536500	-0.001217	0.001072	0.011516	0.001532	4351.992208	18383.835474	3171.953830	9898.316742
15.036500	-0.002110	-0.001407	-0.003071	-0.000169	4354.861702	18356.065042	3159.913383	9926.187646
15.536500	0.002057	-0.000554	-0.004993	0.000195	4368.425607	18373.523358	3157.814560	9920.216522
16.040000	-0.000384	-0.000220	0.011312	0.000655	4358.070485	18369.021257	3172.593356	9912.684694
16.537000	-0.001934	-0.000701	-0.009791	0.000104	4354.517375	18371.507957	3153.526438	9921.706356
17.035000	-0.000435	-0.001390	0.001619	-0.000390	4361.610107	18364.560281	3164.459953	9929.817506
17.535000	-0.001144	-0.000674	0.000511	0.000130	4357.231529	18371.567686	3162.946931	9921.288143
18.035500	-0.001026	-0.000537	0.004541	0.000410	4356.653945	18366.447123	3166.440380	9916.689899
18.538500	0.001324	0.000294	0.005831	0.000350	4365.248397	18398.302284	3167.705454	9917.676604
19.036500	0.000015	-0.000964	-0.009703	-0.000985	4365.339654	18401.014059	3154.594225	9939.592117
19.539500	-0.002011	-0.000845	-0.005915	0.001018	4350.999493	18333.760292	3156.218896	9906.726532
20.036500	0.001165	0.000340	0.007381	-0.002544	4375.061261	18503.844174	3171.897782	9965.291710
20.537500	0.001742	-0.000030	-0.001483	-0.001512	4373.423766	18453.397998	3162.621161	9948.276243
21.053500	-0.000829	-0.000741	-0.003331	-0.002451	4367.568766	18461.605412	3161.779305	9963.756577
21.534500	0.002180	-0.001536	0.001968	-0.001722	4375.754511	18406.960488	3166.027749	9951.734463
22.035000	0.003806	0.001015	-0.008204	-0.000234	4376.249337	18445.036482	3155.274772	9927.256502
22.535000	0.000306	-0.000134	-0.006817	-0.001041	4366.583215	18432.773088	3157.275408	9940.514598
23.057500	-0.001198	-0.000218	0.013230	-0.001976	4364.546846	18463.297831	3176.935495	9955.909292
23.536000	-0.001937	-0.000985	0.008832	0.001507	4349.534286	18311.386254	3169.439897	9898.732787
24.036000	0.003916	0.000820	0.009679	0.001943	4368.823889	18360.153871	3169.827207	9891.603195
24.569500	-0.001194	-0.001863	0.004790	-0.003037	4368.360289	18442.380243	3169.914136	9973.437306
25.045000	-0.000131	-0.001619	0.008674	-0.002043	4368.604910	18415.446975	3172.649335	9957.015870
25.542500	0.001467	-0.000576	0.003203	-0.002100	4374.546573	18454.892900	3167.538000	9957.958927
26.037000	0.005514	-0.000853	0.013011	-0.000386	4382.961722	18383.573797	3175.203239	9929.750036
26.535000	-0.000424	0.000592	0.007047	-0.001578	4365.893819	18478.144569	3170.667634	9949.364590
27.036500	0.001320	-0.001488	0.004080	0.000204	4365.758193	18339.898123	3166.202658	9920.077219
27.538000	0.000811	-0.001920	0.004155	-0.000714	4367.219843	18357.204534	3167.131823	9935.144396
28.060500	0.002745	0.000739	0.004157	0.001396	4366.590528	18376.799981	3165.160347	9900.539248
28.539500	-0.002002	-0.001089	-0.005055	0.000167	4354.053133	18355.439293	3157.783300	9920.679584
29.036000	-0.000342	-0.001533	-0.003445	-0.000577	4362.609392	18366.147725	3159.944265	9932.893341
29.536500	-0.001438	-0.000112	-0.003751	0.001426	4351.585082	18345.376348	3157.824028	9900.053746
30.040000	-0.000161	-0.000060	-0.002106	0.000559	4359.203865	18378.145962	3160.130897	9914.243833
30.540500	-0.001648	-0.000408	0.007281	0.001017	4352.292562	18349.396641	3168.440861	9906.745572
31.034500	-0.002236	-0.000044	0.007449	0.000327	4352.653984	18387.025103	3169.249134	9918.060403
31.538500	0.001077	-0.000284	-0.000469	0.001505	4360.244358	18336.417116	3160.768168	9898.760672
32.041000	0.000452	0.000111	0.001007	0.000838	4360.396091	18374.318280	3162.750695	9909.680149
32.535500	-0.004618	-0.000372	0.014652	0.000440	4343.827807	18371.274184	3175.982214	9916.195645
33.036000	-0.006311	-0.001642	-0.000364	-0.000676	4341.798206	18365.760967	3162.883379	9934.518958
33.536500	0.001326	0.000003	0.002545	0.000685	4364.060173	18375.905981	3164.321262	9912.188034
34.036500	0.001520	0.000424	0.004426	0.000887	4364.029836	18383.741413	3165.887250	9908.875494
34.536500	-0.000855	0.000588	0.006270	0.001471	4353.493434	18368.747457	3167.065705	9899.317135
35.049000	0.003823	0.000852	-0.000518	0.001165	4371.284183	18389.108620	3161.037219	9904.327513
35.540000	-0.000261	-0.001339	0.000599	0.000316	4359.714403	18341.198236	3162.856181	9918.239322
36.043000	-0.001640	-0.000007	0.002949	0.000436	4354.381106	18384.454101	3164.929993	9916.269401
36.535500	0.000820	-0.000007	0.009175	-0.003346	4376.702165	18520.190849	3174.366185	9978.529743
37.036000	0.002458	-0.000321	0.003385	-0.002415	4379.253321	18475.386688	3168.005008	9963.162484
37.535500	0.001258	0.000021	-0.001306	-0.000546	4368.220019	18420.596395	3161.890127	9932.382391
38.036000	0.000798	-0.001359	0.002852	-0.002049	4371.961128	18425.000590	3167.161723	9957.121422
38.536000	0.000478	0.000028	0.004744	-0.001327	4368.222785	18448.829392	3168.259411	9945.220983
39.037000	-0.001376	-0.001587	0.011802	-0.001764	4363.154911	18406.604730	3175.364549	9952.417321
39.539500	0.001807	-0.000714	0.011357	-0.000319	4369.372570	18386.181530	3173.561596	9928.656365
40.038500	-0.000027	-0.000205	0.001182	-0.001440	4366.820919	18444.549015	3165.031640	9947.093593
40.537500	-0.002953	-0.000644	-0.004470	0.000710	4348.757782	18351.916630	3157.821015	9911.772257
41.035000	-0.000227	0.000015	0.001175	0.001340	4356.191877	18352.958361	3162.441071	9901.465883
41.535000	0.001666	-0.001485	-0.001457	-0.000963	4371.180524	18381.652476	3162.135957	9939.240954
42.035500	0.000821	0.000535	0.011392	-0.000240	4365.561251	18428.049281	3173.519595	9927.362474
42.536000	0.001191	-0.000018	-0.000356	-0.001680	4372.047049	18459.890635	3163.823285	9951.047511
43.036500	0.000312	0.000192	-0.005063	-0.001553	4368.436181	18462.827650	3159.353575	9948.940121
43.536000	0.000154	0.000360	-0.000250	-0.005733	4382.915772	18619.821301	3167.707709	10018.119340
44.037000	0.001177	-0.001469	0.005967	-0.008293	4395.926055	18646.354115	3176.027968	10060.806065
44.537000	-0.025651	-0.016930	0.019007	0.143351	3862.314921	13605.033853	3062.385071	7919.839732
45.037500	-0.040746	-0.032716	0.039694	0.234542	3634.392201	11259.584007	3017.088688	6949.519745
45.537000	-0.021432	-0.022033	0.010257	0.034898	4173.297302	16491.320878	3140.392814	9373.143756
46.035000	-0.013777	-0.012139	-0.007647	-0.153292	4948.739438	24367.684120	3322.962571	12940.097862
46.535500	-0.014518	-0.007087	-0.006177	-0.130318	4835.212106	23498.288641	3295.771718	12417.461936
47.035500	-0.038028	-0.008029	-0.014103	-0.110616	4643.632118	22540.294198	3262.755604	11990.746749
47.538500	-0.020362	-0.007095	-0.006740	-0.098396	4666.739512	22035.529421	3257.165966	11735.654002
48.036500	-0.018308	-0.002144	0.007480	-0.074395	4575.361841	21212.709020	3246.097289	11255.052503
48.536500	-0.009667	-0.000029	0.001082	-0.070949	4596.572741	21156.548338	3235.204794	11188.200172
49.039500	-0.004202	0.004420	0.007472	-0.062983	4586.330764	21008.985858	3233.484261	11035.683267
49.537000	0.003254	0.005505	0.006867	-0.054667	4582.817478	20709.362734	3223.858871	10879.411489
50.034000	0.007040	0.009209	0.009713	-0.038810	4534.288545	20216.831742	3210.170775	10589.609096
50.535000	0.015039	0.012418	0.016377	-0.027022	4519.334435	19877.419166	3204.892706	10380.943238
51.035500	0.012599	0.012242	0.019112	-0.013525	4457.831980	19350.080948	3194.006597	10148.861302
51.535500	0.016534	0.014656	0.025526	-0.006750	4447.104713	19185.317361	3193.646038	10035.051061
52.061500	0.016160	0.015447	0.028145	-0.004436	4437.018126	19128.208132	3193.950170	9996.593102
52.535500	0.015696	0.016563	0.028438	0.003537	4405.762389	18873.391696	3186.346452	9865.618077
53.036500	0.021662	0.019225	0.030118	0.005700	4419.773242	18891.794989	3185.871163	9830.484656
53.539500	0.025783	0.020008	0.027380	0.014173	4403.747166	18610.475347	3175.021341	9694.591691
54.037000	0.025595	0.020386	0.028337	0.017524	4390.834316	18503.020852	3172.740620	9641.567783
54.537000	0.029682	0.022793	0.036095	0.023307	4384.680593	18381.908569	3174.620811	9551.024404
55.037500	0.028853	0.023208	0.030517	0.025730	4372.951619	18310.310612	3167.054361	9513.441396
55.538000	0.023982	0.022004	0.029347	0.028655	4345.191035	18164.156168	3163.235452	9468.365757
56.035500	0.028135	0.023401	0.030512	0.030428	4353.610928	18150.903229	3162.671494	9441.177170
56.536000	0.024236	0.022556	0.035889	0.031264	4336.898865	18091.830087	3166.902897	9428.398228
57.036000	0.026114	0.023936	0.027728	0.034438	4332.356449	18029.072141	3156.423102	9380.116142
57.536000	0.026674	0.024037	0.032420	0.039298	4317.384898	17863.788678	3156.269831	9306.854441
58.036500	0.027471	0.023907	0.022663	0.038848	4321.708730	17874.843549	3147.870458	9313.600685
58.540000	0.026557	0.023366	0.036109	0.041160	4310.537775	17776.514015	3157.939205	9278.991267
59.037000	0.028911	0.023886	0.033528	0.044165	4308.296262	17691.438667	3152.854757	9234.293080
59.534500	0.026145	0.022891	0.042816	0.047618	4287.025726	17540.315877	3158.167976	9183.309542
60.037500	0.031884	0.023769	0.047027	0.048719	4302.859801	17532.829062	3161.028801	9167.150169
60.535000	0.028048	0.024969	0.039147	0.052075	4278.381124	17460.159674	3150.788760	9118.106833
61.035500	0.028219	0.022930	0.041178	0.052595	4277.203671	17374.393152	3152.150387	9110.536985
61.535500	0.028018	0.023923	0.040913	0.057644	4259.604183	17239.496425	3147.382620	9037.562825
62.036500	0.030670	0.024358	0.034718	0.058013	4267.230773	17241.671349	3141.573902	9032.264424
62.536500	0.029915	0.024210	0.045097	0.059620	4259.338317	17183.683976	3149.356506	9009.230693
63.039500	0.032258	0.025557	0.047942	0.061769	4259.984381	17157.281625	3149.980935	8978.564096
63.536500	0.029568	0.024331	0.047297	0.064162	4243.142769	17038.628576	3147.263311	8944.596361
64.037500	0.030642	0.024517	0.043231	0.062484	4252.239013	17099.625547	3145.140595	8968.402288
64.537500	0.032348	0.024549	0.040056	0.062525	4257.768462	17099.320125	3142.299308	8967.810722
65.035000	0.034471	0.026383	0.043847	0.064068	4259.699887	17108.866837	3144.282885	8945.923156
65.537500	0.033043	0.025197	0.049004	0.067325	4244.171997	16963.868749	3145.967803	8899.983930
66.036000	0.032247	0.025440	0.038269	0.064719	4250.149678	17056.652033	3138.812108	8936.713821
66.538500	0.030340	0.025434	0.050118	0.065035	4242.806742	17046.126139	3149.003382	8932.244561
67.036500	0.032585	0.023716	0.044829	0.065396	4249.029688	16978.419110	3143.977461	8927.154889
67.536500	0.032414	0.025843	0.043596	0.066691	4244.189240	17005.503148	3141.749104	8908.903469
68.036500	0.032401	0.025461	0.053440	0.066454	4244.926365	17000.762642	3150.711746	8912.232552
68.537000	0.029638	0.024204	0.021451	0.067835	4231.322835	16915.136563	3121.822376	8892.821854
69.034500	0.025894	0.026066	0.029490	0.069698	4213.120069	16915.111258	3127.003066	8866.727060
69.534500	0.029123	0.025064	0.048008	0.071233	4218.595119	16833.256940	3141.634684	8845.308810
70.035500	0.031899	0.027062	0.038004	0.070965	4228.484714	16906.355622	3133.177387	8849.043169
70.535500	0.033706	0.026853	0.047305	0.071167	4233.728088	16893.064102	3141.075168	8846.221003
71.035500	0.031047	0.024837	0.039048	0.070234	4228.090089	16858.113521	3134.704902	8859.231809
71.536000	0.035774	0.024661	0.062928	0.074105	4230.881469	16728.292881	3152.366763	8805.432848
72.036500	0.034436	0.027853	0.041366	0.073815	4227.464232	16839.913220	3133.616837	8809.450113
72.539500	0.034850	0.026612	0.045632	0.071818	4235.342756	16864.264847	3139.042910	8837.163398
73.037000	0.032581	0.027541	0.050955	0.072942	4224.269926	16857.977528	3142.724109	8821.550199
73.537000	0.037765	0.026632	0.045274	0.079201	4220.777342	16628.857382	3132.347769	8735.335838
74.034500	0.035739	0.027498	0.044672	0.076087	4224.309997	16755.600785	3134.507529	8778.073643
74.537500	0.033549	0.026726	0.052756	0.075388	4219.471081	16753.285858	3142.156330	8787.709311
75.043000	0.036615	0.026312	0.045846	0.076222	4226.723995	16713.441932	3135.404160	8776.224076
75.535500	0.032783	0.026603	0.050201	0.081334	4197.893422	16560.526673	3134.750880	8706.252835
76.055500	0.034854	0.027857	0.043966	0.080016	4208.746384	16641.888085	3130.532715	8724.205555
76.542000	0.035347	0.029109	0.027906	0.081350	4206.046904	16639.313476	3115.990505	8706.035323
77.036500	0.034679	0.027579	0.043222	0.080136	4207.797692	16629.259759	3129.797015	8722.572178
77.536500	0.037425	0.026675	0.054834	0.084678	4202.040125	16457.718641	3135.864353	8660.923374
78.040000	0.040073	0.027651	0.050063	0.082322	4218.144267	16562.421554	3133.780471	8692.820150
78.540500	0.042825	0.028663	0.044964	0.083750	4222.435934	16549.285454	3128.206463	8673.460257
79.035000	0.039684	0.027847	0.051146	0.084416	4210.130463	16502.672693	3132.912088	8664.457276
79.535000	0.034893	0.027133	0.056534	0.089822	4177.692430	16311.783248	3132.895563	8591.861110
80.035500	0.040135	0.027663	0.043128	0.085696	4207.464333	16456.757605	3125.015134	8647.187597
80.535500	0.035258	0.028014	0.048293	0.086733	4188.594554	16435.301573	3128.500234	8633.233193
81.036500	0.036786	0.027304	0.060344	0.086775	4193.313851	16411.837171	3138.828478	8632.668100
81.536500	0.035757	0.025259	0.046966	0.092523	4171.933282	16170.878659	3122.512613	8555.940479
82.039500	0.037403	0.028639	0.046590	0.089349	4187.105185	16373.221397	3124.854650	8598.184420
82.536500	0.038774	0.027205	0.054872	0.089658	4190.471235	16319.114019	3131.612449	8594.054409
83.037000	0.036668	0.026018	0.057662	0.088784	4186.566139	16309.412180	3134.760124	8605.735319
83.589500	0.034812	0.026323	0.051361	0.095217	4160.585297	16121.009398	3123.934126	8520.316593
84.048000	0.037984	0.028407	0.059577	0.092285	4179.669954	16275.028607	3133.394366	8559.092988
84.535000	0.044992	0.027672	0.045336	0.091762	4203.587005	16268.491000	3121.787586	8566.040201
85.035000	0.040005	0.027296	0.047476	0.092035	4186.839220	16248.489623	3123.346362	8562.418222
85.536000	0.036796	0.025528	0.052191	0.097312	4160.243292	16033.071870	3122.876030	8492.777599
86.036000	0.041285	0.028235	0.054021	0.094082	4184.412128	16214.359232	3127.127779	8535.299152
86.537000	0.042893	0.026859	0.064408	0.093335	4191.870779	16195.038958	3136.658045	8545.172877
