sample name	sample
index	1413
start time	 05-10-2021  11:46:23 AM


Wavelength (nm)	Absorbance
494.344910	0.019274
494.563924	0.019274
494.782919	0.019274
495.001897	0.015038
495.220856	0.009056
495.439797	0.000861
495.658719	-0.002446
495.877624	-0.006170
496.096510	0.002006
496.315378	0.003936
496.534227	0.012473
496.753059	0.012059
496.971872	0.002020
497.190667	0.063734
497.409444	0.094448
497.628203	0.102386
497.846943	0.107247
498.065665	0.108552
498.284369	0.110018
498.503055	0.111540
498.721723	0.111756
498.940372	0.113080
499.159003	0.114629
499.377616	0.113338
499.596210	0.113209
499.814787	0.112874
500.033345	0.111833
500.251885	0.112118
500.470406	0.111958
500.688910	0.112572
500.907395	0.112929
501.125862	0.111348
501.344311	0.112313
501.562742	0.112410
501.781154	0.113466
501.999548	0.114714
502.217924	0.114323
502.436282	0.115015
502.654621	0.114840
502.872942	0.113901
503.091245	0.114789
503.309530	0.114421
503.527797	0.114431
503.746045	0.112335
503.964275	0.112825
504.182487	0.113649
504.400681	0.113411
504.618856	0.113202
504.837013	0.114928
505.055152	0.113902
505.273273	0.113691
505.491376	0.114902
505.709460	0.116264
505.927526	0.115926
506.145574	0.115830
506.363604	0.116407
506.581615	0.116819
506.799608	0.116436
507.017583	0.117397
507.235540	0.117602
507.453478	0.116757
507.671399	0.116609
507.889301	0.116522
508.107185	0.115826
508.325050	0.115371
508.542898	0.115555
508.760727	0.115161
508.978538	0.116145
509.196330	0.116065
509.414105	0.116122
509.631861	0.116890
509.849599	0.117199
510.067319	0.117495
510.285021	0.117445
510.502704	0.118194
510.720369	0.118652
510.938016	0.117688
511.155645	0.117642
511.373255	0.117731
511.590848	0.117650
511.808422	0.117808
512.025977	0.117857
512.243515	0.118187
512.461034	0.118331
512.678536	0.118218
512.896018	0.119057
513.113483	0.119857
513.330930	0.119969
513.548358	0.119677
513.765768	0.119800
513.983160	0.120680
514.200533	0.120568
514.417889	0.119183
514.635226	0.119370
514.852545	0.119564
515.069845	0.120819
515.287128	0.120814
515.504392	0.121147
515.721638	0.121643
515.938866	0.121576
516.156075	0.121221
516.373267	0.122241
516.590440	0.122739
516.807594	0.122235
517.024731	0.121039
517.241850	0.121268
517.458950	0.120810
517.676032	0.120919
517.893095	0.121274
518.110141	0.122106
518.327168	0.122279
518.544177	0.121420
518.761168	0.121858
518.978141	0.122474
519.195095	0.121627
519.412031	0.122084
519.628949	0.121786
519.845849	0.121351
520.062731	0.121286
520.279594	0.121365
520.496439	0.122254
520.713266	0.122156
520.930074	0.122585
521.146865	0.124237
521.363637	0.124743
521.580391	0.125110
521.797127	0.126162
522.013844	0.127082
522.230543	0.127226
522.447224	0.127806
522.663887	0.128234
522.880532	0.128395
523.097158	0.128521
523.313766	0.128702
523.530356	0.128563
523.746928	0.128095
523.963481	0.128080
524.180017	0.127724
524.396534	0.126951
524.613032	0.127646
524.829513	0.128097
525.045975	0.128431
525.262420	0.129046
525.478845	0.129681
525.695253	0.130222
525.911643	0.130021
526.128014	0.131042
526.344367	0.132227
526.560702	0.131860
526.777018	0.131784
526.993316	0.132019
527.209597	0.131882
527.425858	0.131716
527.642102	0.131903
527.858328	0.132058
528.074535	0.132035
528.290724	0.131209
528.506894	0.131366
528.723047	0.131006
528.939181	0.131035
529.155297	0.131107
529.371395	0.131365
529.587475	0.132218
529.803536	0.132272
530.019579	0.132873
530.235604	0.134340
530.451611	0.134814
530.667600	0.135693
530.883570	0.135275
531.099522	0.135655
531.315456	0.136085
531.531372	0.135621
531.747269	0.136691
531.963148	0.136213
532.179009	0.135576
532.394852	0.135702
532.610676	0.135692
532.826482	0.136246
533.042271	0.136594
533.258040	0.136840
533.473792	0.137440
533.689525	0.137126
533.905240	0.138060
534.120937	0.138753
534.336616	0.139175
534.552277	0.139017
534.767919	0.139603
534.983543	0.139731
535.199149	0.139750
535.414736	0.139333
535.630306	0.139457
535.845857	0.139699
536.061390	0.139806
536.276904	0.139273
536.492401	0.139585
536.707879	0.139444
536.923339	0.139788
537.138781	0.139775
537.354204	0.140071
537.569610	0.140416
537.784997	0.140200
538.000366	0.140575
538.215716	0.141710
538.431049	0.142102
538.646363	0.142218
538.861659	0.142393
539.076937	0.142524
539.292196	0.142842
539.507438	0.142809
539.722661	0.143243
539.937866	0.143386
540.153052	0.143279
540.368221	0.143152
540.583371	0.143518
540.798503	0.143143
541.013617	0.143256
541.228712	0.143493
541.443789	0.143950
541.658848	0.143533
541.873889	0.143576
542.088912	0.143738
542.303916	0.143673
542.518902	0.143827
542.733870	0.143994
542.948820	0.144726
543.163752	0.145405
543.378665	0.145531
543.593560	0.146104
543.808437	0.146002
544.023295	0.146037
544.238136	0.146331
544.452958	0.146638
544.667762	0.147233
544.882548	0.147381
545.097315	0.146678
545.312064	0.146602
545.526795	0.146604
545.741508	0.146976
545.956203	0.146713
546.170879	0.147207
546.385537	0.146680
546.600177	0.146506
546.814799	0.146501
547.029402	0.147217
547.243988	0.148115
547.458555	0.148042
547.673103	0.147858
547.887634	0.148588
548.102146	0.148274
548.316640	0.149133
548.531116	0.149099
548.745574	0.149168
548.960013	0.149161
549.174435	0.148576
549.388838	0.149067
549.603222	0.149366
549.817589	0.149550
550.031937	0.150104
550.246267	0.150060
550.460579	0.150688
550.674873	0.150752
550.889148	0.151060
551.103405	0.151261
551.317644	0.151430
551.531865	0.151775
551.746068	0.151420
551.960252	0.151480
552.174418	0.151436
552.388566	0.151504
552.602696	0.151574
552.816807	0.151512
553.030900	0.151795
553.244975	0.151590
553.459032	0.151895
553.673070	0.152357
553.887091	0.152773
554.101093	0.152948
554.315077	0.152523
554.529042	0.153150
554.742990	0.153383
554.956919	0.153217
555.170830	0.153696
555.384722	0.153680
555.598597	0.153855
555.812453	0.154092
556.026291	0.154030
556.240111	0.154846
556.453913	0.154530
556.667696	0.154429
556.881461	0.154976
557.095208	0.154627
557.308937	0.154251
557.522647	0.154279
557.736339	0.154370
557.950013	0.154635
558.163669	0.154384
558.377307	0.154205
558.590926	0.154204
558.804527	0.154130
559.018110	0.154385
559.231675	0.154676
559.445221	0.155351
559.658749	0.155339
559.872259	0.155396
560.085751	0.155739
560.299225	0.156389
560.512680	0.156447
560.726117	0.156695
560.939536	0.156872
561.152937	0.157300
561.366319	0.156901
561.579683	0.156868
561.793029	0.156999
562.006357	0.156925
562.219667	0.157237
562.432958	0.157439
562.646231	0.157519
562.859486	0.157832
563.072723	0.157930
563.285941	0.157856
563.499141	0.158253
563.712323	0.158572
563.925487	0.158642
564.138632	0.158489
564.351760	0.158735
564.564869	0.158735
564.777960	0.158908
564.991032	0.158712
565.204087	0.158781
565.417123	0.158327
565.630141	0.158489
565.843140	0.159456
566.056122	0.159598
566.269085	0.159847
566.482030	0.160167
566.694957	0.160237
566.907866	0.160498
567.120756	0.160654
567.333628	0.161008
567.546482	0.160710
567.759318	0.159846
567.972135	0.159733
568.184935	0.159675
568.397716	0.159226
568.610478	0.159382
568.823223	0.159385
569.035949	0.159374
569.248657	0.159003
569.461347	0.159172
569.674019	0.159616
569.886672	0.159781
570.099308	0.159436
570.311925	0.159885
570.524523	0.159842
570.737104	0.159956
570.949666	0.160226
571.162210	0.160901
571.374736	0.161043
571.587244	0.161248
571.799733	0.161774
572.012205	0.162325
572.224658	0.162066
572.437092	0.161964
572.649509	0.162130
572.861907	0.162177
573.074287	0.162262
573.286649	0.162671
573.498993	0.162775
573.711318	0.162844
573.923625	0.163158
574.135914	0.163949
574.348185	0.164310
574.560438	0.164713
574.772672	0.164642
574.984888	0.164448
575.197086	0.164420
575.409266	0.164609
575.621427	0.164444
575.833570	0.164182
576.045695	0.163921
576.257802	0.163941
576.469890	0.163786
576.681961	0.164071
576.894013	0.164314
577.106046	0.164513
577.318062	0.164413
577.530059	0.164773
577.742039	0.165336
577.954000	0.165784
578.165942	0.166093
578.377867	0.166153
578.589773	0.166341
578.801661	0.166509
579.013531	0.166867
579.225382	0.167461
579.437216	0.167344
579.649031	0.167663
579.860828	0.167289
580.072606	0.167599
580.284367	0.168036
580.496109	0.168164
580.707833	0.168678
580.919539	0.168554
581.131227	0.168516
581.342896	0.168822
581.554547	0.168640
581.766180	0.169055
581.977795	0.168928
582.189391	0.169129
582.400969	0.169600
582.612529	0.169569
582.824071	0.169763
583.035595	0.169608
583.247100	0.169497
583.458587	0.169374
583.670056	0.169662
583.881506	0.169880
584.092939	0.169961
584.304353	0.170008
584.515749	0.170196
584.727127	0.170496
584.938486	0.170878
585.149828	0.171304
585.361151	0.171589
585.572456	0.171441
585.783742	0.171785
585.995011	0.171571
586.206261	0.171625
586.417493	0.171899
586.628706	0.171838
586.839902	0.171516
587.051079	0.171542
587.262238	0.171422
587.473379	0.171823
587.684502	0.171781
587.895606	0.171975
588.106692	0.171853
588.317760	0.171795
588.528810	0.172128
588.739841	0.172522
588.950855	0.172434
589.161850	0.172807
589.372827	0.172759
589.583785	0.172820
589.794726	0.172832
590.005648	0.173213
590.216552	0.172983
590.427437	0.173019
590.638305	0.173126
590.849154	0.173324
591.059985	0.173797
591.270798	0.173905
591.481592	0.174082
591.692369	0.174512
591.903127	0.174629
592.113867	0.175228
592.324588	0.175207
592.535292	0.175347
592.745977	0.175795
592.956644	0.175396
593.167293	0.175657
593.377923	0.175757
593.588536	0.175520
593.799130	0.175404
594.009706	0.175032
594.220263	0.175008
594.430803	0.175345
594.641324	0.175145
594.851827	0.175231
595.062312	0.175412
595.272778	0.175711
595.483227	0.176171
595.693657	0.176272
595.904069	0.176696
596.114462	0.176979
596.324838	0.176873
596.535195	0.177092
596.745534	0.177399
596.955855	0.177356
597.166157	0.177295
597.376441	0.177390
597.586707	0.177674
597.796955	0.177644
598.007185	0.177835
598.217396	0.177900
598.427589	0.177970
598.637764	0.178162
598.847921	0.178092
599.058060	0.178361
599.268180	0.178627
599.478282	0.178840
599.688366	0.179038
599.898431	0.179135
600.108479	0.179325
600.318508	0.179308
600.528519	0.179557
600.738511	0.179760
600.948486	0.179652
601.158442	0.179686
601.368380	0.179777
601.578300	0.179745
601.788202	0.179892
601.998085	0.180208
602.207950	0.180322
602.417797	0.180063
602.627626	0.180228
602.837436	0.180348
603.047228	0.180341
603.257002	0.180666
603.466758	0.180948
603.676496	0.180948
603.886215	0.180779
604.095916	0.181165
604.305599	0.181506
604.515264	0.181600
604.724910	0.181623
604.934538	0.181729
605.144148	0.181519
605.353740	0.181537
605.563314	0.181826
605.772869	0.182085
605.982406	0.182250
606.191925	0.182604
606.401425	0.182871
606.610908	0.182944
606.820372	0.183110
607.029818	0.183147
607.239246	0.183493
607.448655	0.183278
607.658047	0.183236
607.867420	0.183165
608.076775	0.182923
608.286111	0.183209
608.495430	0.183654
608.704730	0.183882
608.914012	0.184191
609.123275	0.184242
609.332521	0.184841
609.541748	0.185395
609.750957	0.185541
609.960148	0.186011
610.169321	0.185874
610.378475	0.185810
610.587611	0.186002
610.796729	0.186000
611.005829	0.185854
611.214910	0.185647
611.423974	0.185431
611.633019	0.185477
611.842045	0.185435
612.051054	0.185680
612.260044	0.185788
612.469017	0.185733
612.677970	0.185984
612.886906	0.186198
613.095824	0.186493
613.304723	0.186698
613.513604	0.186901
613.722467	0.186637
613.931311	0.186743
614.140138	0.186761
614.348946	0.186829
614.557736	0.186803
614.766507	0.187002
614.975261	0.186877
615.183996	0.186742
615.392713	0.186747
615.601412	0.186915
615.810092	0.186818
616.018754	0.187218
616.227399	0.187511
616.436024	0.187761
616.644632	0.187954
616.853222	0.188135
617.061793	0.188475
617.270346	0.188671
617.478880	0.188812
617.687397	0.189011
617.895895	0.188798
618.104375	0.188725
618.312837	0.188715
618.521281	0.188665
618.729706	0.188820
618.938113	0.188969
619.146502	0.189174
619.354873	0.189443
619.563226	0.189626
619.771560	0.189910
619.979876	0.189935
620.188174	0.190094
620.396453	0.190167
620.604715	0.190164
620.812958	0.190254
621.021183	0.190263
621.229390	0.190494
621.437578	0.190511
621.645748	0.190824
621.853900	0.191156
622.062034	0.191318
622.270150	0.191667
622.478247	0.191836
622.686326	0.192042
622.894387	0.192501
623.102430	0.192599
623.310454	0.192734
623.518461	0.192728
623.726449	0.192579
623.934418	0.192636
624.142370	0.192943
624.350303	0.193100
624.558218	0.193087
624.766115	0.192823
624.973994	0.192696
625.181855	0.192512
625.389697	0.192344
625.597521	0.192597
625.805327	0.192966
626.013114	0.192851
626.220883	0.192870
626.428634	0.193144
626.636367	0.193123
626.844082	0.193737
627.051778	0.193978
627.259457	0.194480
627.467117	0.194671
627.674758	0.194634
627.882382	0.194579
628.089987	0.195016
628.297574	0.195100
628.505143	0.195624
628.712694	0.195338
628.920226	0.195960
629.127740	0.196115
629.335236	0.196327
629.542714	0.196393
629.750174	0.196805
629.957615	0.196568
630.165038	0.196403
630.372443	0.196534
630.579829	0.196887
630.787198	0.196632
630.994548	0.196604
631.201880	0.196796
631.409194	0.197020
631.616489	0.196997
631.823766	0.197297
632.031025	0.197584
632.238266	0.197594
632.445489	0.197872
632.652693	0.197945
632.859879	0.198137
633.067047	0.198089
633.274197	0.198162
633.481329	0.198414
633.688442	0.198462
633.895537	0.198649
634.102614	0.198960
634.309672	0.198693
634.516713	0.199102
634.723735	0.199070
634.930739	0.199169
635.137724	0.199370
635.344692	0.199171
635.551641	0.199258
635.758572	0.199402
635.965485	0.199145
636.172379	0.199158
636.379256	0.199243
636.586114	0.199291
636.792954	0.199349
636.999775	0.199420
637.206579	0.199690
637.413364	0.199896
637.620131	0.199954
637.826880	0.200044
638.033610	0.200281
638.240323	0.200159
638.447017	0.200431
638.653692	0.200588
638.860350	0.200746
639.066990	0.200919
639.273611	0.200927
639.480214	0.200996
639.686798	0.200945
639.893365	0.201317
640.099913	0.201538
640.306443	0.201743
640.512955	0.201867
640.719449	0.201786
640.925924	0.201892
641.132381	0.202305
641.338820	0.202600
641.545241	0.202802
641.751644	0.202639
641.958028	0.202618
642.164394	0.202475
642.370742	0.202581
642.577071	0.202750
642.783383	0.202942
642.989676	0.202719
643.195951	0.202719
643.402207	0.203098
643.608446	0.203464
643.814666	0.203602
644.020868	0.204040
644.227052	0.204213
644.433218	0.204369
644.639365	0.204447
644.845494	0.204620
645.051605	0.204910
645.257698	0.204846
645.463772	0.204744
645.669828	0.205050
645.875866	0.205094
646.081886	0.205244
646.287888	0.205543
646.493871	0.205460
646.699836	0.205673
646.905783	0.205462
647.111712	0.205601
647.317622	0.205775
647.523514	0.205590
647.729388	0.205421
647.935244	0.205522
648.141082	0.205432
648.346901	0.205749
648.552702	0.206041
648.758485	0.206429
648.964250	0.206679
649.169996	0.206890
649.375724	0.207364
649.581434	0.207718
649.787126	0.207983
649.992800	0.208353
650.198455	0.208413
650.404092	0.208500
650.609711	0.208388
650.815311	0.208518
651.020894	0.208791
651.226458	0.208943
651.432004	0.209223
651.637532	0.209117
651.843041	0.209335
652.048532	0.209376
652.254006	0.209307
652.459460	0.209687
652.664897	0.210041
652.870315	0.210115
653.075716	0.210274
653.281097	0.210171
653.486461	0.210382
653.691807	0.210028
653.897134	0.210427
654.102443	0.210324
654.307734	0.210501
654.513006	0.210117
654.718261	0.210057
654.923497	0.210070
655.128715	0.210209
655.333915	0.210227
655.539096	0.210482
655.744259	0.210268
655.949404	0.210809
656.154531	0.210646
656.359640	0.210877
656.564730	0.210880
656.769802	0.211105
656.974856	0.211232
657.179892	0.211232
657.384909	0.211425
657.589908	0.211656
657.794889	0.211398
657.999852	0.211635
658.204797	0.212151
658.409723	0.212394
658.614631	0.212419
658.819521	0.212623
659.024393	0.212960
659.229246	0.212956
659.434081	0.212988
659.638898	0.213389
659.843697	0.213221
660.048478	0.213172
660.253240	0.213393
660.457984	0.213461
660.662710	0.213464
660.867417	0.213503
661.072107	0.213874
661.276778	0.214169
661.481431	0.214312
661.686066	0.214709
661.890682	0.215043
662.095281	0.215318
662.299861	0.215387
662.504422	0.215776
662.708966	0.216173
662.913491	0.216186
663.117999	0.216338
663.322488	0.216633
663.526958	0.216897
663.731411	0.217009
663.935845	0.217203
664.140261	0.217658
664.344659	0.217670
664.549038	0.217666
664.753400	0.217951
664.957743	0.218109
665.162068	0.218153
665.366375	0.218291
665.570663	0.218424
665.774933	0.218486
665.979185	0.218468
666.183419	0.218664
666.387635	0.218859
666.591832	0.218872
666.796011	0.219017
667.000172	0.219265
667.204315	0.219443
667.408439	0.219364
667.612545	0.219441
667.816634	0.219511
668.020703	0.219541
668.224755	0.219594
668.428788	0.219923
668.632803	0.220081
668.836800	0.220219
669.040779	0.220197
669.244739	0.220167
669.448681	0.220405
669.652605	0.220445
669.856511	0.220584
670.060399	0.220759
670.264268	0.220775
670.468119	0.220810
670.671952	0.220688
670.875767	0.220949
671.079563	0.221296
671.283341	0.221430
671.487101	0.221787
671.690843	0.222006
671.894567	0.222151
672.098272	0.222323
672.301959	0.222448
672.505628	0.222870
672.709278	0.222975
672.912911	0.223257
673.116525	0.223284
673.320121	0.223399
673.523699	0.223686
673.727258	0.223916
673.930799	0.224065
674.134322	0.224251
674.337827	0.224415
674.541314	0.224277
674.744782	0.224443
674.948232	0.224513
675.151664	0.224635
675.355078	0.224704
675.558474	0.224836
675.761851	0.225068
675.965210	0.225455
676.168551	0.225450
676.371873	0.225732
676.575178	0.226077
676.778464	0.226486
676.981732	0.226655
677.184981	0.226668
677.388213	0.226751
677.591426	0.226913
677.794621	0.226871
677.997798	0.227082
678.200956	0.227394
678.404097	0.227162
678.607219	0.227063
678.810323	0.227238
679.013408	0.227474
679.216476	0.227622
679.419525	0.227817
679.622556	0.227895
679.825569	0.227973
680.028563	0.228189
680.231540	0.228543
680.434498	0.228906
680.637438	0.229043
680.840359	0.229031
681.043263	0.229092
681.246148	0.229093
681.449015	0.229360
681.651864	0.229573
681.854694	0.229612
682.057506	0.229720
682.260301	0.230001
682.463076	0.230130
682.665834	0.230587
682.868573	0.231130
683.071295	0.231269
683.273998	0.231474
683.476682	0.231734
683.679349	0.231831
683.881997	0.231870
684.084627	0.231729
684.287239	0.231809
684.489833	0.231786
684.692408	0.231613
684.894965	0.231695
685.097504	0.231702
685.300025	0.231649
685.502527	0.231659
685.705012	0.231760
685.907478	0.231887
686.109925	0.232081
686.312355	0.232208
686.514766	0.232416
686.717159	0.232627
686.919534	0.232891
687.121891	0.232977
687.324230	0.233309
687.526550	0.233406
687.728852	0.233378
687.931136	0.233498
688.133401	0.233535
688.335649	0.233753
688.537878	0.233678
688.740089	0.233712
688.942281	0.233882
689.144456	0.233967
689.346612	0.234208
689.548750	0.234382
689.750870	0.234613
689.952971	0.234809
690.155055	0.234829
690.357120	0.234906
690.559167	0.235200
690.761195	0.235362
690.963206	0.235573
691.165198	0.235898
691.367172	0.236297
691.569128	0.236504
691.771065	0.236601
691.972984	0.236618
692.174885	0.237184
692.376768	0.237371
692.578633	0.237556
692.780479	0.237752
692.982308	0.237364
693.184118	0.237516
693.385909	0.237301
