sample name	sample
index	829
start time	 03-31-2021  04:19:41 PM


Wavelength (nm)	Absorbance
494.344910	NaN
494.563924	NaN
494.782919	NaN
495.001897	NaN
495.220856	NaN
495.439797	NaN
495.658719	NaN
495.877624	-0.009096
496.096510	-0.103178
496.315378	-0.184895
496.534227	-0.730578
496.753059	-2.009309
496.971872	NaN
497.190667	0.133270
497.409444	0.114592
497.628203	0.111362
497.846943	0.109321
498.065665	0.108566
498.284369	0.108613
498.503055	0.107883
498.721723	0.108089
498.940372	0.107502
499.159003	0.107042
499.377616	0.107637
499.596210	0.107622
499.814787	0.107861
500.033345	0.108611
500.251885	0.107511
500.470406	0.108766
500.688910	0.109791
500.907395	0.109701
501.125862	0.109990
501.344311	0.110533
501.562742	0.111026
501.781154	0.111580
501.999548	0.111929
502.217924	0.112145
502.436282	0.110644
502.654621	0.109538
502.872942	0.110007
503.091245	0.110784
503.309530	0.110456
503.527797	0.111732
503.746045	0.112123
503.964275	0.111437
504.182487	0.112186
504.400681	0.113123
504.618856	0.112708
504.837013	0.113300
505.055152	0.112391
505.273273	0.112487
505.491376	0.110952
505.709460	0.110176
505.927526	0.110667
506.145574	0.110839
506.363604	0.110177
506.581615	0.110696
506.799608	0.110282
507.017583	0.110730
507.235540	0.110398
507.453478	0.110285
507.671399	0.110382
507.889301	0.110022
508.107185	0.110046
508.325050	0.110282
508.542898	0.110496
508.760727	0.110538
508.978538	0.111268
509.196330	0.111977
509.414105	0.111006
509.631861	0.110897
509.849599	0.110181
510.067319	0.109903
510.285021	0.110329
510.502704	0.110337
510.720369	0.110182
510.938016	0.109605
511.155645	0.110220
511.373255	0.111522
511.590848	0.112287
511.808422	0.113172
512.025977	0.112972
512.243515	0.113236
512.461034	0.113547
512.678536	0.114096
512.896018	0.114153
513.113483	0.113316
513.330930	0.112484
513.548358	0.112434
513.765768	0.112242
513.983160	0.113104
514.200533	0.113314
514.417889	0.113997
514.635226	0.114569
514.852545	0.115063
515.069845	0.115816
515.287128	0.117218
515.504392	0.117441
515.721638	0.118219
515.938866	0.117843
516.156075	0.117330
516.373267	0.116899
516.590440	0.116480
516.807594	0.117133
517.024731	0.116606
517.241850	0.116842
517.458950	0.117792
517.676032	0.117219
517.893095	0.118120
518.110141	0.119212
518.327168	0.120111
518.544177	0.120457
518.761168	0.119410
518.978141	0.120287
519.195095	0.119770
519.412031	0.119728
519.628949	0.120442
519.845849	0.120890
520.062731	0.120945
520.279594	0.120225
520.496439	0.120002
520.713266	0.120751
520.930074	0.120143
521.146865	0.120038
521.363637	0.119532
521.580391	0.119442
521.797127	0.118300
522.013844	0.118318
522.230543	0.117747
522.447224	0.118083
522.663887	0.118408
522.880532	0.118953
523.097158	0.119990
523.313766	0.120563
523.530356	0.121337
523.746928	0.121931
523.963481	0.122120
524.180017	0.123250
524.396534	0.123507
524.613032	0.123607
524.829513	0.124352
525.045975	0.124001
525.262420	0.123934
525.478845	0.123950
525.695253	0.124673
525.911643	0.124964
526.128014	0.125615
526.344367	0.126422
526.560702	0.127183
526.777018	0.126837
526.993316	0.127873
527.209597	0.128296
527.425858	0.128195
527.642102	0.129038
527.858328	0.128960
528.074535	0.129084
528.290724	0.128700
528.506894	0.128928
528.723047	0.129984
528.939181	0.130215
529.155297	0.130054
529.371395	0.130905
529.587475	0.130727
529.803536	0.131423
530.019579	0.131915
530.235604	0.132328
530.451611	0.131604
530.667600	0.131032
530.883570	0.131298
531.099522	0.131931
531.315456	0.132207
531.531372	0.132418
531.747269	0.132522
531.963148	0.131846
532.179009	0.132718
532.394852	0.133723
532.610676	0.134537
532.826482	0.134550
533.042271	0.134790
533.258040	0.134710
533.473792	0.135337
533.689525	0.135780
533.905240	0.136694
534.120937	0.136763
534.336616	0.136964
534.552277	0.136651
534.767919	0.136953
534.983543	0.137471
535.199149	0.137327
535.414736	0.136789
535.630306	0.137449
535.845857	0.137489
536.061390	0.138034
536.276904	0.138171
536.492401	0.139333
536.707879	0.139237
536.923339	0.139654
537.138781	0.140167
537.354204	0.140633
537.569610	0.139965
537.784997	0.140317
538.000366	0.139820
538.215716	0.139946
538.431049	0.139274
538.646363	0.139916
538.861659	0.139842
539.076937	0.140232
539.292196	0.140772
539.507438	0.141531
539.722661	0.142329
539.937866	0.142631
540.153052	0.143439
540.368221	0.144192
540.583371	0.144378
540.798503	0.144802
541.013617	0.145868
541.228712	0.146239
541.443789	0.146432
541.658848	0.146133
541.873889	0.146887
542.088912	0.147008
542.303916	0.147129
542.518902	0.147493
542.733870	0.147831
542.948820	0.147608
543.163752	0.147700
543.378665	0.147865
543.593560	0.147738
543.808437	0.147700
544.023295	0.147954
544.238136	0.147857
544.452958	0.148419
544.667762	0.148285
544.882548	0.148400
545.097315	0.148622
545.312064	0.148982
545.526795	0.149734
545.741508	0.149712
545.956203	0.149812
546.170879	0.150325
546.385537	0.150081
546.600177	0.150472
546.814799	0.150779
547.029402	0.150571
547.243988	0.151020
547.458555	0.151002
547.673103	0.151540
547.887634	0.151625
548.102146	0.152116
548.316640	0.152252
548.531116	0.152174
548.745574	0.151935
548.960013	0.152196
549.174435	0.152258
549.388838	0.152579
549.603222	0.152544
549.817589	0.152761
550.031937	0.152706
550.246267	0.152724
550.460579	0.153416
550.674873	0.153691
550.889148	0.154596
551.103405	0.154665
551.317644	0.155249
551.531865	0.156152
551.746068	0.157017
551.960252	0.157463
552.174418	0.158326
552.388566	0.158000
552.602696	0.158119
552.816807	0.158106
553.030900	0.158409
553.244975	0.158339
553.459032	0.158181
553.673070	0.158343
553.887091	0.158567
554.101093	0.158718
554.315077	0.158841
554.529042	0.159536
554.742990	0.159983
554.956919	0.160200
555.170830	0.160583
555.384722	0.160894
555.598597	0.160493
555.812453	0.160421
556.026291	0.160568
556.240111	0.160953
556.453913	0.160929
556.667696	0.160807
556.881461	0.160760
557.095208	0.160940
557.308937	0.160972
557.522647	0.160963
557.736339	0.161216
557.950013	0.161062
558.163669	0.161733
558.377307	0.161697
558.590926	0.161819
558.804527	0.162002
559.018110	0.162027
559.231675	0.162138
559.445221	0.162720
559.658749	0.162992
559.872259	0.163427
560.085751	0.163249
560.299225	0.163889
560.512680	0.164090
560.726117	0.164396
560.939536	0.164647
561.152937	0.165209
561.366319	0.165279
561.579683	0.165540
561.793029	0.165856
562.006357	0.166111
562.219667	0.166225
562.432958	0.166435
562.646231	0.166791
562.859486	0.166902
563.072723	0.166376
563.285941	0.166910
563.499141	0.167081
563.712323	0.167129
563.925487	0.166987
564.138632	0.166936
564.351760	0.167705
564.564869	0.167777
564.777960	0.168321
564.991032	0.168609
565.204087	0.168372
565.417123	0.168246
565.630141	0.168199
565.843140	0.168869
566.056122	0.169377
566.269085	0.168912
566.482030	0.168991
566.694957	0.168963
566.907866	0.169533
567.120756	0.169679
567.333628	0.169820
567.546482	0.170175
567.759318	0.169879
567.972135	0.169512
568.184935	0.169786
568.397716	0.169840
568.610478	0.169934
568.823223	0.169624
569.035949	0.169721
569.248657	0.169864
569.461347	0.169867
569.674019	0.169908
569.886672	0.170331
570.099308	0.170115
570.311925	0.170419
570.524523	0.170459
570.737104	0.170824
570.949666	0.170740
571.162210	0.170678
571.374736	0.171006
571.587244	0.171391
571.799733	0.171611
572.012205	0.171764
572.224658	0.171862
572.437092	0.172108
572.649509	0.172328
572.861907	0.172812
573.074287	0.173394
573.286649	0.173514
573.498993	0.173471
573.711318	0.173228
573.923625	0.173913
574.135914	0.174102
574.348185	0.174135
574.560438	0.174041
574.772672	0.174533
574.984888	0.174802
575.197086	0.175117
575.409266	0.175595
575.621427	0.176142
575.833570	0.175990
576.045695	0.176056
576.257802	0.175833
576.469890	0.176291
576.681961	0.176135
576.894013	0.175947
577.106046	0.175751
577.318062	0.175721
577.530059	0.175718
577.742039	0.175603
577.954000	0.175697
578.165942	0.176095
578.377867	0.176063
578.589773	0.175907
578.801661	0.176313
579.013531	0.176387
579.225382	0.176581
579.437216	0.176439
579.649031	0.176925
579.860828	0.177281
580.072606	0.177371
580.284367	0.177840
580.496109	0.178469
580.707833	0.178508
580.919539	0.178806
581.131227	0.179362
581.342896	0.180066
581.554547	0.180114
581.766180	0.180080
581.977795	0.180490
582.189391	0.180663
582.400969	0.180537
582.612529	0.180664
582.824071	0.181023
583.035595	0.180882
583.247100	0.180821
583.458587	0.181066
583.670056	0.181270
583.881506	0.181031
584.092939	0.180881
584.304353	0.181100
584.515749	0.181079
584.727127	0.181056
584.938486	0.180987
585.149828	0.181125
585.361151	0.181475
585.572456	0.181595
585.783742	0.181934
585.995011	0.182202
586.206261	0.182141
586.417493	0.182337
586.628706	0.182158
586.839902	0.182571
587.051079	0.182431
587.262238	0.181999
587.473379	0.182155
587.684502	0.182594
587.895606	0.182356
588.106692	0.182790
588.317760	0.183162
588.528810	0.183222
588.739841	0.183334
588.950855	0.183545
589.161850	0.183798
589.372827	0.183864
589.583785	0.183714
589.794726	0.183964
590.005648	0.184118
590.216552	0.184397
590.427437	0.184778
590.638305	0.184797
590.849154	0.184915
591.059985	0.185292
591.270798	0.185596
591.481592	0.185783
591.692369	0.186107
591.903127	0.186172
592.113867	0.185943
592.324588	0.185983
592.535292	0.186277
592.745977	0.186840
592.956644	0.186751
593.167293	0.186946
593.377923	0.187372
593.588536	0.187762
593.799130	0.187649
594.009706	0.187669
594.220263	0.188230
594.430803	0.188463
594.641324	0.188661
594.851827	0.189073
595.062312	0.189212
595.272778	0.189132
595.483227	0.189183
595.693657	0.189638
595.904069	0.190327
596.114462	0.190185
596.324838	0.190298
596.535195	0.190317
596.745534	0.190378
596.955855	0.190503
597.166157	0.190732
597.376441	0.190832
597.586707	0.191168
597.796955	0.191463
598.007185	0.191675
598.217396	0.191643
598.427589	0.192068
598.637764	0.192221
598.847921	0.192465
599.058060	0.192510
599.268180	0.192305
599.478282	0.191956
599.688366	0.191653
599.898431	0.191925
600.108479	0.191827
600.318508	0.191786
600.528519	0.191978
600.738511	0.191980
600.948486	0.191991
601.158442	0.192199
601.368380	0.192511
601.578300	0.192602
601.788202	0.192770
601.998085	0.193305
602.207950	0.193245
602.417797	0.193333
602.627626	0.193253
602.837436	0.193681
603.047228	0.194033
603.257002	0.194278
603.466758	0.194232
603.676496	0.194331
603.886215	0.194217
604.095916	0.194645
604.305599	0.194622
604.515264	0.194856
604.724910	0.194648
604.934538	0.194365
605.144148	0.194416
605.353740	0.194861
605.563314	0.194600
605.772869	0.194640
605.982406	0.194280
606.191925	0.194545
606.401425	0.194799
606.610908	0.194973
606.820372	0.195372
607.029818	0.195871
607.239246	0.195972
607.448655	0.196589
607.658047	0.196966
607.867420	0.197038
608.076775	0.197342
608.286111	0.197337
608.495430	0.197570
608.704730	0.197776
608.914012	0.197452
609.123275	0.197588
609.332521	0.197541
609.541748	0.197625
609.750957	0.197688
609.960148	0.197594
610.169321	0.197762
610.378475	0.198088
610.587611	0.198429
610.796729	0.198770
611.005829	0.198759
611.214910	0.198885
611.423974	0.199232
611.633019	0.199545
611.842045	0.199547
612.051054	0.199991
612.260044	0.200023
612.469017	0.200224
612.677970	0.200242
612.886906	0.200594
613.095824	0.200553
613.304723	0.200603
613.513604	0.200866
613.722467	0.200949
613.931311	0.200863
614.140138	0.201201
614.348946	0.201066
614.557736	0.201165
614.766507	0.201127
614.975261	0.201324
615.183996	0.201309
615.392713	0.201382
615.601412	0.201662
615.810092	0.201708
616.018754	0.201689
616.227399	0.201888
616.436024	0.202123
616.644632	0.202421
616.853222	0.202663
617.061793	0.202585
617.270346	0.202803
617.478880	0.203253
617.687397	0.203556
617.895895	0.203653
618.104375	0.203873
618.312837	0.203721
618.521281	0.203898
618.729706	0.204354
618.938113	0.204637
619.146502	0.204947
619.354873	0.204939
619.563226	0.205134
619.771560	0.205353
619.979876	0.205323
620.188174	0.205542
620.396453	0.205787
620.604715	0.205567
620.812958	0.205772
621.021183	0.205907
621.229390	0.206111
621.437578	0.206136
621.645748	0.206334
621.853900	0.206576
622.062034	0.206935
622.270150	0.206867
622.478247	0.207003
622.686326	0.207106
622.894387	0.207147
623.102430	0.207426
623.310454	0.207426
623.518461	0.207412
623.726449	0.207379
623.934418	0.207389
624.142370	0.207562
624.350303	0.208017
624.558218	0.207992
624.766115	0.207967
624.973994	0.207819
625.181855	0.207893
625.389697	0.207910
625.597521	0.208006
625.805327	0.207926
626.013114	0.207848
626.220883	0.207732
626.428634	0.208065
626.636367	0.208246
626.844082	0.208202
627.051778	0.208511
627.259457	0.208700
627.467117	0.209024
627.674758	0.209338
627.882382	0.209676
628.089987	0.209641
628.297574	0.210147
628.505143	0.210300
628.712694	0.210747
628.920226	0.211051
629.127740	0.211071
629.335236	0.211323
629.542714	0.211520
629.750174	0.211705
629.957615	0.211685
630.165038	0.211404
630.372443	0.211639
630.579829	0.211691
630.787198	0.211787
630.994548	0.211942
631.201880	0.212007
631.409194	0.212301
631.616489	0.212512
631.823766	0.213154
632.031025	0.213507
632.238266	0.213523
632.445489	0.213759
632.652693	0.213982
632.859879	0.214350
633.067047	0.214574
633.274197	0.214581
633.481329	0.214410
633.688442	0.214345
633.895537	0.214229
634.102614	0.214638
634.309672	0.214795
634.516713	0.214778
634.723735	0.214942
634.930739	0.215005
635.137724	0.215058
635.344692	0.215393
635.551641	0.215473
635.758572	0.215527
635.965485	0.215440
636.172379	0.215494
636.379256	0.215706
636.586114	0.215663
636.792954	0.215942
636.999775	0.216322
637.206579	0.216341
637.413364	0.216684
637.620131	0.216824
637.826880	0.217043
638.033610	0.217295
638.240323	0.217316
638.447017	0.217424
638.653692	0.217336
638.860350	0.217139
639.066990	0.217243
639.273611	0.217292
639.480214	0.217694
639.686798	0.217770
639.893365	0.217767
640.099913	0.217998
640.306443	0.218415
640.512955	0.218737
640.719449	0.219206
640.925924	0.219609
641.132381	0.219795
641.338820	0.219941
641.545241	0.220432
641.751644	0.220499
641.958028	0.220786
642.164394	0.220891
642.370742	0.221108
642.577071	0.221340
642.783383	0.221290
642.989676	0.221472
643.195951	0.221701
643.402207	0.221652
643.608446	0.222036
643.814666	0.222250
644.020868	0.222548
644.227052	0.222540
644.433218	0.222641
644.639365	0.222879
644.845494	0.223047
645.051605	0.223310
645.257698	0.223609
645.463772	0.223916
645.669828	0.224258
645.875866	0.224216
646.081886	0.224320
646.287888	0.224606
646.493871	0.225025
646.699836	0.225215
646.905783	0.225273
647.111712	0.225101
647.317622	0.225038
647.523514	0.224868
647.729388	0.225183
647.935244	0.225336
648.141082	0.225410
648.346901	0.225269
648.552702	0.225337
648.758485	0.225427
648.964250	0.225544
649.169996	0.225767
649.375724	0.225813
649.581434	0.225913
649.787126	0.226084
649.992800	0.226101
650.198455	0.226420
650.404092	0.226291
650.609711	0.226488
650.815311	0.226632
651.020894	0.226968
651.226458	0.227162
651.432004	0.227350
651.637532	0.227532
651.843041	0.227620
652.048532	0.227953
652.254006	0.228497
652.459460	0.228643
652.664897	0.228932
652.870315	0.228930
653.075716	0.229069
653.281097	0.229146
653.486461	0.229398
653.691807	0.230017
653.897134	0.229974
654.102443	0.230155
654.307734	0.230368
654.513006	0.230780
654.718261	0.231026
654.923497	0.231363
655.128715	0.231875
655.333915	0.232033
655.539096	0.231793
655.744259	0.232363
655.949404	0.232729
656.154531	0.232616
656.359640	0.232686
656.564730	0.232878
656.769802	0.233002
656.974856	0.233018
657.179892	0.233326
657.384909	0.233841
657.589908	0.233883
657.794889	0.233697
657.999852	0.234219
658.204797	0.234598
658.409723	0.234865
658.614631	0.235244
658.819521	0.235317
659.024393	0.235586
659.229246	0.235712
659.434081	0.235571
659.638898	0.235962
659.843697	0.235954
660.048478	0.236068
660.253240	0.236386
660.457984	0.236275
660.662710	0.236285
660.867417	0.236467
661.072107	0.236328
661.276778	0.236622
661.481431	0.236621
661.686066	0.236745
661.890682	0.236739
662.095281	0.236501
662.299861	0.236701
662.504422	0.236875
662.708966	0.236618
662.913491	0.237042
663.117999	0.237358
663.322488	0.237563
663.526958	0.238013
663.731411	0.238009
663.935845	0.238320
664.140261	0.238317
664.344659	0.238628
664.549038	0.238990
664.753400	0.239263
664.957743	0.239450
665.162068	0.239635
665.366375	0.239599
665.570663	0.240073
665.774933	0.240153
665.979185	0.240525
666.183419	0.240891
666.387635	0.241166
666.591832	0.241047
666.796011	0.240972
667.000172	0.241209
667.204315	0.241463
667.408439	0.241690
667.612545	0.242125
667.816634	0.242248
668.020703	0.242268
668.224755	0.242482
668.428788	0.242908
668.632803	0.243375
668.836800	0.243811
669.040779	0.244001
669.244739	0.244168
669.448681	0.244288
669.652605	0.244737
669.856511	0.244901
670.060399	0.245050
670.264268	0.245234
670.468119	0.245454
670.671952	0.245352
670.875767	0.245649
671.079563	0.245782
671.283341	0.245883
671.487101	0.246151
671.690843	0.246546
671.894567	0.246908
672.098272	0.247142
672.301959	0.247158
672.505628	0.247913
672.709278	0.248262
672.912911	0.248459
673.116525	0.248476
673.320121	0.248679
673.523699	0.248996
673.727258	0.249021
673.930799	0.249040
674.134322	0.249189
674.337827	0.248872
674.541314	0.248790
674.744782	0.248995
674.948232	0.249132
675.151664	0.249392
675.355078	0.249358
675.558474	0.249635
675.761851	0.249839
675.965210	0.250021
676.168551	0.250247
676.371873	0.250543
676.575178	0.250702
676.778464	0.251245
676.981732	0.251168
677.184981	0.251272
677.388213	0.251518
677.591426	0.251988
677.794621	0.252396
677.997798	0.252898
678.200956	0.253032
678.404097	0.253375
678.607219	0.253262
678.810323	0.253505
679.013408	0.253851
679.216476	0.254054
679.419525	0.253924
679.622556	0.254238
679.825569	0.254537
680.028563	0.254909
680.231540	0.255207
680.434498	0.255637
680.637438	0.255979
680.840359	0.256030
681.043263	0.256119
681.246148	0.256451
681.449015	0.256444
681.651864	0.256164
681.854694	0.256452
682.057506	0.256384
682.260301	0.256521
682.463076	0.256487
682.665834	0.256678
682.868573	0.257008
683.071295	0.257316
683.273998	0.257615
683.476682	0.257945
683.679349	0.258087
683.881997	0.258306
684.084627	0.258597
684.287239	0.259019
684.489833	0.259404
684.692408	0.259525
684.894965	0.259612
685.097504	0.259733
685.300025	0.259848
685.502527	0.259801
685.705012	0.260043
685.907478	0.260004
686.109925	0.260072
686.312355	0.260246
686.514766	0.260347
686.717159	0.260368
686.919534	0.260496
687.121891	0.260678
687.324230	0.261222
687.526550	0.261331
687.728852	0.261519
687.931136	0.261468
688.133401	0.261550
688.335649	0.261744
688.537878	0.262074
688.740089	0.262339
688.942281	0.262954
689.144456	0.262917
689.346612	0.263191
689.548750	0.263636
689.750870	0.263936
689.952971	0.264135
690.155055	0.264307
690.357120	0.264473
690.559167	0.264460
690.761195	0.264035
690.963206	0.264256
691.165198	0.264270
691.367172	0.264310
691.569128	0.264369
691.771065	0.264313
691.972984	0.264444
692.174885	0.264747
692.376768	0.265023
692.578633	0.265402
692.780479	0.265471
692.982308	0.265580
693.184118	0.265621
693.385909	0.265996
693.587683	0.266370
693.789438	0.266432
