sample name	sample
index	1027
start time	 04-19-2021  12:28:15 PM


Wavelength (nm)	Absorbance
494.344910	0.055564
494.563924	0.055564
494.782919	0.055564
495.001897	-0.034010
495.220856	0.009831
495.439797	0.000808
495.658719	-0.008275
495.877624	-0.014378
496.096510	-0.012554
496.315378	0.005882
496.534227	0.010032
496.753059	0.009355
496.971872	0.013421
497.190667	0.052266
497.409444	0.068120
497.628203	0.072342
497.846943	0.076124
498.065665	0.078363
498.284369	0.076688
498.503055	0.076703
498.721723	0.078050
498.940372	0.078556
499.159003	0.078292
499.377616	0.078918
499.596210	0.079375
499.814787	0.078141
500.033345	0.076444
500.251885	0.077941
500.470406	0.078903
500.688910	0.079033
500.907395	0.078611
501.125862	0.078327
501.344311	0.077327
501.562742	0.077449
501.781154	0.077751
501.999548	0.079404
502.217924	0.078702
502.436282	0.078744
502.654621	0.077796
502.872942	0.079143
503.091245	0.079880
503.309530	0.079937
503.527797	0.079411
503.746045	0.079564
503.964275	0.079836
504.182487	0.080774
504.400681	0.080618
504.618856	0.081748
504.837013	0.080844
505.055152	0.080053
505.273273	0.080754
505.491376	0.081676
505.709460	0.081922
505.927526	0.081911
506.145574	0.080745
506.363604	0.080463
506.581615	0.079856
506.799608	0.079249
507.017583	0.079975
507.235540	0.079953
507.453478	0.079338
507.671399	0.079571
507.889301	0.079386
508.107185	0.079187
508.325050	0.079307
508.542898	0.079707
508.760727	0.080518
508.978538	0.081310
509.196330	0.081393
509.414105	0.082105
509.631861	0.082558
509.849599	0.082147
510.067319	0.083908
510.285021	0.084265
510.502704	0.085171
510.720369	0.084834
510.938016	0.084386
511.155645	0.084367
511.373255	0.084779
511.590848	0.084309
511.808422	0.084700
512.025977	0.083944
512.243515	0.083394
512.461034	0.082872
512.678536	0.083476
512.896018	0.083709
513.113483	0.084089
513.330930	0.083156
513.548358	0.082841
513.765768	0.082932
513.983160	0.082840
514.200533	0.083385
514.417889	0.083427
514.635226	0.083450
514.852545	0.083078
515.069845	0.083004
515.287128	0.083582
515.504392	0.084111
515.721638	0.084316
515.938866	0.084813
516.156075	0.084517
516.373267	0.083967
516.590440	0.083955
516.807594	0.083882
517.024731	0.084193
517.241850	0.084853
517.458950	0.085005
517.676032	0.084991
517.893095	0.084436
518.110141	0.084553
518.327168	0.085223
518.544177	0.085248
518.761168	0.085413
518.978141	0.085044
519.195095	0.084291
519.412031	0.084383
519.628949	0.084305
519.845849	0.084840
520.062731	0.085323
520.279594	0.085248
520.496439	0.086014
520.713266	0.086048
520.930074	0.085959
521.146865	0.086583
521.363637	0.086893
521.580391	0.087855
521.797127	0.087977
522.013844	0.087884
522.230543	0.088154
522.447224	0.088575
522.663887	0.088533
522.880532	0.088895
523.097158	0.089517
523.313766	0.089950
523.530356	0.089037
523.746928	0.089228
523.963481	0.089559
524.180017	0.089293
524.396534	0.089203
524.613032	0.089228
524.829513	0.090064
525.045975	0.089454
525.262420	0.089024
525.478845	0.089426
525.695253	0.089402
525.911643	0.089631
526.128014	0.090438
526.344367	0.090115
526.560702	0.090885
526.777018	0.090518
526.993316	0.091052
527.209597	0.091574
527.425858	0.092111
527.642102	0.092126
527.858328	0.092461
528.074535	0.092541
528.290724	0.092674
528.506894	0.092830
528.723047	0.092665
528.939181	0.092694
529.155297	0.093076
529.371395	0.093773
529.587475	0.094382
529.803536	0.094055
530.019579	0.094305
530.235604	0.094482
530.451611	0.094866
530.667600	0.095395
530.883570	0.095777
531.099522	0.095930
531.315456	0.095501
531.531372	0.095500
531.747269	0.096440
531.963148	0.096675
532.179009	0.097164
532.394852	0.097311
532.610676	0.097085
532.826482	0.097039
533.042271	0.097118
533.258040	0.096975
533.473792	0.097359
533.689525	0.096999
533.905240	0.096832
534.120937	0.097067
534.336616	0.096918
534.552277	0.097290
534.767919	0.097456
534.983543	0.097145
535.199149	0.097968
535.414736	0.098047
535.630306	0.098372
535.845857	0.098484
536.061390	0.098044
536.276904	0.097919
536.492401	0.098279
536.707879	0.097944
536.923339	0.098428
537.138781	0.098288
537.354204	0.098203
537.569610	0.098163
537.784997	0.098555
538.000366	0.099183
538.215716	0.099851
538.431049	0.100373
538.646363	0.101334
538.861659	0.101425
539.076937	0.101900
539.292196	0.102295
539.507438	0.102698
539.722661	0.102462
539.937866	0.102391
540.153052	0.102739
540.368221	0.102391
540.583371	0.102361
540.798503	0.102280
541.013617	0.102435
541.228712	0.102767
541.443789	0.102620
541.658848	0.102841
541.873889	0.102816
542.088912	0.102790
542.303916	0.103080
542.518902	0.103252
542.733870	0.103932
542.948820	0.104102
543.163752	0.103638
543.378665	0.104016
543.593560	0.104197
543.808437	0.104727
544.023295	0.104689
544.238136	0.104697
544.452958	0.104251
544.667762	0.104479
544.882548	0.104309
545.097315	0.104843
545.312064	0.104854
545.526795	0.105630
545.741508	0.105616
545.956203	0.105862
546.170879	0.106392
546.385537	0.107078
546.600177	0.106757
546.814799	0.106619
547.029402	0.106525
547.243988	0.106656
547.458555	0.106119
547.673103	0.106232
547.887634	0.106299
548.102146	0.106161
548.316640	0.106162
548.531116	0.105851
548.745574	0.106200
548.960013	0.106616
549.174435	0.106843
549.388838	0.107088
549.603222	0.107406
549.817589	0.107207
550.031937	0.107333
550.246267	0.107258
550.460579	0.107722
550.674873	0.107748
550.889148	0.107361
551.103405	0.107293
551.317644	0.107460
551.531865	0.107375
551.746068	0.107672
551.960252	0.107711
552.174418	0.107472
552.388566	0.107604
552.602696	0.107627
552.816807	0.108235
553.030900	0.108425
553.244975	0.108595
553.459032	0.108568
553.673070	0.108521
553.887091	0.108729
554.101093	0.109441
554.315077	0.109537
554.529042	0.109830
554.742990	0.109744
554.956919	0.109744
555.170830	0.109689
555.384722	0.109962
555.598597	0.109947
555.812453	0.109938
556.026291	0.110355
556.240111	0.110441
556.453913	0.110611
556.667696	0.110625
556.881461	0.110647
557.095208	0.110511
557.308937	0.110330
557.522647	0.110497
557.736339	0.110302
557.950013	0.109948
558.163669	0.110058
558.377307	0.110114
558.590926	0.110214
558.804527	0.110426
559.018110	0.110644
559.231675	0.110715
559.445221	0.111106
559.658749	0.111150
559.872259	0.110899
560.085751	0.110758
560.299225	0.110591
560.512680	0.110854
560.726117	0.110346
560.939536	0.110565
561.152937	0.110968
561.366319	0.111285
561.579683	0.111334
561.793029	0.111766
562.006357	0.111949
562.219667	0.111904
562.432958	0.111497
562.646231	0.112003
562.859486	0.111646
563.072723	0.111620
563.285941	0.110941
563.499141	0.111341
563.712323	0.111100
563.925487	0.110815
564.138632	0.110741
564.351760	0.110888
564.564869	0.110661
564.777960	0.110970
564.991032	0.111041
565.204087	0.111299
565.417123	0.111189
565.630141	0.111403
565.843140	0.111725
566.056122	0.112077
566.269085	0.112656
566.482030	0.113242
566.694957	0.113451
566.907866	0.113407
567.120756	0.113341
567.333628	0.113246
567.546482	0.113157
567.759318	0.113386
567.972135	0.113128
568.184935	0.112552
568.397716	0.112404
568.610478	0.112306
568.823223	0.111950
569.035949	0.111822
569.248657	0.112090
569.461347	0.112210
569.674019	0.112082
569.886672	0.112058
570.099308	0.112005
570.311925	0.111854
570.524523	0.111616
570.737104	0.111888
570.949666	0.112386
571.162210	0.112073
571.374736	0.112097
571.587244	0.112081
571.799733	0.112341
572.012205	0.112553
572.224658	0.112510
572.437092	0.112521
572.649509	0.112142
572.861907	0.111886
573.074287	0.111981
573.286649	0.111759
573.498993	0.111395
573.711318	0.111109
573.923625	0.111221
574.135914	0.111425
574.348185	0.111773
574.560438	0.112289
574.772672	0.112201
574.984888	0.112495
575.197086	0.112665
575.409266	0.113205
575.621427	0.113514
575.833570	0.113754
576.045695	0.113542
576.257802	0.113600
576.469890	0.113572
576.681961	0.114062
576.894013	0.113767
577.106046	0.114140
577.318062	0.114074
577.530059	0.114075
577.742039	0.113921
577.954000	0.114475
578.165942	0.114524
578.377867	0.114861
578.589773	0.114467
578.801661	0.114674
579.013531	0.114256
579.225382	0.114299
579.437216	0.114167
579.649031	0.114121
579.860828	0.113937
580.072606	0.113973
580.284367	0.113678
580.496109	0.114038
580.707833	0.113777
580.919539	0.113969
581.131227	0.113997
581.342896	0.114391
581.554547	0.114426
581.766180	0.114410
581.977795	0.114287
582.189391	0.114334
582.400969	0.114336
582.612529	0.114814
582.824071	0.114773
583.035595	0.114524
583.247100	0.114462
583.458587	0.114703
583.670056	0.115184
583.881506	0.115308
584.092939	0.115375
584.304353	0.115409
584.515749	0.115669
584.727127	0.115778
584.938486	0.116105
585.149828	0.116053
585.361151	0.115998
585.572456	0.115753
585.783742	0.115797
585.995011	0.115891
586.206261	0.116033
586.417493	0.115800
586.628706	0.115868
586.839902	0.115786
587.051079	0.116143
587.262238	0.116162
587.473379	0.116123
587.684502	0.116379
587.895606	0.116338
588.106692	0.116537
588.317760	0.117183
588.528810	0.117239
588.739841	0.117653
588.950855	0.117629
589.161850	0.117815
589.372827	0.117700
589.583785	0.117697
589.794726	0.117845
590.005648	0.117852
590.216552	0.117416
590.427437	0.117597
590.638305	0.117572
590.849154	0.117650
591.059985	0.117539
591.270798	0.118038
591.481592	0.118113
591.692369	0.118270
591.903127	0.117963
592.113867	0.118168
592.324588	0.118445
592.535292	0.118795
592.745977	0.118977
592.956644	0.119558
593.167293	0.119338
593.377923	0.119521
593.588536	0.119577
593.799130	0.119956
594.009706	0.120085
594.220263	0.119752
594.430803	0.119863
594.641324	0.119724
594.851827	0.119687
595.062312	0.119767
595.272778	0.119667
595.483227	0.119719
595.693657	0.119789
595.904069	0.119476
596.114462	0.119888
596.324838	0.119617
596.535195	0.119655
596.745534	0.119896
596.955855	0.120267
597.166157	0.120434
597.376441	0.120528
597.586707	0.120567
597.796955	0.120783
598.007185	0.120777
598.217396	0.121042
598.427589	0.121410
598.637764	0.121182
598.847921	0.121196
599.058060	0.121058
599.268180	0.121159
599.478282	0.121188
599.688366	0.121311
599.898431	0.121525
600.108479	0.121351
600.318508	0.121401
600.528519	0.121656
600.738511	0.121397
600.948486	0.121416
601.158442	0.121519
601.368380	0.121584
601.578300	0.121709
601.788202	0.121498
601.998085	0.121502
602.207950	0.121256
602.417797	0.121028
602.627626	0.121218
602.837436	0.121592
603.047228	0.121608
603.257002	0.121938
603.466758	0.122075
603.676496	0.122524
603.886215	0.122840
604.095916	0.122978
604.305599	0.122714
604.515264	0.122899
604.724910	0.122864
604.934538	0.122815
605.144148	0.122796
605.353740	0.122763
605.563314	0.122390
605.772869	0.122403
605.982406	0.122526
606.191925	0.123182
606.401425	0.122954
606.610908	0.122546
606.820372	0.122372
607.029818	0.122167
607.239246	0.122131
607.448655	0.122253
607.658047	0.122104
607.867420	0.122128
608.076775	0.121838
608.286111	0.121760
608.495430	0.122085
608.704730	0.122458
608.914012	0.122718
609.123275	0.122820
609.332521	0.123034
609.541748	0.123123
609.750957	0.123097
609.960148	0.123164
610.169321	0.123408
610.378475	0.123652
610.587611	0.123714
610.796729	0.123416
611.005829	0.123130
611.214910	0.122943
611.423974	0.123056
611.633019	0.123034
611.842045	0.123105
612.051054	0.123290
612.260044	0.123177
612.469017	0.123298
612.677970	0.123513
612.886906	0.123662
613.095824	0.123708
613.304723	0.123889
613.513604	0.124099
613.722467	0.124054
613.931311	0.123905
614.140138	0.124066
614.348946	0.123897
614.557736	0.123959
614.766507	0.124237
614.975261	0.124356
615.183996	0.124469
615.392713	0.124610
615.601412	0.124709
615.810092	0.124991
616.018754	0.125204
616.227399	0.125128
616.436024	0.125244
616.644632	0.125474
616.853222	0.125560
617.061793	0.125231
617.270346	0.125142
617.478880	0.125454
617.687397	0.125538
617.895895	0.125688
618.104375	0.126159
618.312837	0.126325
618.521281	0.126389
618.729706	0.126467
618.938113	0.126801
619.146502	0.127041
619.354873	0.126975
619.563226	0.126667
619.771560	0.126599
619.979876	0.126282
620.188174	0.126286
620.396453	0.126122
620.604715	0.126118
620.812958	0.126346
621.021183	0.126143
621.229390	0.126316
621.437578	0.126815
621.645748	0.126777
621.853900	0.127003
622.062034	0.127264
622.270150	0.127664
622.478247	0.127973
622.686326	0.127805
622.894387	0.127955
623.102430	0.128136
623.310454	0.128007
623.518461	0.128065
623.726449	0.128207
623.934418	0.128126
624.142370	0.127784
624.350303	0.127699
624.558218	0.127827
624.766115	0.127849
624.973994	0.127522
625.181855	0.127462
625.389697	0.127315
625.597521	0.127347
625.805327	0.127173
626.013114	0.127368
626.220883	0.127355
626.428634	0.127384
626.636367	0.127504
626.844082	0.127736
627.051778	0.127941
627.259457	0.128278
627.467117	0.128611
627.674758	0.128860
627.882382	0.128852
628.089987	0.128946
628.297574	0.129128
628.505143	0.129256
628.712694	0.129469
628.920226	0.129508
629.127740	0.129659
629.335236	0.129488
629.542714	0.129355
629.750174	0.129475
629.957615	0.129726
630.165038	0.129944
630.372443	0.130198
630.579829	0.130110
630.787198	0.130316
630.994548	0.130191
631.201880	0.130118
631.409194	0.130465
631.616489	0.130709
631.823766	0.130881
632.031025	0.131047
632.238266	0.131200
632.445489	0.131217
632.652693	0.131309
632.859879	0.131636
633.067047	0.131935
633.274197	0.131972
633.481329	0.131937
633.688442	0.131870
633.895537	0.131799
634.102614	0.131589
634.309672	0.131768
634.516713	0.131875
634.723735	0.131730
634.930739	0.131718
635.137724	0.131827
635.344692	0.131835
635.551641	0.131927
635.758572	0.132015
635.965485	0.131996
636.172379	0.132148
636.379256	0.132001
636.586114	0.131964
636.792954	0.132342
636.999775	0.132337
637.206579	0.132588
637.413364	0.132636
637.620131	0.132578
637.826880	0.132998
638.033610	0.133061
638.240323	0.133263
638.447017	0.133796
638.653692	0.133621
638.860350	0.133674
639.066990	0.133638
639.273611	0.133857
639.480214	0.133898
639.686798	0.133928
639.893365	0.134051
640.099913	0.134312
640.306443	0.134257
640.512955	0.134061
640.719449	0.134016
640.925924	0.134117
641.132381	0.134075
641.338820	0.134365
641.545241	0.134210
641.751644	0.134235
641.958028	0.134029
642.164394	0.133881
642.370742	0.134360
642.577071	0.134721
642.783383	0.134928
642.989676	0.135080
643.195951	0.134994
643.402207	0.135280
643.608446	0.135313
643.814666	0.135393
644.020868	0.135633
644.227052	0.135509
644.433218	0.135432
644.639365	0.135138
644.845494	0.135194
645.051605	0.135255
645.257698	0.135284
645.463772	0.135495
645.669828	0.135655
645.875866	0.135542
646.081886	0.135558
646.287888	0.135736
646.493871	0.136263
646.699836	0.136252
646.905783	0.136438
647.111712	0.136571
647.317622	0.136507
647.523514	0.136632
647.729388	0.136803
647.935244	0.136936
648.141082	0.137238
648.346901	0.137201
648.552702	0.137379
648.758485	0.137653
648.964250	0.137780
649.169996	0.137996
649.375724	0.138182
649.581434	0.138542
649.787126	0.138684
649.992800	0.138441
650.198455	0.138316
650.404092	0.138296
650.609711	0.138068
650.815311	0.138186
651.020894	0.138133
651.226458	0.138264
651.432004	0.137937
651.637532	0.137965
651.843041	0.138266
652.048532	0.138387
652.254006	0.138591
652.459460	0.138674
652.664897	0.138799
652.870315	0.138893
653.075716	0.138851
653.281097	0.139184
653.486461	0.139299
653.691807	0.139207
653.897134	0.139313
654.102443	0.139228
654.307734	0.139316
654.513006	0.139346
654.718261	0.139487
654.923497	0.139658
655.128715	0.139843
655.333915	0.140237
655.539096	0.140259
655.744259	0.140598
655.949404	0.140790
656.154531	0.140904
656.359640	0.140983
656.564730	0.141016
656.769802	0.140938
656.974856	0.140954
657.179892	0.140744
657.384909	0.141060
657.589908	0.140964
657.794889	0.141221
657.999852	0.141309
658.204797	0.141496
658.409723	0.141533
658.614631	0.141776
658.819521	0.141962
659.024393	0.142184
659.229246	0.142336
659.434081	0.142430
659.638898	0.142405
659.843697	0.142642
660.048478	0.142634
660.253240	0.142844
660.457984	0.142991
660.662710	0.143207
660.867417	0.143358
661.072107	0.143408
661.276778	0.143573
661.481431	0.143513
661.686066	0.143522
661.890682	0.143411
662.095281	0.143605
662.299861	0.143487
662.504422	0.143327
662.708966	0.143419
662.913491	0.143360
663.117999	0.143527
663.322488	0.143641
663.526958	0.143895
663.731411	0.144149
663.935845	0.144111
664.140261	0.144390
664.344659	0.144487
664.549038	0.144682
664.753400	0.144795
664.957743	0.144762
665.162068	0.145087
665.366375	0.144961
665.570663	0.145042
665.774933	0.145015
665.979185	0.145139
666.183419	0.145313
666.387635	0.145387
666.591832	0.145515
666.796011	0.145770
667.000172	0.145770
667.204315	0.145942
667.408439	0.146279
667.612545	0.146423
667.816634	0.146493
668.020703	0.146579
668.224755	0.146720
668.428788	0.146766
668.632803	0.146704
668.836800	0.146743
669.040779	0.146702
669.244739	0.146562
669.448681	0.146806
669.652605	0.146966
669.856511	0.146872
670.060399	0.146755
670.264268	0.146833
670.468119	0.146714
670.671952	0.146784
670.875767	0.147077
671.079563	0.147122
671.283341	0.147143
671.487101	0.147111
671.690843	0.147380
671.894567	0.147445
672.098272	0.147466
672.301959	0.147956
672.505628	0.148113
672.709278	0.148137
672.912911	0.148188
673.116525	0.148273
673.320121	0.148426
673.523699	0.148267
673.727258	0.148423
673.930799	0.148686
674.134322	0.148616
674.337827	0.148748
674.541314	0.148836
674.744782	0.149082
674.948232	0.149284
675.151664	0.149318
675.355078	0.149699
675.558474	0.149655
675.761851	0.149765
675.965210	0.149772
676.168551	0.149766
676.371873	0.149963
676.575178	0.150057
676.778464	0.150185
676.981732	0.150202
677.184981	0.150096
677.388213	0.150347
677.591426	0.150318
677.794621	0.150632
677.997798	0.150494
678.200956	0.150455
678.404097	0.150411
678.607219	0.150426
678.810323	0.150576
679.013408	0.150742
679.216476	0.150617
679.419525	0.150647
679.622556	0.150587
679.825569	0.151022
680.028563	0.151170
680.231540	0.151165
680.434498	0.151235
680.637438	0.151418
680.840359	0.151539
681.043263	0.151646
681.246148	0.151736
681.449015	0.151681
681.651864	0.151590
681.854694	0.151565
682.057506	0.151841
682.260301	0.151911
682.463076	0.151696
682.665834	0.151663
682.868573	0.151993
683.071295	0.152157
683.273998	0.152436
683.476682	0.152581
683.679349	0.152733
683.881997	0.152843
684.084627	0.152990
684.287239	0.153282
684.489833	0.153358
684.692408	0.153376
684.894965	0.153534
685.097504	0.153553
685.300025	0.153560
685.502527	0.153732
685.705012	0.153583
685.907478	0.153440
686.109925	0.153491
686.312355	0.153747
686.514766	0.153968
686.717159	0.153986
686.919534	0.154030
687.121891	0.154162
687.324230	0.154169
687.526550	0.154546
687.728852	0.154712
687.931136	0.154810
688.133401	0.154571
688.335649	0.154549
688.537878	0.154732
688.740089	0.154818
688.942281	0.154641
689.144456	0.154514
689.346612	0.154378
689.548750	0.154333
689.750870	0.154404
689.952971	0.154705
690.155055	0.154696
690.357120	0.154522
690.559167	0.154563
690.761195	0.154793
690.963206	0.155277
691.165198	0.155358
691.367172	0.155534
691.569128	0.155696
691.771065	0.155802
691.972984	0.155728
692.174885	0.155915
692.376768	0.155857
692.578633	0.155897
692.780479	0.155644
692.982308	0.155584
693.184118	0.155676
693.385909	0.155662
