sample name	sample
index	903
start time	 04-08-2021  03:48:39 PM
880	0.528927
Peak Time (s)	121.037
Peak Height 	0.5289
calc peak height	120,123
Baseline Time (s)	8.536
Baseline Value 	-0.002706
subtract baseline	10,4
Abs	0.356735
Peak Time (s)	121.537
Peak Height 	0.3567
calc peak height	120,123
Baseline Time (s)	11.537
Baseline Value 	0.001033
subtract baseline	10,3
PK_550	0.202691
Peak Time (s)	121.037
Peak Height 	0.2027
calc peak height	120,123
Baseline Time (s)	8.536
Baseline Value 	2.862E-4
subtract baseline	10,2
PK_880	0.340785
Peak Time (s)	122.04
Peak Height 	0.3408
calc peak height	120,123
Baseline Time (s)	11.037
Baseline Value 	8.3787E-4
subtract baseline	10,1


Time (s)	A880-A510	A880-A775	A880-A975	A880	I510	I775	I975	I880	
0.035500	-0.002350	-0.000751	0.000571	0.003654	6860.663868	42247.855601	3945.367451	22686.564259
0.536000	-0.003730	-0.000429	-0.002678	0.003934	6845.736834	42251.690040	3937.037657	22673.851039
1.037000	-0.002203	0.000371	0.001425	0.004084	6858.110785	42310.375526	3946.371600	22667.007338
1.541500	-0.002185	-0.000941	-0.001940	0.004352	6855.852275	42167.555805	3937.788676	22654.823750
2.037000	-0.000373	0.000018	0.006122	0.001438	6898.628334	42518.634774	3963.940455	22787.583849
2.537500	-0.003159	-0.000539	-0.003788	0.000480	6882.029219	42555.114937	3942.562829	22831.407742
3.037500	-0.001200	0.000132	-0.000987	-0.000573	6909.419042	42712.577818	3951.711793	22879.711548
3.535000	0.000728	0.000240	0.000664	0.001294	6909.970144	42551.930033	3951.196843	22794.154871
4.035500	0.000751	-0.000102	-0.006218	0.000734	6915.299784	42571.810668	3936.238852	22819.772558
4.535500	0.000136	0.000312	0.002652	0.001125	6906.114011	42573.878933	3956.348907	22801.862944
5.036000	-0.000434	0.000310	-0.001473	0.001046	6901.643634	42581.016142	3946.706459	22805.518820
5.535500	0.000909	-0.000491	-0.002341	0.000562	6918.312563	42552.093675	3945.794577	22827.660811
6.036500	-0.003273	-0.000265	-0.002648	0.000491	6880.906165	42579.142960	3945.235749	22830.922722
6.537000	-0.000759	0.000567	-0.001225	0.001136	6897.864331	42596.191813	3947.078449	22801.370073
7.037500	-0.000954	-0.000003	-0.003715	0.000689	6900.156933	42584.934554	3942.239916	22821.828929
7.534500	-0.000355	-0.000156	-0.004657	0.000476	6907.553774	42590.423473	3940.518849	22831.579535
8.034500	-0.000293	0.000422	0.002171	0.001057	6902.825434	42590.103549	3955.361215	22804.974844
8.535500	-0.002509	0.000000	-0.001288	0.000000	6892.282659	42648.117637	3949.630768	22853.402969
9.035500	0.000634	-0.000075	0.000241	0.000080	6920.210589	42634.049800	3953.084315	22849.756266
9.535500	-0.000826	0.001063	0.000396	0.000904	6899.368918	42662.628722	3951.487911	22811.988291
10.036000	0.000123	-0.000412	-0.000555	-0.000898	6924.483185	42692.583014	3953.519566	22894.626064
10.536500	0.000087	0.000208	0.004989	0.000240	6913.742874	42645.166780	3964.096653	22842.397973
11.036500	0.000000	-0.000034	-0.000800	-0.000171	6916.702342	42660.613247	3951.198340	22861.229617
11.536500	-0.001374	0.000038	0.000000	-0.000291	6905.253217	42678.176539	3953.393337	22866.730102
12.037000	0.000070	-0.000097	-0.000039	0.000136	6914.543736	42626.893327	3952.282050	22847.175289
12.537500	-0.002740	-0.000445	0.003665	0.000031	6889.907743	42604.671763	3961.409531	22851.990656
13.034500	-0.002433	-0.000585	0.001699	-0.001782	6909.194974	42757.580539	3961.040486	22935.266797
13.535000	0.000154	0.000229	0.001713	0.000189	6914.822745	42651.746521	3956.343794	22844.723686
14.055000	0.000869	0.000382	0.000252	0.000313	6920.223138	42654.398530	3952.553512	22839.055891
14.536000	-0.000789	-0.000259	0.002391	0.002673	6883.632869	42381.256346	3952.025858	22731.209984
15.036000	-0.000903	0.000299	-0.000716	0.001408	6894.081917	42546.945408	3947.643525	22788.963106
15.547000	-0.000511	-0.000075	-0.005336	-0.000301	6913.227741	42668.778418	3940.752130	22867.219544
16.039500	-0.001320	-0.000165	0.002760	-0.000456	6907.254013	42674.702143	3960.403662	22874.327384
16.537000	0.000239	-0.000263	-0.001657	-0.000095	6918.188054	42632.756022	3948.977730	22857.741197
17.037500	-0.000092	-0.000120	-0.000689	-0.000004	6914.342446	42637.585811	3951.065588	22853.597049
17.538000	-0.000801	-0.000106	0.000559	-0.000516	6912.536122	42685.532231	3955.268949	22877.070226
18.035000	0.001632	-0.000043	-0.001859	0.000008	6930.013818	42643.463777	3948.253977	22853.042633
18.535500	-0.000055	-0.000085	0.001097	0.000977	6905.722795	42551.274016	3952.987471	22808.665348
19.036000	-0.001345	0.000082	0.000711	0.001403	6890.118815	42527.655200	3951.049734	22789.195298
19.536000	-0.000442	0.001133	0.002680	0.002013	6892.781388	42567.895516	3954.292757	22761.330620
20.036000	-0.002399	-0.000237	-0.001990	0.000721	6886.739080	42560.667852	3946.247849	22820.369057
20.537000	-0.000701	-0.000129	0.003911	0.001510	6894.994689	42498.680584	3958.446078	22784.284637
21.037000	-0.001806	-0.000323	-0.004923	0.000924	6890.281567	42534.387139	3938.837684	22811.094596
21.537000	-0.001217	0.000190	0.000389	0.001554	6889.899491	42523.754348	3949.921544	22782.266980
22.037500	0.000081	0.000147	0.003997	0.001573	6901.533502	42518.077269	3958.502126	22781.393946
22.536500	-0.002812	0.000335	0.003638	0.001398	6876.857389	42551.153367	3958.060575	22789.402072
23.035000	0.000196	0.000355	0.001263	0.001738	6901.072472	42521.989638	3951.565218	22773.851081
23.535500	0.000163	0.000134	0.000507	0.001543	6902.548945	42519.669015	3950.228982	22782.774921
24.035500	-0.000400	-0.001249	-0.001255	0.001264	6899.969181	42419.260305	3946.704738	22795.543064
24.536000	-0.001112	0.000169	0.005695	0.001817	6888.464374	42497.841314	3961.996401	22770.254039
25.036000	-0.000227	-0.000019	0.002828	0.001516	6899.248658	42508.162714	3955.835902	22784.019535
25.536500	-0.001192	0.000172	0.003869	0.001471	6890.881386	42529.609682	3958.438865	22786.067695
26.037000	-0.000676	0.000181	-0.000538	0.002038	6890.420751	42478.850266	3946.568749	22760.164727
26.540000	-0.000820	-0.000188	0.003118	0.001494	6894.053754	42494.761586	3956.582119	22785.000435
27.035000	-0.002214	-0.000056	0.001567	0.001885	6877.863494	42471.204312	3951.941631	22767.160967
27.535000	-0.000355	-0.000031	-0.000663	0.001579	6897.510913	42501.302124	3947.361546	22781.120786
28.035500	0.002219	0.000047	0.001046	-0.001261	6947.067739	42767.796964	3958.220612	22911.304659
28.535500	0.001545	-0.000008	0.001104	-0.000251	6931.584958	42670.287053	3955.938307	22864.920090
29.036000	-0.001677	-0.000940	0.001406	-0.001180	6910.603263	42670.050479	3958.891398	22907.582543
29.536500	0.000754	0.000363	-0.000102	0.000204	6920.174669	42662.694256	3951.971084	22844.071417
30.039500	-0.001528	0.000257	0.002783	0.000246	6898.974243	42649.145617	3958.774413	22842.142678
30.536500	-0.000639	-0.000064	-0.001418	-0.000206	6911.194683	42661.114264	3949.810877	22862.872051
31.037500	-0.000276	-0.000203	-0.000165	0.000166	6911.112418	42614.434558	3951.910526	22845.814019
31.540000	-0.003381	-0.000040	0.000422	0.005644	6833.530821	42132.365391	3940.309977	22596.285195
32.035000	-0.001577	0.000535	0.003113	0.003212	6871.625874	42404.296819	3952.463122	22706.645121
32.548000	-0.000335	0.000477	0.004041	0.000516	6907.376052	42644.569504	3961.149500	22829.770126
33.046500	0.001307	0.000078	0.001244	0.000182	6925.429060	42638.587149	3955.236571	22845.040915
33.535500	-0.001044	-0.000294	-0.001340	0.004465	6865.125797	42215.857269	3938.935802	22649.736094
34.036500	0.000506	0.000435	0.001918	0.000427	6915.863781	42648.834610	3956.264748	22833.829986
34.539000	0.000686	-0.000386	-0.000763	-0.000102	6922.347306	42622.174190	3951.121928	22858.058280
35.037000	0.003356	-0.000258	0.000353	-0.000890	6954.134283	42705.943255	3955.672940	22894.273068
35.536000	-0.001452	0.000095	0.002278	0.002999	6874.684949	42383.777414	3950.981206	22716.380505
36.037000	0.000451	-0.000153	-0.004596	0.001871	6902.188411	42463.713652	3937.378679	22767.809416
36.540000	-0.002039	0.000060	0.005372	0.001664	6881.447533	42501.870286	3961.588795	22777.249109
37.035000	-0.001990	-0.000800	0.000574	0.001346	6884.773167	42452.592679	3950.858971	22791.774564
37.535500	-0.002035	0.000704	0.004178	0.003034	6869.098237	42435.882116	3955.433788	22714.786958
38.035500	-0.001697	0.000151	0.004982	0.001850	6882.865161	42493.251687	3960.203276	22768.774401
38.538500	-0.002077	-0.000106	0.001627	0.001867	6879.269757	42468.279419	3952.125027	22767.959848
39.039000	-0.001550	-0.000900	0.002536	0.001545	6886.966853	42425.444169	3955.067893	22782.682002
39.539000	-0.001028	-0.000640	-0.000930	0.001976	6887.781648	42409.813405	3945.786022	22762.980272
40.036500	-0.000671	-0.000201	0.003120	0.001712	6893.423105	42473.720858	3956.064002	22775.042361
40.537000	-0.003497	0.000266	0.003248	0.001619	6868.668976	42524.685446	3956.595184	22779.287250
41.037500	0.000145	-0.000145	-0.001966	0.001839	6899.689332	42467.335504	3943.656386	22769.250126
41.535000	-0.000535	-0.000246	-0.003413	0.001903	6892.928674	42452.389046	3940.089761	22766.350293
42.035500	-0.001870	-0.000303	0.001612	0.002190	6878.218098	42421.066141	3951.320128	22753.221272
42.539500	-0.002217	-0.000646	-0.005522	0.001239	6883.686033	42476.316543	3936.685962	22796.660228
43.036000	-0.000090	-0.000750	-0.002384	0.001012	6905.087452	42487.433542	3944.623266	22807.036332
43.538500	-0.002998	0.000344	-0.004479	0.002183	6868.080867	42480.470230	3936.918796	22753.541480
44.036500	-0.001296	0.000225	0.002143	0.001952	6885.581539	42490.722269	3953.157044	22764.111726
44.536500	-0.001598	-0.000629	0.001873	0.001383	6888.001071	42464.780139	3953.870881	22790.089504
45.037000	-0.000764	0.000470	0.002730	0.001710	6892.601640	42535.060789	3955.137763	22775.156971
45.540000	0.001007	0.000803	0.006307	0.000446	6920.275660	42680.744886	3966.784290	22832.968087
46.038000	-0.000292	0.000036	0.002439	0.000007	6912.412205	42650.806890	3958.522490	22853.096959
46.543000	-0.000065	-0.000146	0.002627	0.000943	6905.944293	42548.768163	3956.727197	22810.212931
47.035500	0.000939	-0.000115	0.000919	0.000461	6919.512941	42595.573791	3953.794091	22832.282969
47.536000	-0.001088	-0.000330	0.000011	-0.000566	6910.381568	42669.746064	3954.079082	22879.387216
48.036000	0.000867	0.000145	0.000028	0.000182	6921.405186	42644.778557	3952.331712	22845.070786
48.536000	-0.001561	-0.000235	0.003463	-0.000063	6901.480487	42632.442525	3961.151153	22856.308668
49.036500	-0.001742	-0.000253	-0.000092	0.002188	6879.395205	42425.727508	3947.270038	22753.307455
49.539500	-0.001551	0.000646	0.005500	0.003321	6870.874174	42404.495306	3957.913019	22701.691505
50.039000	0.000322	0.000093	0.000488	-0.000181	6919.745112	42673.154798	3954.299143	22861.717616
50.537000	-0.001165	0.000790	0.000969	0.000708	6898.058803	42655.539285	3953.321522	22820.948501
51.036500	-0.000490	0.000634	0.002507	0.000679	6904.481655	42644.008538	3957.072505	22822.305074
51.535000	-0.001372	-0.000198	0.000402	0.002606	6878.964215	42392.786726	3947.451936	22734.266357
52.035500	0.000270	0.000105	0.004491	-0.001149	6928.125921	42762.803093	3966.250026	22906.156451
52.536000	-0.004125	-0.001379	0.002115	0.003275	6848.100732	42225.297907	3949.934161	22703.787913
53.039000	-0.064256	-0.018019	0.017810	0.245920	4889.690705	24582.762429	3529.147555	14243.628152
53.536000	-0.083955	-0.019393	-0.012796	0.042784	5910.774965	37356.790953	3828.173405	20985.139723
54.036500	-0.075301	-0.049218	-0.011949	-0.217666	8454.500736	61443.756589	4580.783790	35811.189984
54.537000	-0.041282	-0.106046	-0.004405	-0.303869	10211.031879	65535.000000	4981.864486	43028.509982
55.037000	-0.015217	-0.062372	0.014247	-0.253451	9814.905840	64571.032577	4836.153557	38634.443497
55.537500	-0.003547	-0.045742	0.020581	-0.229585	9624.723024	63553.357938	4760.187849	36725.828174
56.035000	0.006412	-0.028742	0.029977	-0.201969	9358.671653	62090.721765	4684.423094	34644.318424
56.535000	0.017057	-0.009320	0.037163	-0.154786	8841.303993	58430.417461	4528.838778	31380.317780
57.035500	0.034865	0.003618	0.047480	-0.127234	8710.521401	56595.636928	4466.089406	29632.040473
57.538500	0.061930	0.017286	0.064818	-0.104148	8763.582620	55445.445273	4445.709921	28250.208776
58.039000	0.085200	0.033148	0.084305	-0.060304	8494.442924	52171.640223	4362.279324	25819.701837
58.536500	0.100229	0.043255	0.100112	-0.022189	8207.247946	49099.438947	4289.869860	23897.263233
59.037000	0.114587	0.053516	0.115998	0.027128	7800.418802	45132.999014	4188.085649	21647.533407
59.537000	0.127860	0.064388	0.125728	0.082005	7357.048401	41071.214024	4062.498014	19426.873234
60.037000	0.142742	0.074469	0.139249	0.122751	7102.072033	38474.414869	3992.834869	17950.344798
60.535000	0.151483	0.079293	0.151784	0.150725	6922.069384	36632.031047	3955.231234	17013.954051
61.035000	0.156169	0.086628	0.172296	0.183337	6674.511794	34729.313447	3926.678823	15995.791815
61.535500	0.177321	0.096239	0.185095	0.244846	6343.733967	31153.332893	3819.456369	14271.625244
62.035500	0.188033	0.104919	0.197604	0.274045	6202.170500	29853.164458	3785.395174	13534.758636
62.536000	0.205466	0.112488	0.209740	0.298276	6151.609053	28841.758608	3761.520518	12959.806840
63.036000	0.213048	0.118606	0.225027	0.309032	6128.283965	28567.093158	3770.388484	12714.698816
63.536500	0.219929	0.123434	0.235818	0.332264	6010.727423	27505.420175	3746.260563	12205.521230
64.036500	0.226572	0.128935	0.246851	0.344363	5972.479451	27135.668196	3744.225448	11950.943283
64.534000	0.236167	0.134949	0.262918	0.357917	5945.020358	26719.877917	3749.031980	11674.042531
65.040500	0.238151	0.139666	0.273863	0.364290	5914.876311	26629.572489	3757.846687	11546.804210
65.537500	0.239478	0.142146	0.271533	0.372429	5868.688894	26323.426515	3737.798308	11387.002982
66.035000	0.241643	0.145834	0.275531	0.405360	5668.866094	24803.371351	3684.838029	10770.141232
66.557500	0.246662	0.150685	0.278658	0.431262	5541.080471	23770.833623	3645.560975	10316.762131
67.036000	0.250934	0.150930	0.283932	0.439428	5517.920951	23395.076254	3640.719430	10179.346300
67.538000	0.255125	0.153926	0.289177	0.444747	5511.259210	23286.182229	3640.597040	10091.224622
68.036500	0.264892	0.158398	0.290902	0.449713	5539.758054	23263.081165	3635.209354	10009.905945
68.539500	0.269050	0.160363	0.283750	0.452022	5550.819174	23247.041414	3619.713260	9972.415857
69.037000	0.274180	0.163490	0.289413	0.452231	5580.496459	23383.670075	3628.605652	9969.035334
69.537500	0.274833	0.165453	0.299648	0.451649	5587.992166	23503.546827	3646.574056	9978.455444
70.037500	0.280828	0.166922	0.299601	0.450588	5631.252132	23623.457125	3648.282127	9995.675432
70.534500	0.280907	0.168616	0.291140	0.451019	5629.080877	23683.574982	3633.442687	9988.673412
71.035000	0.287894	0.171336	0.306679	0.452263	5664.784363	23754.086969	3657.449802	9968.523574
71.537500	0.285145	0.171498	0.307636	0.452139	5648.402942	23767.740528	3659.296031	9970.519876
72.035000	0.289528	0.173114	0.304778	0.453026	5670.245183	23802.726320	3652.915403	9956.186576
72.536000	0.292668	0.174104	0.315004	0.455012	5677.486980	23755.024037	3667.028972	9924.171585
73.035500	0.292386	0.171951	0.305884	0.453916	5682.612069	23704.537907	3653.282865	9941.820099
73.537000	0.295715	0.175860	0.305109	0.457177	5683.036191	23735.411707	3646.461513	9889.430113
74.037000	0.296615	0.175810	0.316183	0.458927	5677.685948	23649.593018	3662.312451	9861.486232
74.537000	0.298744	0.177713	0.313238	0.462568	5668.197252	23567.053497	3651.082239	9803.704232
75.034500	0.301829	0.179508	0.318497	0.464604	5674.772677	23555.615658	3656.556321	9771.585973
75.535000	0.303520	0.180088	0.314791	0.464715	5684.721909	23577.842624	3650.077644	9769.843042
76.038500	0.300589	0.179929	0.313551	0.463891	5671.467943	23609.402727	3649.373584	9782.812428
76.535500	0.302476	0.180715	0.317379	0.464858	5677.246855	23600.833531	3654.220379	9767.593133
77.035500	0.303600	0.181993	0.315829	0.465373	5681.083372	23637.100356	3650.719649	9759.509173
77.536500	0.306207	0.182324	0.317951	0.465777	5694.983501	23633.579982	3653.630962	9753.159002
78.036500	0.306980	0.184164	0.327038	0.466969	5692.335801	23664.453177	3667.162414	9734.491506
78.537000	0.306774	0.185469	0.320963	0.467473	5687.852329	23702.638870	3655.871713	9726.615076
79.037000	0.310386	0.185029	0.325592	0.467419	5711.084184	23684.201372	3663.890317	9727.448640
79.537500	0.312462	0.188318	0.325950	0.471702	5697.073429	23636.935102	3657.162418	9660.843662
80.035000	0.313294	0.187347	0.328007	0.469632	5715.510292	23689.217766	3664.238328	9692.944835
80.538000	0.310840	0.187986	0.326970	0.470499	5694.417428	23678.324541	3660.964355	9679.475482
81.035500	0.314356	0.188518	0.329529	0.472150	5706.249023	23625.138979	3662.524852	9653.912724
81.536000	0.314025	0.190040	0.326124	0.474480	5689.393824	23586.748133	3652.732455	9617.988122
82.036000	0.313071	0.189635	0.318385	0.474297	5684.525362	23576.192741	3640.027161	9620.797502
82.536500	0.317478	0.191415	0.330871	0.477670	5691.046537	23500.765582	3655.376817	9569.103160
83.036500	0.317289	0.190778	0.322500	0.476885	5694.821194	23507.804206	3642.576709	9581.107318
83.536500	0.319170	0.192678	0.324049	0.479599	5689.558502	23469.367254	3640.631071	9539.733249
84.037500	0.319808	0.191793	0.324394	0.478835	5698.419859	23463.639088	3642.481517	9551.340281
84.534500	0.320695	0.192836	0.333192	0.481711	5685.851485	23377.388560	3652.457241	9507.712661
85.035500	0.320212	0.194465	0.332755	0.482888	5675.403821	23398.655186	3649.725123	9489.935942
85.535500	0.322941	0.194531	0.334369	0.484222	5684.176242	23339.061930	3650.197021	9469.834352
86.035500	0.324464	0.195144	0.328080	0.484697	5690.791984	23345.567622	3638.851856	9462.697512
86.536000	0.320837	0.195434	0.334397	0.485872	5660.616909	23304.118252	3647.461151	9445.075409
87.036500	0.322643	0.195585	0.339663	0.486621	5667.232453	23276.119760	3655.107163	9433.863877
87.536500	0.325515	0.196366	0.330486	0.487338	5680.766416	23279.127033	3638.461086	9423.154993
88.037000	0.326433	0.195870	0.331776	0.487948	5682.705402	23227.521755	3639.593942	9414.058910
88.537500	0.323312	0.196241	0.328594	0.488866	5657.380111	23202.035872	3632.795501	9400.384348
89.037500	0.324996	0.196973	0.337174	0.488993	5667.111353	23230.210659	3646.881959	9398.494111
89.535000	0.329001	0.198135	0.341826	0.489823	5687.075777	23245.679173	3653.341702	9386.162138
90.035000	0.326101	0.197480	0.335516	0.490513	5664.512716	23183.019537	3641.552266	9375.922120
90.535500	0.326938	0.198266	0.330411	0.493581	5650.588969	23077.132747	3628.027890	9330.616153
91.035000	0.328489	0.198137	0.337014	0.493170	5662.832384	23090.181156	3639.618506	9336.663592
91.536000	0.328893	0.198395	0.330867	0.494652	5656.102162	23033.624616	3627.020213	9314.878721
92.036500	0.329508	0.198627	0.338416	0.496352	5649.340467	22965.944888	3636.660320	9289.973586
92.536500	0.330488	0.200358	0.340289	0.499861	5633.650171	22884.283217	3633.951113	9238.870206
93.037000	0.332418	0.199640	0.337261	0.500455	5641.922776	22824.247044	3627.987540	9230.252498
93.536000	0.333685	0.199978	0.337868	0.502302	5638.324803	22755.405869	3625.958278	9203.555071
94.037500	0.331529	0.199346	0.342024	0.503842	5615.523000	22656.758298	3630.247450	9181.383842
94.537000	0.330691	0.199344	0.344275	0.507260	5589.494578	22502.414733	3628.331644	9132.453850
95.035000	0.334345	0.201224	0.343846	0.509346	5599.054669	22493.204645	3624.218207	9102.781657
95.535000	0.334042	0.199868	0.343915	0.509291	5597.540251	22434.812294	3624.420313	9103.558159
96.038500	0.334568	0.201592	0.344751	0.512157	5583.299253	22383.746101	3621.117490	9063.017533
96.536000	0.335451	0.201644	0.344936	0.512775	5584.904780	22358.448122	3620.414549	9054.306546
97.039500	0.334785	0.199703	0.344912	0.512832	5580.518891	22269.512040	3620.282313	9053.501829
97.534000	0.337959	0.201110	0.342289	0.514819	5587.726645	22243.762026	3612.848167	9025.592510
