sample name	sample
index	360
start time	 03-04-2021  10:44:25 AM
880	2.538777
Peak Time (s)	92.535
Peak Height 	2.539
calc peak height	90,93
Baseline Time (s)	11.536
Baseline Value 	-0.003242
subtract baseline	10,4
Abs	1.418247
Peak Time (s)	90.04
Peak Height 	1.418
calc peak height	90,93
Baseline Time (s)	11.536
Baseline Value 	0.003993
subtract baseline	10,3
PK_550	-0.276379
Peak Time (s)	90.04
Peak Height 	-0.2764
calc peak height	90,93
Baseline Time (s)	9.537
Baseline Value 	8.9485E-4
subtract baseline	10,2
PK_880	1.127407
Peak Time (s)	90.04
Peak Height 	1.127
calc peak height	90,93
Baseline Time (s)	9.037
Baseline Value 	0.002523
subtract baseline	10,1


Time (s)	A880-A510	A880-A775	A880-A975	A880	I510	I775	I975	I880	
0.034500	-0.000639	-0.001051	-0.000676	-0.000521	6868.386014	47521.894167	3923.039402	24979.426603
0.540500	-0.003861	-0.001107	-0.005324	0.004138	6794.192899	47038.457063	3897.360744	24741.944410
1.035000	-0.001785	0.000489	-0.001240	0.003060	6823.724232	47311.915491	3911.532840	24796.652738
1.535000	-0.000204	-0.000363	-0.001073	-0.000844	6875.590656	47626.147021	3922.831890	24995.957983
2.035500	0.001498	0.000101	-0.000495	-0.000776	6891.169338	47667.060913	3924.255951	24992.480210
2.536000	-0.002747	-0.000252	-0.002029	0.003791	6807.849988	47161.239225	3907.344575	24759.555835
3.036500	0.000036	-0.000176	0.002387	-0.001620	6885.273181	47725.753816	3934.703504	25035.808618
3.536500	0.000119	-0.000706	-0.000913	0.000129	6869.417712	47490.390992	3920.567539	24946.132401
4.036500	-0.000200	-0.000996	-0.004797	-0.000399	6871.396570	47514.860760	3911.265149	24973.148416
4.534500	-0.000879	-0.000625	-0.003673	0.000293	6858.389745	47481.927668	3912.458700	24937.747548
5.037500	-0.001406	-0.000392	-0.001305	0.000168	6854.578427	47518.757730	3919.368875	24944.140674
5.535000	-0.001956	-0.000723	-0.002123	-0.000408	6854.821961	47543.929310	3918.696281	24973.592705
6.035000	-0.001161	-0.000729	-0.000006	-0.000175	6860.142411	47519.371669	3923.943916	24961.672294
6.535500	-0.002034	0.000139	-0.001511	0.000252	6847.841189	47564.890477	3918.562927	24939.846271
7.035500	-0.000573	-0.000227	-0.006836	-0.000090	6864.926879	47562.334966	3904.797592	24957.345979
7.535500	0.000503	0.000573	0.002090	0.000730	6867.346213	47560.234383	3927.271321	24915.384646
8.036500	-0.000542	-0.000510	-0.001383	0.000053	6863.859212	47518.425538	3919.473983	24950.023904
8.536500	0.002651	0.000031	-0.002340	0.000341	6891.507638	47544.414891	3916.013602	24935.257383
9.037000	0.000000	-0.000492	0.000431	-0.000288	6872.247976	47555.428214	3925.481365	24967.485738
9.537500	-0.000699	0.000000	-0.000856	0.000540	6857.750252	47520.832111	3919.584357	24925.124123
10.038000	-0.000947	-0.000112	0.000819	0.000028	6860.256990	47562.089768	3925.680614	24951.301787
10.535000	-0.000221	0.000157	-0.002994	-0.000277	6870.039913	47621.355007	3915.917136	24966.923860
11.035500	0.000739	-0.000424	0.000782	-0.000341	6879.778714	47567.934903	3926.609400	24970.187940
11.535500	0.001711	0.000002	0.000000	0.000000	6885.801950	47576.641905	3923.471640	24952.725021
12.036000	-0.000404	0.000174	0.001759	-0.000034	6865.999833	47598.007738	3928.483360	24954.476346
12.536500	0.001545	0.001029	0.000140	0.000527	6879.190704	47628.285781	3922.393042	24925.768267
13.036500	-0.000387	-0.000281	-0.001335	-0.002668	6891.239992	47823.425703	3927.195357	25089.683931
13.536500	-0.000987	-0.000461	0.003300	-0.001643	6875.744118	47698.643483	3937.339913	25036.973731
14.037000	-0.000728	0.000554	-0.000055	-0.001566	6877.476724	47795.686215	3927.693868	25032.994937
14.537000	-0.000856	-0.000085	-0.000180	0.002330	6839.342787	47327.990619	3916.489873	24833.783124
15.034500	0.000542	0.000565	0.000612	0.000311	6871.699295	47602.694228	3924.310278	24936.801781
15.535000	0.000088	-0.000261	0.002224	-0.001513	6884.751971	47705.882555	3933.940985	25030.288733
16.036500	0.001090	-0.000086	0.002856	-0.001384	6893.080852	47710.544454	3935.356491	25023.655382
16.535500	0.000191	-0.000134	-0.006144	0.004837	6825.592514	47066.431074	3893.223948	24706.556809
17.036000	0.001469	-0.000134	-0.000206	-0.000438	6887.666378	47607.909622	3924.118981	24975.168631
17.536500	0.003702	0.000151	0.001475	-0.002499	6928.852423	47850.772536	3934.608243	25080.968966
18.036500	0.001242	0.000437	0.007389	-0.001229	6893.049873	47748.709364	3947.751782	25015.691538
18.537000	-0.000043	0.000010	0.001223	0.001241	6857.318175	47449.557593	3923.419276	24889.288225
19.037000	-0.001119	0.000470	-0.000959	0.001918	6840.748260	47427.299462	3915.472349	24854.792217
19.537500	0.002084	0.000830	-0.002232	0.002254	6867.891682	47429.841021	3911.023537	24837.693064
20.035000	0.001086	0.000947	-0.000969	0.001920	6861.588992	47476.214535	3915.439368	24854.685849
20.535000	0.001201	0.001198	-0.000293	0.002528	6856.920190	47439.392310	3915.626447	24823.715824
21.035500	-0.000192	0.000485	-0.000346	0.001891	6849.765994	47431.631769	3917.248328	24856.158659
21.536000	0.000367	0.000259	0.001898	0.001505	6858.714902	47448.117623	3924.570756	24875.859304
22.036000	0.000990	0.000502	0.001185	0.001772	6862.084262	47445.591372	3921.836160	24862.223214
22.536500	0.000157	0.000698	0.000959	0.002014	6851.906517	47440.954468	3920.533886	24849.913345
23.036500	0.000343	0.001127	0.002927	0.002263	6851.305018	47459.399967	3925.326441	24837.222991
23.537000	-0.001478	0.000281	0.000483	0.001213	6844.010601	47480.420791	3921.436525	24890.710680
24.040000	-0.001449	0.000209	0.000107	0.001384	6842.673262	47455.367755	3919.914638	24882.013648
24.534000	0.000732	0.000474	-0.000989	0.001968	6857.784492	47422.657797	3915.251394	24852.255035
25.035000	0.001110	0.000229	0.001882	0.001889	6862.118848	47405.526033	3923.454357	24856.278951
25.535500	0.000778	0.000648	-0.000943	0.002127	6856.707486	47424.115254	3914.938533	24844.132184
26.035500	0.000176	0.001509	0.001278	0.002864	6844.048745	47436.892262	3919.056480	24806.653766
26.536000	0.000332	0.000609	-0.003899	0.002224	6851.561497	47410.125950	3906.509036	24839.180578
27.036000	0.000319	0.000105	-0.001139	0.001980	6853.754096	47383.480306	3914.803147	24851.647767
27.536500	0.001230	0.000330	-0.000088	0.002254	6859.783904	47378.430093	3916.956521	24837.667463
28.036500	0.002673	0.000893	0.001831	0.000291	6892.199455	47638.639390	3927.776063	24937.832403
28.537500	-0.000531	0.000707	-0.000677	0.004778	6819.365764	47158.390176	3908.349033	24709.554641
29.045500	0.002781	0.001110	0.003524	0.001121	6885.310731	47575.363343	3930.193531	24895.429186
29.535000	0.002795	0.001009	0.001468	0.000334	6892.951353	47646.134372	3926.637803	24935.618772
30.035500	0.003339	0.000712	0.004930	0.000073	6900.656403	47642.500892	3937.096407	24949.003027
30.535000	0.001259	0.001199	-0.002753	0.004718	6836.763122	47214.801659	3902.806870	24712.556896
31.035500	0.003677	0.001091	0.001422	0.000624	6898.617070	47624.694984	3925.698878	24920.793984
31.536000	0.000173	0.000183	-0.000820	0.002713	6845.442409	47316.168512	3913.655195	24814.301885
32.036000	-0.001557	0.000925	0.001384	0.003975	6817.275441	47262.875686	3916.266352	24750.222145
32.537000	-0.000581	0.001178	-0.003480	0.005146	6815.444907	47168.847917	3899.643944	24690.906820
33.048000	0.001007	0.000696	0.000909	0.000728	6872.158102	47573.134989	3923.976003	24915.502143
33.541500	0.001570	0.000676	-0.001879	0.000409	6880.560504	47604.100378	3917.106642	24931.826085
34.035000	0.003717	0.001096	0.006526	0.000842	6896.924237	47602.742751	3939.434674	24909.698055
34.535000	0.000009	0.001557	0.003773	0.004885	6823.437959	47234.464233	3920.374452	24704.135375
35.035000	0.001154	0.000656	-0.001827	0.003178	6850.322037	47317.009302	3909.590370	24790.675389
35.536000	0.000681	0.000548	0.002583	0.002964	6847.872514	47327.854296	3922.409499	24801.538256
36.036000	0.000362	0.001242	-0.003320	0.004110	6834.048029	47281.523848	3902.922203	24743.400975
36.536500	0.000753	0.000695	0.001313	0.003336	6845.028070	47304.765007	3917.840379	24782.632130
37.036500	0.001485	0.001494	-0.000818	0.003899	6846.628113	47328.984248	3910.382049	24754.058627
37.537000	0.000445	0.000218	-0.002947	0.002811	6847.088698	47309.738590	3907.515508	24809.351668
38.040000	-0.000773	0.000276	-0.000725	0.003298	6831.007038	47265.754839	3912.300110	24784.580933
38.537500	0.002218	0.000654	0.000751	0.003436	6857.945119	47290.302720	3916.002860	24777.558818
39.035000	0.001128	0.000798	0.003597	0.003706	6845.086866	47277.511924	3923.168557	24763.888319
39.535500	0.002041	0.001362	0.002655	0.003762	6853.189308	47329.573284	3920.388499	24761.036191
40.035500	0.000493	0.001349	0.002887	0.003864	6837.605141	47317.753375	3920.748611	24755.863467
40.535500	0.000247	0.000917	0.002104	0.003549	6838.253182	47305.752648	3919.449195	24771.849696
41.036000	0.001261	0.001072	0.001713	0.004026	6843.317351	47272.733898	3917.037666	24747.643214
41.536500	-0.000428	0.001547	0.006986	0.004115	6826.557757	47312.278995	3931.506993	24743.107056
42.036500	0.002415	0.001558	0.001369	0.004390	6850.777879	47285.223209	3915.072869	24729.181377
42.537000	-0.001105	0.000285	0.005499	0.003330	6827.576560	47263.337738	3929.535741	24782.950742
43.037500	0.000622	0.001514	0.000170	0.004235	6835.322817	47296.567059	3912.184399	24737.052186
43.534500	0.000525	0.000598	-0.002801	0.003489	6841.438496	47279.217307	3906.052682	24774.894789
44.035000	-0.001649	0.001276	0.003260	0.003902	6817.095693	47306.340805	3921.682286	24753.918575
44.535500	0.001225	0.001209	-0.000456	0.004082	6842.452061	47281.069487	3910.878889	24744.814671
45.035500	0.003024	0.001652	0.004641	0.000006	6898.276645	47746.620775	3936.470325	24952.401866
45.541500	0.003451	0.001033	0.003342	0.000986	6892.996808	47581.324733	3930.062947	24902.339311
46.036500	0.001890	0.000437	0.001967	0.000571	6882.058963	47562.661757	3927.371695	24923.526209
46.536500	0.001922	0.001017	0.001130	0.002649	6862.608881	47408.386454	3919.240478	24817.570776
47.037000	0.001657	0.001174	0.001727	0.002864	6858.056139	47402.488072	3920.305855	24806.654515
47.540000	0.003299	0.000330	0.003036	0.000667	6894.586427	47541.755521	3930.098562	24918.608177
48.034500	0.002886	0.000866	0.004139	0.001174	6885.809806	47544.746241	3931.773410	24892.740793
48.559500	0.001667	0.001080	-0.000556	0.002532	6861.294814	47426.971353	3914.887219	24823.536248
49.035500	-0.000907	0.000267	0.000565	0.004700	6816.578732	47121.455084	3911.992810	24713.505916
49.535500	0.002638	0.001817	0.007089	0.003572	6860.641634	47395.745036	3933.323321	24770.676792
50.058000	0.001777	0.001122	0.005449	0.001137	6875.590606	47574.979112	3935.560095	24894.620499
50.536500	0.001874	0.001757	0.005898	0.004600	6843.685642	47284.130502	3927.098512	24718.555819
51.036500	0.004193	0.000922	0.000019	0.002785	6882.903551	47384.692216	3915.778668	24810.647087
51.536500	0.003761	0.001622	0.006054	0.000164	6903.828179	47727.161541	3940.012902	24944.324978
52.037000	0.001806	0.000624	0.001549	0.002069	6867.001391	47427.536128	3922.021655	24847.067899
52.534000	0.002470	-0.000633	-0.000021	0.001084	6882.693417	47399.657332	3920.392561	24897.297405
53.037500	-0.031443	-0.006774	-0.044264	0.294739	4690.063958	25145.491801	3266.992860	14001.965501
53.534500	-0.083955	-0.027240	-0.104773	-0.019390	6299.436967	46773.841557	3707.235433	25967.544487
54.035500	-0.078013	-0.068325	-0.091282	-0.200125	8209.367124	63465.267663	4268.541362	37962.565935
54.535500	-0.067992	-0.122873	-0.069342	-0.269234	9301.896648	65535.000000	4631.606997	44040.349474
55.035500	-0.029593	-0.144696	-0.039718	-0.291056	10277.498451	65535.000000	4873.029084	46169.355664
55.536500	-0.021476	-0.088353	-0.031980	-0.233473	9466.359795	65355.906257	4638.696437	40774.801119
56.036500	-0.010196	-0.051776	-0.014742	-0.179786	8840.877696	62937.901008	4483.591920	36350.453974
56.537000	0.002580	-0.020788	0.001161	-0.091064	7862.541234	55447.517803	4210.105882	30137.730632
57.040000	0.012062	-0.003981	0.014137	-0.022230	7208.560884	49499.645649	4029.290466	26120.014284
57.537000	0.041163	0.015736	0.037553	0.050259	6783.977356	44152.140613	3888.538825	22523.878894
58.035000	0.075360	0.035739	0.073467	0.125610	6418.613859	39199.842566	3786.405105	19370.521448
58.535000	0.099944	0.049081	0.102903	0.219165	5878.857006	33055.201188	3638.926392	16145.062328
59.034500	0.134251	0.063373	0.140228	0.283683	5668.111825	29747.001873	3582.663960	14292.672449
59.535500	0.176001	0.074274	0.186966	0.378528	5331.477268	25004.648352	3491.364054	12023.628336
60.036000	0.225016	0.084162	0.235253	0.496079	4953.561950	20121.448763	3376.462227	9819.061868
60.536000	0.275975	0.092421	0.293155	0.619436	4614.110271	16080.485157	3283.492947	8065.436919
61.036500	0.327603	0.099191	0.347658	0.715502	4432.103764	13605.643909	3231.329079	7006.033784
61.537000	0.386738	0.107984	0.406334	0.812412	4291.379450	11614.778813	3187.559541	6150.210714
62.037000	0.444604	0.111260	0.479062	0.905059	4172.198408	9968.655819	3166.238118	5492.561648
62.534500	0.502044	0.114077	0.532025	1.004311	4040.998908	8534.068767	3120.308149	4927.527196
63.037500	0.555464	0.117516	0.588276	1.098313	3925.188362	7448.067777	3086.310730	4499.232538
63.535000	0.614023	0.127639	0.627770	1.167143	3897.553326	6855.844681	3061.857486	4239.467066
64.066500	0.633334	0.131224	0.677128	1.206608	3845.190594	6531.389676	3069.919434	4108.076928
64.536000	0.651313	0.132535	0.689782	1.245862	3792.490353	6216.242503	3048.653233	3988.716786
65.036000	0.674197	0.134077	0.713744	1.279883	3765.916018	5967.498840	3040.943650	3893.642000
65.536000	0.698475	0.135427	0.737648	1.320644	3727.811824	5689.608019	3028.417776	3789.118104
66.036500	0.719797	0.134076	0.762161	1.354703	3699.343959	5460.561317	3021.537587	3708.998443
66.540000	0.739077	0.136532	0.780199	1.394766	3654.648085	5236.901617	3006.228573	3622.454250
67.037000	0.759039	0.140489	0.794858	1.438837	3605.410141	5018.740321	2986.958119	3536.034803
67.534500	0.781330	0.140820	0.836935	1.477065	3574.329211	4830.349276	2989.406692	3467.856457
68.035000	0.800816	0.142176	0.856755	1.516744	3536.551953	4655.846607	2977.004325	3403.159314
68.535000	0.821057	0.138411	0.884479	1.548123	3516.456054	4508.804589	2974.783560	3356.022278
69.036000	0.842633	0.138517	0.914170	1.596144	3470.752692	4326.569998	2963.920742	3290.166819
69.536000	0.866593	0.138337	0.930411	1.628439	3456.914719	4214.002374	2954.775909	3249.799520
70.035500	0.869441	0.130415	0.935816	1.660854	3409.916954	4085.417246	2940.134221	3212.192630
70.536500	0.892565	0.125594	0.972637	1.695582	3392.330312	3970.421791	2941.236487	3174.898035
71.042500	0.910498	0.123890	0.999032	1.730820	3366.957047	3872.063071	2936.614711	3139.983150
71.534500	0.932593	0.120734	1.017090	1.768434	3345.048944	3772.798411	2926.722612	3105.712110
72.037500	0.959106	0.131396	1.036660	1.813491	3319.875189	3696.004451	2914.480730	3068.380877
72.535000	0.957936	0.105451	1.068849	1.829575	3297.399531	3610.060169	2922.132233	3055.965761
73.034500	0.978619	0.104568	1.094446	1.868029	3275.163850	3536.815185	2916.000809	3028.081499
73.535500	0.987974	0.091079	1.080232	1.895117	3253.865596	3467.902965	2897.489568	3009.870146
74.036000	1.010581	0.101387	1.130772	1.933851	3235.235942	3423.321975	2902.602488	2985.725178
74.536000	1.020012	0.088502	1.153777	1.964096	3212.194409	3361.014252	2899.450681	2968.313699
75.036500	1.019763	0.078638	1.151428	1.983312	3191.620631	3322.363577	2890.367078	2957.864441
75.536500	1.056764	0.090014	1.177896	2.037999	3173.711154	3269.389832	2879.142272	2930.537574
76.037000	1.042674	0.049806	1.151393	2.032405	3165.363299	3230.691514	2871.283325	2933.177781
76.537000	1.061075	0.026844	1.189164	2.059961	3156.549671	3179.471730	2875.075570	2920.496089
77.037500	1.067502	0.035148	1.211519	2.092299	3132.588054	3157.117487	2871.368602	2906.604374
77.535000	1.103380	0.033800	1.249591	2.133178	3128.124396	3120.716041	2870.341388	2890.460643
78.035000	1.096218	0.016291	1.265551	2.155106	3103.162455	3089.773192	2868.179820	2882.407607
78.535500	1.104071	0.036518	1.268684	2.186751	3083.952202	3081.325597	2858.251882	2871.479164
79.036000	1.116890	-0.007865	1.260973	2.192709	3089.383772	3046.622265	2853.718756	2869.509243
79.536000	1.123034	-0.006638	1.315215	2.223159	3070.521503	3028.247591	2861.702571	2859.853092
80.036500	1.124966	-0.046115	1.281530	2.230674	3066.335569	3001.173385	2848.148724	2857.572289
80.539000	1.151684	-0.049503	1.301145	2.261202	3063.509851	2983.375003	2844.768887	2848.702233
81.040000	1.106542	-0.076523	1.313352	2.264980	3029.346623	2968.373614	2847.371781	2847.647095
81.537500	1.180536	-0.039441	1.350706	2.328742	3036.176897	2956.211038	2839.382113	2831.159242
82.035000	1.137944	-0.066658	1.369865	2.321304	3013.367337	2947.664932	2847.430842	2832.960379
82.535500	1.143310	-0.106800	1.331481	2.318321	3018.618616	2932.624266	2836.824973	2833.691308
83.036000	1.161578	-0.090996	1.378434	2.366233	3000.421483	2920.625095	2836.549536	2822.536569
83.535500	1.153553	-0.131315	1.370641	2.365731	2995.997499	2906.925961	2834.474898	2822.647086
84.036500	1.151549	-0.154203	1.389839	2.363678	2996.025959	2900.242527	2840.619697	2823.100791
84.536500	1.170293	-0.168750	1.380622	2.404303	2983.584861	2884.018589	2826.668023	2814.509884
85.036500	1.136594	-0.186230	1.332694	2.390089	2973.021927	2883.121475	2818.099301	2817.424878
85.537000	1.159102	-0.149894	1.411939	2.435517	2961.187763	2880.658652	2826.695444	2808.434140
86.034500	1.221214	-0.130096	1.448072	2.492441	2963.811796	2871.120913	2821.331358	2798.417951
86.535000	1.181454	-0.210558	1.414008	2.477004	2951.775502	2856.259838	2816.739103	2801.005848
87.035000	1.146520	-0.314532	1.376703	2.430924	2957.207467	2844.776662	2818.877897	2809.300912
87.535500	1.170405	-0.227840	1.365911	2.492696	2939.297546	2849.532605	2802.423719	2798.375959
88.035500	1.172571	-0.240400	1.452788	2.506241	2934.216430	2844.557410	2819.067162	2796.181186
88.536000	1.187885	-0.261580	1.465045	2.548822	2922.568931	2833.591676	2811.842560	2789.710722
89.035500	1.129707	-0.300854	1.430383	2.486775	2924.177719	2837.324912	2818.344770	2799.357219
89.536500	1.142951	-0.280575	1.449349	2.540369	2908.087165	2831.928700	2810.190400	2790.945261
90.039500	1.127407	-0.276379	1.418247	2.528914	2906.538062	2834.412232	2805.844956	2792.656999
90.537000	1.120677	-0.295340	1.375335	2.518503	2907.932023	2833.044535	2799.074385	2794.252478
91.035000	1.113441	-0.341963	1.395617	2.521340	2904.146100	2825.639348	2802.645364	2793.813841
91.535000	1.077278	-0.395801	1.367363	2.494757	2900.626785	2821.905197	2802.297043	2798.037642
92.035000	1.064868	-0.429130	1.386188	2.513061	2889.851840	2815.442315	2802.405387	2795.101653
92.535500	1.089917	-0.387658	1.370816	2.538777	2889.626438	2817.333753	2794.239605	2791.180523
93.035500	1.128638	-0.327093	1.402092	2.573975	2890.822073	2820.526677	2793.499843	2786.176339
93.535500	1.073868	-0.470537	1.406406	2.543663	2882.717556	2807.620725	2800.268383	2790.461356
94.036000	1.081133	-0.462589	1.404131	2.566988	2877.638564	2806.111870	2795.212337	2787.137596
94.537000	1.075955	-0.497106	1.434409	2.581442	2871.679856	2801.647983	2798.302244	2785.165781
95.037000	1.091178	-0.479942	1.435910	2.609684	2867.874318	2800.706137	2793.145446	2781.497357
95.592000	1.077801	-0.475526	1.412044	2.616777	2862.116949	2800.482051	2787.558442	2780.612897
96.034500	1.120925	-0.476130	1.434939	2.634990	2869.159728	2798.945730	2788.378058	2778.406904
96.565000	1.056279	-0.545386	1.341199	2.564356	2870.913778	2799.056052	2784.417824	2787.503828
97.035500	0.949694	-0.495934	1.319115	2.549342	2846.562871	2804.625721	2783.247632	2789.635643
97.535500	0.993794	-0.526947	1.322358	2.571862	2851.847847	2799.943351	2780.151873	2786.465354
98.036000	0.977598	-0.592209	1.369595	2.582153	2845.397128	2794.243951	2786.208159	2785.070455
98.538000	1.064166	-0.421466	1.452307	2.645556	2851.017241	2802.653807	2789.584537	2777.168966
