sample name	sample
index	603
start time	 03-16-2021  05:14:11 PM
880	0.450154
Peak Time (s)	181.537
Peak Height 	0.4502
calc peak height	180,183
Baseline Time (s)	11.035
Baseline Value 	-0.002862
subtract baseline	10,4
Abs	0.308440
Peak Time (s)	181.537
Peak Height 	0.3084
calc peak height	180,183
Baseline Time (s)	8.539
Baseline Value 	9.4703E-4
subtract baseline	10,3
PK_550	0.172427
Peak Time (s)	181.537
Peak Height 	0.1724
calc peak height	180,183
Baseline Time (s)	10.037
Baseline Value 	2.7603E-4
subtract baseline	10,2
PK_880	0.292550
Peak Time (s)	182.537
Peak Height 	0.2925
calc peak height	180,183
Baseline Time (s)	9.036
Baseline Value 	0.001157
subtract baseline	10,1


Time (s)	A880-A510	A880-A775	A880-A975	A880	I510	I775	I975	I880	
0.039000	-0.002159	-0.000238	-0.004911	0.006521	5562.534609	33420.596104	3640.119048	18156.937229
0.536500	-0.001910	0.000694	-0.003322	0.005468	5570.550933	33560.259376	3644.856381	18193.989101
1.037500	-0.001921	-0.000368	-0.004277	0.003601	5582.028171	33617.112366	3646.498110	18259.949722
1.537000	-0.000608	0.000058	0.001393	0.001133	5605.554302	33822.321824	3661.307098	18347.592069
2.035000	-0.004294	-0.000498	0.003210	0.005444	5556.030086	33477.967122	3656.738822	18194.835152
2.535500	-0.001721	0.000010	0.000303	0.000974	5599.604536	33830.233666	3659.599492	18353.258810
3.035500	0.000458	0.000111	-0.000278	-0.001516	5628.867927	34015.103036	3663.103975	18442.172089
3.535500	-0.001295	0.000073	0.000773	0.000486	5605.304097	33869.483631	3661.356622	18370.639968
4.036000	-0.004346	-0.001695	-0.006283	0.004048	5564.288560	33491.992223	3642.089319	18244.125748
4.536000	-0.002085	0.000237	-0.000541	0.001076	5596.696552	33839.137911	3657.866789	18349.606144
5.036500	-0.001792	0.000258	-0.003555	0.000523	5601.966210	33879.983157	3653.377541	18369.303963
5.537000	-0.002598	0.000311	0.000244	0.000781	5595.335201	33865.381013	3659.843824	18360.105428
6.037000	-0.001047	-0.000098	0.003567	0.000355	5607.671058	33866.615208	3666.746098	18375.293379
6.537500	-0.000072	0.000427	0.000716	0.000518	5612.758202	33892.424292	3661.192678	18369.485051
7.035000	0.000464	0.000099	-0.001684	-0.000174	5620.465575	33918.384824	3658.062733	18394.199535
7.535500	-0.002299	-0.000015	-0.003666	0.000339	5599.953359	33873.632775	3653.511653	18375.873151
8.036000	-0.001860	-0.000034	-0.004083	-0.000464	5607.707077	33929.587188	3654.213769	18404.537314
8.539000	0.001367	0.000775	0.000000	0.000169	5623.984050	33942.170048	3660.519345	18381.945168
9.036000	0.000000	0.000107	-0.002747	-0.000131	5617.281990	33915.885307	3656.042869	18392.666868
9.536500	0.000143	-0.000487	0.005561	-0.000264	5619.013608	33883.061310	3671.593961	18397.413679
10.036500	-0.001202	0.000000	-0.001751	0.000570	5605.357952	33858.278466	3656.579388	18367.637287
10.540000	0.000475	0.000361	0.005608	0.000173	5618.356180	33912.357553	3670.870587	18381.818078
11.035000	-0.000374	-0.000140	0.000342	0.000000	5614.111351	33888.958264	3661.456772	18387.975010
11.538000	-0.000586	-0.000304	-0.004123	-0.000482	5615.800577	33911.595280	3654.173798	18405.179624
12.035500	-0.001646	0.000047	-0.001817	0.000781	5601.271429	33846.613008	3656.075403	18360.136200
12.538000	0.001515	0.000682	0.000191	-0.000050	5626.293845	33951.203236	3661.272774	18389.763246
13.035500	0.001516	0.000473	0.004154	-0.001257	5633.914407	34022.543343	3670.823696	18432.910055
13.536000	-0.001249	0.000202	0.001221	-0.000145	5609.533856	33923.660351	3663.339305	18393.134979
14.036000	-0.003939	-0.000112	-0.004351	0.002225	5578.053953	33732.719892	3648.848546	18308.750097
14.536500	-0.004358	-0.000858	-0.002229	0.002145	5575.954686	33685.438388	3652.840643	18311.575509
15.037000	-0.002824	0.000133	0.001212	0.000215	5597.453045	33893.082122	3662.661443	18380.299938
15.553000	-0.000769	0.000122	0.000083	0.001082	5604.868562	33830.514314	3658.998060	18349.396154
16.037500	-0.001933	0.000699	0.001590	0.002506	5588.745694	33770.350332	3659.150574	18298.783721
16.535000	-0.002888	-0.000239	-0.002409	-0.000350	5600.580056	33906.865101	3657.058430	18400.485695
17.035500	0.001509	0.000413	0.004802	0.000475	5622.955613	33894.468625	3668.811648	18371.029991
17.535500	-0.001580	-0.000299	-0.004616	-0.000002	5606.569546	33877.705308	3652.404274	18388.039051
18.039000	0.000674	0.000222	-0.003181	-0.001682	5631.280838	34034.985101	3658.081289	18448.128083
18.536000	-0.001459	0.000698	0.005833	0.001270	5599.388769	33858.135093	3669.249377	18342.709950
19.036500	-0.001662	-0.000601	-0.000705	0.000779	5601.184865	33800.682886	3658.109916	18360.198951
19.539000	0.000245	0.000815	0.001604	0.001822	5606.582343	33827.188783	3660.429713	18323.066128
20.037000	-0.002248	-0.001083	0.006980	0.000341	5600.258901	33797.517867	3673.110356	18375.800296
20.540500	-0.003096	-0.000212	0.001330	0.001047	5590.584628	33809.243623	3661.349099	18350.654248
21.034000	-0.000854	0.000399	0.002339	0.001642	5600.839549	33810.399503	3662.110947	18329.482358
21.535000	-0.001304	-0.000103	-0.000321	0.001276	5600.315919	33800.671900	3657.902852	18342.481309
22.035500	0.000273	0.000696	-0.007916	0.001623	5607.999476	33832.876282	3643.511279	18330.151651
22.536000	-0.000335	0.000483	0.005663	0.001515	5604.876566	33825.431288	3668.480920	18333.998543
23.036000	-0.002346	0.000782	0.006786	0.001771	5590.745995	33828.457659	3670.089426	18324.893104
23.536500	0.000366	0.000293	-0.002129	0.001880	5606.973510	33785.914079	3653.504733	18321.011621
24.036500	-0.003525	0.000616	0.003547	0.001418	5585.619671	33841.784573	3664.748027	18337.438983
24.538000	-0.000881	0.000662	0.001595	0.002013	5598.357763	33802.750620	3660.062164	18316.284690
25.037000	-0.000682	0.000120	0.001089	0.000935	5606.331200	33840.817861	3661.112893	18354.637701
25.537500	-0.001721	-0.000592	0.000430	0.000651	5601.610717	33810.359402	3660.423705	18364.746298
26.035000	-0.001031	0.000017	-0.001192	0.001237	5602.259993	33811.990151	3656.383599	18343.876690
26.535000	-0.001430	-0.000276	0.006626	0.000666	5603.333194	33831.763725	3671.844903	18364.205118
27.035500	-0.002804	0.000187	0.006375	0.001566	5589.174313	33800.678199	3669.704973	18332.166000
27.539000	-0.000669	0.000712	-0.000113	0.001569	5602.453575	33837.844573	3657.748754	18332.079428
28.036000	-0.001804	-0.000629	0.002100	0.000957	5599.187627	33786.002080	3662.930649	18353.864329
28.536500	-0.002125	-0.000078	0.002083	-0.000220	5604.531053	33909.014390	3665.068169	18395.821332
29.037000	-0.000267	0.000386	0.000873	0.000447	5611.976906	33894.516691	3661.611627	18372.011854
29.537000	0.000285	0.000302	0.000348	0.000045	5617.965458	33917.225191	3661.386678	18386.369969
30.034500	-0.001692	0.000271	0.001309	0.003281	5585.434538	33685.017828	3657.218311	18271.303536
30.534500	-0.001840	0.000487	-0.003655	0.000053	5604.606252	33929.928755	3654.051632	18386.092532
31.035500	-0.001240	0.000149	0.000778	0.000015	5608.592230	33908.454614	3662.231839	18387.434701
31.562000	0.002856	0.000906	0.000843	0.000389	5631.980807	33935.786890	3661.663234	18374.083593
32.038500	-0.000287	0.000002	0.003833	0.003112	5595.212717	33677.893583	3662.154601	18277.286811
32.535500	0.001191	0.000923	0.001230	0.001725	5613.109051	33841.721346	3659.921597	18326.506812
33.080000	0.000578	0.000028	0.004693	-0.000025	5620.246201	33902.706727	3669.537587	18388.881940
33.536000	-0.001999	0.000976	0.001337	0.000935	5598.109930	33901.860518	3661.567594	18354.632560
34.036500	-0.002311	-0.000366	-0.007007	0.004683	5572.919377	33540.874227	3639.655773	18221.682383
34.537000	-0.001896	0.000693	0.000717	-0.000025	5604.743015	33950.141473	3662.191869	18388.854780
35.035000	-0.001486	-0.000162	0.007447	0.000416	5604.550025	33857.692122	3673.841322	18373.131906
35.535000	-0.000052	0.001197	0.004531	0.002974	5597.538571	33772.428099	3663.692720	18282.174193
36.035500	-0.001874	0.000076	0.004388	0.002242	5590.749899	33744.795546	3664.777256	18308.131487
36.535500	-0.000823	-0.000017	-0.004052	0.001809	5599.992195	33768.917485	3650.142265	18323.527686
37.036000	-0.005484	0.000371	0.001523	0.001980	5570.022460	33784.377172	3659.990262	18317.445656
37.536000	-0.000076	-0.000393	-0.004862	0.001827	5604.537723	33740.953435	3648.643737	18322.872530
38.036500	-0.002004	0.000350	-0.007086	0.002497	5588.360358	33746.206952	3643.432165	18299.100232
38.536500	-0.000662	-0.000137	-0.007236	0.001633	5602.096056	33772.913314	3644.714006	18329.786053
39.037000	-0.004371	0.000374	-0.002795	0.001804	5577.983842	33797.035711	3652.431472	18323.695477
39.537000	-0.000029	0.000733	0.004396	0.002717	5599.281553	33757.743009	3663.916757	18291.283329
40.034000	-0.000747	-0.000083	0.003472	0.002179	5598.161266	33738.036984	3663.206534	18310.398275
40.535500	-0.001482	0.000809	0.003644	0.002629	5590.782459	33769.396346	3662.695406	18294.411566
41.035000	-0.001194	-0.000262	0.000436	0.001381	5600.349170	33781.972815	3659.097315	18338.769993
41.537500	-0.002185	-0.000016	-0.001323	0.001999	5590.328395	33755.537763	3654.753747	18316.768297
42.036000	-0.004384	-0.000179	0.002596	0.001815	5577.838383	33757.033159	3662.265647	18323.326266
42.536500	-0.002753	-0.000228	0.003620	0.001749	5588.353441	33758.251002	3664.271757	18325.657485
43.036500	-0.001076	-0.000004	0.005479	0.001997	5597.240687	33756.504126	3667.245659	18316.834958
43.536500	0.000683	0.000714	0.004742	0.002578	5604.592862	33766.248136	3664.812269	18296.224824
44.037000	-0.000995	0.000360	0.002394	0.002128	5596.935145	33773.103214	3661.318304	18312.205217
44.537500	-0.000633	0.000614	0.002590	0.002612	5596.170945	33756.722280	3660.788998	18295.001474
45.037500	0.001662	0.001374	0.009153	-0.001819	5638.387107	34127.523442	3681.227681	18453.053607
45.535000	0.000014	0.000632	-0.000366	0.000017	5616.439181	33942.782705	3660.127525	18387.367230
46.035500	-0.000671	0.000084	-0.001452	0.001426	5603.328747	33803.341762	3655.564051	18337.154993
46.535500	0.001128	0.000982	-0.002001	0.000495	5620.428518	33933.671970	3656.260383	18370.306853
47.036000	-0.000565	0.001612	0.003995	0.000892	5607.332709	33950.328132	3666.546557	18356.169107
47.536000	-0.000982	0.001081	0.006258	0.000840	5605.046531	33916.119995	3670.836692	18358.019064
48.037500	-0.000314	0.000271	0.003630	0.001182	5607.084481	33834.007534	3665.335121	18345.837675
48.546000	-0.000935	0.001077	-0.003126	0.000687	5606.299134	33926.807516	3653.861472	18363.486401
49.034500	-0.002644	-0.000456	0.003695	0.002439	5584.746278	33693.108768	3663.137111	18301.133950
49.537500	0.000276	0.000673	-0.000544	0.002771	5600.843403	33749.618835	3654.766520	18289.363404
50.045500	0.000557	0.001244	0.003717	0.001635	5609.703376	33871.037914	3664.659824	18329.722279
50.535000	-0.001484	0.001159	-0.003242	0.000474	5604.196656	33947.751619	3654.036157	18371.052912
51.043000	-0.000298	0.001095	0.005476	0.001074	5607.857477	33900.361184	3668.950115	18349.664289
51.536000	0.000758	0.001452	0.005503	-0.002000	5633.821865	34146.079502	3674.722788	18459.547022
52.036500	0.002097	0.001257	0.000116	0.000176	5628.542720	33976.123026	3660.720401	18381.703200
52.536500	-0.002937	-0.003034	0.001813	0.008972	5542.745042	33054.314127	3647.795718	18070.953678
53.036500	0.000087	-0.005740	-0.009549	0.279093	4324.765927	19000.209220	3273.757871	11037.641877
53.537000	-0.018349	-0.016895	-0.017804	-0.053159	5843.879626	36596.386363	3728.443778	20406.745112
54.034500	-0.021443	-0.029708	-0.010783	-0.252824	7534.007638	54699.307539	4255.537272	30634.188681
54.535000	-0.027871	-0.095258	-0.011981	-0.400433	9317.482939	65467.457474	4813.572689	41866.978272
55.034500	-0.008783	-0.100047	-0.002756	-0.405691	9688.006358	65535.000000	4879.699506	42341.796710
55.535500	-0.003509	-0.069395	0.001820	-0.370741	9239.081558	64918.303272	4743.510581	39290.805117
56.036000	0.001815	-0.026887	0.003067	-0.300640	8359.517335	61102.168265	4467.896869	33864.051185
56.536000	-0.003391	-0.012603	-0.001717	-0.242425	7616.556661	55505.010971	4251.270719	29977.646193
57.036500	0.002270	-0.003196	-0.001805	-0.219738	7434.894580	53921.586376	4180.376221	28598.655489
57.536000	0.014125	0.003709	0.010222	-0.204392	7398.508614	52939.916848	4170.352557	27705.860230
58.036500	0.016593	0.005977	0.009368	-0.193672	7313.675142	51975.886674	4135.985645	27100.641577
58.536500	0.023521	0.009856	0.015791	-0.149412	6949.412268	47620.693405	4029.825263	24754.273916
59.034500	0.031972	0.013953	0.025818	-0.112298	6690.232526	44348.700601	3959.311379	22962.942628
59.537000	0.034986	0.015886	0.039010	-0.078701	6431.909427	41435.991724	3909.023503	21468.207024
60.035000	0.037832	0.017166	0.036636	-0.051294	6237.230293	39187.410421	3839.737357	20331.632911
60.538500	0.044873	0.020346	0.041860	-0.018007	6041.015644	36758.702434	3778.659839	19044.335240
61.036000	0.049521	0.022992	0.049995	0.004817	5911.915015	35222.702734	3748.226031	18216.958760
61.536000	0.057376	0.029160	0.052302	0.021832	5848.873289	34425.981385	3718.770156	17627.864407
62.036500	0.065007	0.034765	0.063332	0.032382	5829.061093	34069.364388	3719.716448	17274.029528
62.536500	0.071123	0.038631	0.074798	0.038524	5828.886730	33906.564769	3730.274755	17071.933798
63.037000	0.076497	0.040993	0.081950	0.035646	5885.233265	34282.560835	3750.523433	17166.254009
63.537500	0.079038	0.051280	0.072856	0.061944	5725.860819	33147.624356	3681.113933	16327.105715
64.035000	0.078032	0.054298	0.082120	0.051968	5785.012766	34065.565801	3718.144676	16639.477273
64.535000	0.077103	0.056723	0.078169	0.052041	5778.348653	34234.693096	3710.264315	16637.161635
65.038000	0.081313	0.057805	0.083373	0.054865	5787.571531	34109.348025	3714.915476	16548.020195
65.557500	0.084545	0.059617	0.083193	0.060911	5768.872408	33806.819948	3702.800201	16359.123173
66.036000	0.087227	0.060526	0.084812	0.068393	5737.234002	33342.848085	3691.544290	16128.941128
66.536500	0.088539	0.062313	0.087496	0.076610	5692.350426	32895.837018	3681.065545	15880.715666
67.036000	0.091013	0.063263	0.087672	0.083542	5663.740363	32485.851755	3668.446130	15674.913065
67.537000	0.093426	0.064445	0.088694	0.090610	5634.183387	32087.905286	3657.319597	15468.420351
68.037000	0.094781	0.064727	0.092144	0.096829	5603.638687	31691.950232	3652.276772	15289.517627
68.534500	0.097559	0.067688	0.101304	0.103943	5576.687809	31418.129033	3655.999818	15087.941111
69.035000	0.103517	0.069416	0.103195	0.110104	5575.436441	31128.773054	3648.247183	14916.041753
69.535500	0.104321	0.069558	0.102996	0.115166	5549.251197	30811.095235	3638.800318	14776.622555
70.035000	0.104087	0.069593	0.102946	0.121202	5511.152191	30428.359575	3628.012862	14612.470344
70.536000	0.108546	0.071614	0.110174	0.126828	5504.115884	30201.012910	3630.835662	14461.511676
71.036000	0.108803	0.071436	0.112002	0.131425	5478.143985	29902.772206	3625.962185	14339.635561
71.536500	0.110413	0.074755	0.118585	0.137682	5450.610088	29720.897291	3626.534474	14175.773328
72.037000	0.111044	0.074526	0.117689	0.143667	5419.250593	29340.153723	3614.541279	14021.209011
72.536500	0.116052	0.075933	0.121273	0.148582	5419.794975	29127.720886	3612.243878	13895.898742
73.036500	0.116399	0.075396	0.120795	0.153367	5394.085386	28808.551992	3603.225877	13775.222873
73.538500	0.117280	0.077449	0.122082	0.159418	5364.471886	28571.358686	3595.158282	13624.538962
74.035500	0.120651	0.078451	0.128570	0.165603	5348.495169	28267.088073	3595.667672	13472.648305
74.538500	0.121976	0.079446	0.130154	0.169612	5333.353109	28091.827854	3591.590987	13375.355734
75.038500	0.125330	0.080587	0.125658	0.176248	5314.969954	27775.429347	3573.169155	13216.279959
75.536000	0.129378	0.082260	0.139809	0.182992	5299.973155	27486.969493	3585.375043	13057.079171
76.036500	0.133280	0.083419	0.136674	0.189804	5283.890555	27169.310168	3569.031154	12898.754566
76.536500	0.133889	0.083742	0.138769	0.192369	5273.136114	27044.465801	3568.267809	12839.779842
77.036500	0.136578	0.085450	0.140286	0.198238	5255.757432	26814.439588	3561.241941	12706.142079
77.537500	0.135931	0.085229	0.138077	0.203687	5222.803279	26504.571713	3549.048291	12583.670878
78.037500	0.137014	0.087553	0.144462	0.207925	5205.924216	26400.870101	3552.444740	12489.474717
78.534500	0.140038	0.088428	0.154969	0.213144	5194.258979	26167.240585	3560.884599	12374.739681
79.035000	0.143441	0.089967	0.146275	0.218124	5185.913496	25983.796426	3539.273022	12266.542282
79.535000	0.142489	0.091076	0.154385	0.222518	5157.836797	25810.075677	3545.079639	12172.093622
80.036000	0.144301	0.091579	0.144130	0.226365	5147.242439	25634.512325	3523.306217	12090.175619
80.536000	0.147642	0.092930	0.156366	0.230618	5142.510197	25483.224208	3535.544192	12000.456478
81.036000	0.148926	0.094714	0.160595	0.234642	5128.349636	25367.188194	3535.860874	11916.374597
81.537000	0.149627	0.093698	0.155049	0.239096	5109.104204	25086.295539	3520.559675	11824.227315
82.036500	0.152829	0.095168	0.162181	0.241588	5112.731871	25034.172856	3527.614617	11773.063116
82.538000	0.155342	0.097669	0.164688	0.245684	5104.648450	24953.174636	3525.191297	11689.629769
83.034500	0.160033	0.097387	0.160505	0.248258	5115.461589	24808.779776	3514.977025	11637.589052
83.535000	0.162587	0.098492	0.171976	0.252196	5108.387435	24666.478705	3526.374486	11558.581500
84.037500	0.162185	0.098395	0.160759	0.254129	5096.503615	24565.122087	3506.608310	11520.066716
84.536000	0.164268	0.099532	0.173086	0.257340	5090.780486	24462.018703	3520.246522	11456.442187
85.036000	0.168119	0.102857	0.174894	0.262559	5083.858955	24368.252832	3515.108504	11354.037924
85.536500	0.166896	0.102344	0.171458	0.264712	5066.884039	24237.050320	3506.778554	11312.155915
86.036500	0.169458	0.104103	0.179654	0.269121	5057.649006	24107.392388	3512.412294	11227.023554
86.537000	0.173276	0.104793	0.176568	0.271436	5065.159140	24028.242100	3504.391968	11182.665699
87.037000	0.170338	0.104905	0.180654	0.273325	5041.130674	23942.088985	3507.643030	11146.650041
87.537500	0.175182	0.106373	0.189691	0.280849	5027.911541	23651.062670	3509.890769	11004.750667
88.035000	0.177609	0.108041	0.189282	0.281699	5035.681218	23690.152947	3508.020269	10988.868516
88.535500	0.181422	0.109071	0.189718	0.284685	5039.767099	23596.808624	3504.246220	10933.324426
89.035500	0.178178	0.109724	0.191375	0.287136	5011.777705	23511.404653	3503.077146	10888.026310
89.536000	0.185459	0.110338	0.196852	0.288687	5039.940819	23467.014369	3508.884142	10859.493301
90.036000	0.185782	0.111341	0.196465	0.292630	5022.107185	23328.456751	3502.482480	10787.414882
90.536500	0.185831	0.111825	0.196079	0.293454	5018.303426	23312.442506	3500.704830	10772.427870
91.036500	0.191599	0.113169	0.193731	0.296557	5031.397308	23230.065456	3492.757612	10716.267308
91.536500	0.188722	0.115173	0.198272	0.303301	4984.509625	23009.674248	3489.575526	10595.589155
92.037000	0.192931	0.115089	0.205650	0.302663	5008.005420	23035.286090	3501.235875	10606.926182
92.537500	0.196973	0.116677	0.197690	0.304909	5016.777791	23004.856617	3486.426422	10567.092723
93.034500	0.198142	0.117963	0.201269	0.307477	5009.942231	22945.690421	3487.879556	10521.802397
93.538500	0.199507	0.118054	0.199361	0.312972	4989.889020	22698.059058	3477.327412	10425.765239
94.035500	0.203183	0.119743	0.211074	0.312323	5010.893195	22804.858489	3495.047508	10437.052094
94.536000	0.201006	0.119687	0.212327	0.313332	4995.398606	22756.131210	3495.402284	10419.523270
95.036500	0.208215	0.119917	0.205735	0.314450	5025.116357	22715.618468	3484.285063	10400.144458
95.536500	0.204612	0.121084	0.215273	0.320874	4976.417806	22477.510068	3488.751245	10289.788169
96.036000	0.207804	0.122778	0.209735	0.319819	4996.904823	22601.671336	3482.331765	10307.798072
96.537500	0.209304	0.123142	0.223629	0.321402	4996.500711	22546.482054	3500.121060	10280.777879
97.034500	0.207490	0.123765	0.218555	0.322996	4980.046807	22502.651252	3490.423992	10253.686633
97.534500	0.213139	0.124923	0.217852	0.325384	4995.790613	22447.301843	3485.977796	10213.274181
