sample name	sample
index	548
start time	 03-15-2021  11:25:12 AM


Wavelength (nm)	Absorbance
494.344910	-0.228072
494.563924	-0.228072
494.782919	-0.228072
495.001897	-0.074382
495.220856	-0.286555
495.439797	-0.162323
495.658719	-0.200580
495.877624	-0.102624
496.096510	-0.110462
496.315378	0.015285
496.534227	0.036852
496.753059	0.585764
496.971872	1.104628
497.190667	0.123089
497.409444	0.095411
497.628203	0.095319
497.846943	0.093107
498.065665	0.097122
498.284369	0.094867
498.503055	0.095027
498.721723	0.095338
498.940372	0.094328
499.159003	0.094294
499.377616	0.095343
499.596210	0.095327
499.814787	0.095473
500.033345	0.092710
500.251885	0.093228
500.470406	0.091583
500.688910	0.090147
500.907395	0.090140
501.125862	0.090839
501.344311	0.089416
501.562742	0.089804
501.781154	0.089466
501.999548	0.090018
502.217924	0.089820
502.436282	0.089754
502.654621	0.089622
502.872942	0.089583
503.091245	0.089368
503.309530	0.089767
503.527797	0.089366
503.746045	0.088756
503.964275	0.088288
504.182487	0.087555
504.400681	0.088254
504.618856	0.088230
504.837013	0.088628
505.055152	0.088715
505.273273	0.089458
505.491376	0.089695
505.709460	0.090879
505.927526	0.091164
506.145574	0.091979
506.363604	0.091297
506.581615	0.091406
506.799608	0.091079
507.017583	0.091460
507.235540	0.091661
507.453478	0.091391
507.671399	0.090893
507.889301	0.092327
508.107185	0.091741
508.325050	0.092689
508.542898	0.093871
508.760727	0.094306
508.978538	0.093748
509.196330	0.093678
509.414105	0.094743
509.631861	0.095440
509.849599	0.094407
510.067319	0.095291
510.285021	0.094978
510.502704	0.095096
510.720369	0.095041
510.938016	0.095326
511.155645	0.096113
511.373255	0.095034
511.590848	0.095149
511.808422	0.095516
512.025977	0.095756
512.243515	0.096586
512.461034	0.096028
512.678536	0.096701
512.896018	0.096104
513.113483	0.095613
513.330930	0.097024
513.548358	0.096086
513.765768	0.096941
513.983160	0.096789
514.200533	0.096600
514.417889	0.096841
514.635226	0.097234
514.852545	0.098668
515.069845	0.099140
515.287128	0.098392
515.504392	0.098818
515.721638	0.098268
515.938866	0.098448
516.156075	0.098897
516.373267	0.099517
516.590440	0.098617
516.807594	0.098474
517.024731	0.098469
517.241850	0.099675
517.458950	0.100463
517.676032	0.100739
517.893095	0.100745
518.110141	0.100807
518.327168	0.101067
518.544177	0.101982
518.761168	0.102769
518.978141	0.102639
519.195095	0.101944
519.412031	0.101716
519.628949	0.101606
519.845849	0.101625
520.062731	0.102347
520.279594	0.102345
520.496439	0.101921
520.713266	0.102516
520.930074	0.102970
521.146865	0.103296
521.363637	0.104036
521.580391	0.104569
521.797127	0.104970
522.013844	0.105141
522.230543	0.105590
522.447224	0.106857
522.663887	0.105244
522.880532	0.105060
523.097158	0.105842
523.313766	0.105512
523.530356	0.105764
523.746928	0.106737
523.963481	0.105982
524.180017	0.105904
524.396534	0.105128
524.613032	0.106099
524.829513	0.106115
525.045975	0.106053
525.262420	0.106878
525.478845	0.107368
525.695253	0.107428
525.911643	0.108064
526.128014	0.108171
526.344367	0.108500
526.560702	0.108730
526.777018	0.109666
526.993316	0.109857
527.209597	0.109752
527.425858	0.109718
527.642102	0.109198
527.858328	0.109797
528.074535	0.110641
528.290724	0.110922
528.506894	0.111460
528.723047	0.111367
528.939181	0.110894
529.155297	0.111368
529.371395	0.112077
529.587475	0.112660
529.803536	0.112409
530.019579	0.112049
530.235604	0.112475
530.451611	0.112730
530.667600	0.112810
530.883570	0.113666
531.099522	0.113881
531.315456	0.113167
531.531372	0.113235
531.747269	0.113814
531.963148	0.113628
532.179009	0.113688
532.394852	0.113689
532.610676	0.114202
532.826482	0.114326
533.042271	0.114181
533.258040	0.114633
533.473792	0.114957
533.689525	0.115508
533.905240	0.116368
534.120937	0.116894
534.336616	0.117414
534.552277	0.117710
534.767919	0.117913
534.983543	0.118455
535.199149	0.118886
535.414736	0.119611
535.630306	0.119311
535.845857	0.119332
536.061390	0.119802
536.276904	0.120446
536.492401	0.120565
536.707879	0.120962
536.923339	0.121146
537.138781	0.121734
537.354204	0.122335
537.569610	0.123499
537.784997	0.123996
538.000366	0.123761
538.215716	0.123586
538.431049	0.124046
538.646363	0.124184
538.861659	0.124534
539.076937	0.124790
539.292196	0.124372
539.507438	0.123923
539.722661	0.124336
539.937866	0.125077
540.153052	0.125356
540.368221	0.125245
540.583371	0.125847
540.798503	0.126053
541.013617	0.125773
541.228712	0.125723
541.443789	0.126134
541.658848	0.126064
541.873889	0.125971
542.088912	0.125929
542.303916	0.126282
542.518902	0.126099
542.733870	0.126396
542.948820	0.127138
543.163752	0.127811
543.378665	0.127914
543.593560	0.128327
543.808437	0.128500
544.023295	0.129012
544.238136	0.129151
544.452958	0.129381
544.667762	0.129243
544.882548	0.129280
545.097315	0.129593
545.312064	0.129594
545.526795	0.129633
545.741508	0.130172
545.956203	0.130368
546.170879	0.131203
546.385537	0.131757
546.600177	0.132500
546.814799	0.133180
547.029402	0.133332
547.243988	0.133854
547.458555	0.134567
547.673103	0.134591
547.887634	0.134750
548.102146	0.134728
548.316640	0.135178
548.531116	0.134980
548.745574	0.134887
548.960013	0.134321
549.174435	0.134294
549.388838	0.134358
549.603222	0.134323
549.817589	0.134370
550.031937	0.134004
550.246267	0.133894
550.460579	0.134359
550.674873	0.134478
550.889148	0.135363
551.103405	0.135587
551.317644	0.135462
551.531865	0.135914
551.746068	0.135987
551.960252	0.136662
552.174418	0.136591
552.388566	0.136655
552.602696	0.136644
552.816807	0.136622
553.030900	0.136406
553.244975	0.136909
553.459032	0.137360
553.673070	0.138046
553.887091	0.138234
554.101093	0.138493
554.315077	0.138420
554.529042	0.138315
554.742990	0.138506
554.956919	0.139094
555.170830	0.139014
555.384722	0.138479
555.598597	0.138533
555.812453	0.138282
556.026291	0.138905
556.240111	0.139138
556.453913	0.139447
556.667696	0.139763
556.881461	0.139740
557.095208	0.139986
557.308937	0.140571
557.522647	0.140759
557.736339	0.141460
557.950013	0.141670
558.163669	0.141878
558.377307	0.142272
558.590926	0.142497
558.804527	0.142930
559.018110	0.143067
559.231675	0.143397
559.445221	0.143069
559.658749	0.142936
559.872259	0.142765
560.085751	0.143217
560.299225	0.143262
560.512680	0.143247
560.726117	0.143283
560.939536	0.143192
561.152937	0.142722
561.366319	0.143373
561.579683	0.143695
561.793029	0.144190
562.006357	0.144006
562.219667	0.144015
562.432958	0.143749
562.646231	0.144150
562.859486	0.144518
563.072723	0.144748
563.285941	0.144598
563.499141	0.144083
563.712323	0.143659
563.925487	0.143847
564.138632	0.143976
564.351760	0.144159
564.564869	0.143928
564.777960	0.143897
564.991032	0.144169
565.204087	0.144525
565.417123	0.145200
565.630141	0.145658
565.843140	0.146002
566.056122	0.146305
566.269085	0.146738
566.482030	0.147069
566.694957	0.147301
566.907866	0.147525
567.120756	0.147374
567.333628	0.147376
567.546482	0.147123
567.759318	0.147250
567.972135	0.147284
568.184935	0.147068
568.397716	0.147256
568.610478	0.147200
568.823223	0.147209
569.035949	0.147742
569.248657	0.147576
569.461347	0.147774
569.674019	0.147650
569.886672	0.147425
570.099308	0.147596
570.311925	0.147404
570.524523	0.147703
570.737104	0.147628
570.949666	0.147425
571.162210	0.147573
571.374736	0.147701
571.587244	0.147884
571.799733	0.148423
572.012205	0.149026
572.224658	0.149293
572.437092	0.149377
572.649509	0.149835
572.861907	0.149648
573.074287	0.149662
573.286649	0.149567
573.498993	0.149845
573.711318	0.149724
573.923625	0.149628
574.135914	0.149528
574.348185	0.149590
574.560438	0.149713
574.772672	0.150203
574.984888	0.150556
575.197086	0.150869
575.409266	0.150143
575.621427	0.150350
575.833570	0.150416
576.045695	0.150550
576.257802	0.150704
576.469890	0.150457
576.681961	0.150258
576.894013	0.150552
577.106046	0.150698
577.318062	0.151036
577.530059	0.151144
577.742039	0.151346
577.954000	0.151850
578.165942	0.151617
578.377867	0.151933
578.589773	0.152452
578.801661	0.152351
579.013531	0.152306
579.225382	0.152695
579.437216	0.152673
579.649031	0.153078
579.860828	0.153209
580.072606	0.153609
580.284367	0.153407
580.496109	0.153235
580.707833	0.153741
580.919539	0.153750
581.131227	0.153946
581.342896	0.154385
581.554547	0.154088
581.766180	0.154179
581.977795	0.154656
582.189391	0.155314
582.400969	0.155531
582.612529	0.155170
582.824071	0.155988
583.035595	0.156149
583.247100	0.156162
583.458587	0.156253
583.670056	0.156395
583.881506	0.156334
584.092939	0.155747
584.304353	0.155861
584.515749	0.156189
584.727127	0.155638
584.938486	0.155641
585.149828	0.155644
585.361151	0.155961
585.572456	0.155684
585.783742	0.155543
585.995011	0.156349
586.206261	0.156408
586.417493	0.156460
586.628706	0.156717
586.839902	0.157190
587.051079	0.157283
587.262238	0.157052
587.473379	0.157395
587.684502	0.157272
587.895606	0.157220
588.106692	0.157610
588.317760	0.157682
588.528810	0.157790
588.739841	0.157664
588.950855	0.157665
589.161850	0.158172
589.372827	0.158293
589.583785	0.158372
589.794726	0.158446
590.005648	0.158359
590.216552	0.158458
590.427437	0.158736
590.638305	0.158982
590.849154	0.159226
591.059985	0.159193
591.270798	0.159353
591.481592	0.159746
591.692369	0.159792
591.903127	0.160002
592.113867	0.160072
592.324588	0.160257
592.535292	0.160027
592.745977	0.160269
592.956644	0.160190
593.167293	0.160393
593.377923	0.160373
593.588536	0.160419
593.799130	0.160289
594.009706	0.160787
594.220263	0.161032
594.430803	0.161498
594.641324	0.161570
594.851827	0.161885
595.062312	0.161961
595.272778	0.162697
595.483227	0.162837
595.693657	0.163206
595.904069	0.163003
596.114462	0.162836
596.324838	0.162663
596.535195	0.163025
596.745534	0.163137
596.955855	0.163149
597.166157	0.163091
597.376441	0.163791
597.586707	0.163591
597.796955	0.163944
598.007185	0.163982
598.217396	0.164549
598.427589	0.164627
598.637764	0.164594
598.847921	0.165085
599.058060	0.165028
599.268180	0.164758
599.478282	0.165291
599.688366	0.165323
599.898431	0.165781
600.108479	0.165737
600.318508	0.165646
600.528519	0.165695
600.738511	0.165447
600.948486	0.165466
601.158442	0.165307
601.368380	0.165168
601.578300	0.165282
601.788202	0.165213
601.998085	0.165121
602.207950	0.164999
602.417797	0.165393
602.627626	0.165556
602.837436	0.165798
603.047228	0.166251
603.257002	0.166275
603.466758	0.166182
603.676496	0.166311
603.886215	0.166296
604.095916	0.167000
604.305599	0.167019
604.515264	0.167433
604.724910	0.167560
604.934538	0.167719
605.144148	0.167908
605.353740	0.167670
605.563314	0.167717
605.772869	0.168096
605.982406	0.167677
606.191925	0.167599
606.401425	0.167404
606.610908	0.167434
606.820372	0.167358
607.029818	0.167555
607.239246	0.168133
607.448655	0.168353
607.658047	0.168348
607.867420	0.168422
608.076775	0.168664
608.286111	0.168680
608.495430	0.168593
608.704730	0.168725
608.914012	0.168713
609.123275	0.168935
609.332521	0.168564
609.541748	0.168766
609.750957	0.169071
609.960148	0.169260
610.169321	0.169470
610.378475	0.169700
610.587611	0.170007
610.796729	0.170149
611.005829	0.170067
611.214910	0.170525
611.423974	0.170500
611.633019	0.170612
611.842045	0.170778
612.051054	0.170997
612.260044	0.170888
612.469017	0.171109
612.677970	0.171391
612.886906	0.171593
613.095824	0.171661
613.304723	0.171857
613.513604	0.172020
613.722467	0.172315
613.931311	0.172364
614.140138	0.172901
614.348946	0.173031
614.557736	0.172977
614.766507	0.173082
614.975261	0.173716
615.183996	0.173770
615.392713	0.174020
615.601412	0.174187
615.810092	0.174248
616.018754	0.174285
616.227399	0.174184
616.436024	0.174322
616.644632	0.174481
616.853222	0.173996
617.061793	0.174301
617.270346	0.174154
617.478880	0.174111
617.687397	0.174293
617.895895	0.174560
618.104375	0.174659
618.312837	0.174884
618.521281	0.175136
618.729706	0.175335
618.938113	0.175183
619.146502	0.175636
619.354873	0.175588
619.563226	0.175621
619.771560	0.175434
619.979876	0.175539
620.188174	0.175674
620.396453	0.175631
620.604715	0.175859
620.812958	0.176175
621.021183	0.175930
621.229390	0.175891
621.437578	0.175931
621.645748	0.176003
621.853900	0.175869
622.062034	0.175734
622.270150	0.175792
622.478247	0.175774
622.686326	0.175540
622.894387	0.175766
623.102430	0.176096
623.310454	0.176216
623.518461	0.176500
623.726449	0.176730
623.934418	0.176849
624.142370	0.176803
624.350303	0.176724
624.558218	0.177481
624.766115	0.177803
624.973994	0.177849
625.181855	0.178028
625.389697	0.178069
625.597521	0.178150
625.805327	0.178551
626.013114	0.178780
626.220883	0.179036
626.428634	0.178660
626.636367	0.178563
626.844082	0.178694
627.051778	0.178751
627.259457	0.179261
627.467117	0.179806
627.674758	0.179828
627.882382	0.180192
628.089987	0.180362
628.297574	0.180688
628.505143	0.180863
628.712694	0.180775
628.920226	0.180641
629.127740	0.180490
629.335236	0.180164
629.542714	0.180305
629.750174	0.180280
629.957615	0.180414
630.165038	0.180468
630.372443	0.180553
630.579829	0.180932
630.787198	0.181412
630.994548	0.181327
631.201880	0.181542
631.409194	0.181517
631.616489	0.181704
631.823766	0.181868
632.031025	0.181968
632.238266	0.182213
632.445489	0.182182
632.652693	0.182366
632.859879	0.182808
633.067047	0.183020
633.274197	0.183136
633.481329	0.183212
633.688442	0.183378
633.895537	0.183707
634.102614	0.183907
634.309672	0.184220
634.516713	0.184051
634.723735	0.183918
634.930739	0.184112
635.137724	0.184369
635.344692	0.184500
635.551641	0.184698
635.758572	0.184748
635.965485	0.184533
636.172379	0.184512
636.379256	0.184666
636.586114	0.184938
636.792954	0.185263
636.999775	0.185335
637.206579	0.185502
637.413364	0.185732
637.620131	0.185681
637.826880	0.186124
638.033610	0.186251
638.240323	0.186526
638.447017	0.186600
638.653692	0.186258
638.860350	0.186521
639.066990	0.186602
639.273611	0.186628
639.480214	0.186879
639.686798	0.186772
639.893365	0.187015
640.099913	0.187072
640.306443	0.187281
640.512955	0.187510
640.719449	0.187588
640.925924	0.187865
641.132381	0.187721
641.338820	0.187927
641.545241	0.188173
641.751644	0.188436
641.958028	0.188746
642.164394	0.188854
642.370742	0.189250
642.577071	0.189268
642.783383	0.189396
642.989676	0.189614
643.195951	0.189643
643.402207	0.190070
643.608446	0.190076
643.814666	0.190205
644.020868	0.190187
644.227052	0.190461
644.433218	0.190833
644.639365	0.190835
644.845494	0.190940
645.051605	0.191142
645.257698	0.190989
645.463772	0.191267
645.669828	0.191421
645.875866	0.191774
646.081886	0.191723
646.287888	0.191726
646.493871	0.191883
646.699836	0.192316
646.905783	0.192327
647.111712	0.192500
647.317622	0.192625
647.523514	0.192769
647.729388	0.192793
647.935244	0.192761
648.141082	0.193188
648.346901	0.193491
648.552702	0.193570
648.758485	0.193836
648.964250	0.193917
649.169996	0.194014
649.375724	0.194002
649.581434	0.194211
649.787126	0.194417
649.992800	0.194140
650.198455	0.194115
650.404092	0.194089
650.609711	0.194278
650.815311	0.194619
651.020894	0.194786
651.226458	0.194973
651.432004	0.195100
651.637532	0.195538
651.843041	0.195877
652.048532	0.196169
652.254006	0.196504
652.459460	0.196751
652.664897	0.196870
652.870315	0.197050
653.075716	0.197296
653.281097	0.197501
653.486461	0.197556
653.691807	0.197607
653.897134	0.197559
654.102443	0.197632
654.307734	0.197497
654.513006	0.197687
654.718261	0.197680
654.923497	0.197755
655.128715	0.197739
655.333915	0.197620
655.539096	0.197716
655.744259	0.198042
655.949404	0.198369
656.154531	0.198767
656.359640	0.198809
656.564730	0.199093
656.769802	0.199362
656.974856	0.199648
657.179892	0.199849
657.384909	0.199941
657.589908	0.199888
657.794889	0.200015
657.999852	0.200124
658.204797	0.200363
658.409723	0.200481
658.614631	0.200696
658.819521	0.200912
659.024393	0.201238
659.229246	0.201718
659.434081	0.201931
659.638898	0.202086
659.843697	0.202326
660.048478	0.202404
660.253240	0.202766
660.457984	0.202876
660.662710	0.202974
660.867417	0.203265
661.072107	0.203297
661.276778	0.203723
661.481431	0.203711
661.686066	0.203703
661.890682	0.203926
662.095281	0.203989
662.299861	0.204142
662.504422	0.204327
662.708966	0.204403
662.913491	0.204618
663.117999	0.204451
663.322488	0.204793
663.526958	0.205080
663.731411	0.205281
663.935845	0.205294
664.140261	0.205382
664.344659	0.205555
664.549038	0.205540
664.753400	0.205852
664.957743	0.206202
665.162068	0.206502
665.366375	0.206672
665.570663	0.206960
665.774933	0.207299
665.979185	0.207688
666.183419	0.208081
666.387635	0.208515
666.591832	0.208583
666.796011	0.208840
667.000172	0.208977
667.204315	0.209135
667.408439	0.209189
667.612545	0.209461
667.816634	0.209559
668.020703	0.209719
668.224755	0.209913
668.428788	0.210106
668.632803	0.210221
668.836800	0.210421
669.040779	0.210524
669.244739	0.210620
669.448681	0.210841
669.652605	0.210885
669.856511	0.210824
670.060399	0.210868
670.264268	0.210964
670.468119	0.211140
670.671952	0.211013
670.875767	0.211187
671.079563	0.211539
671.283341	0.211525
671.487101	0.211676
671.690843	0.211722
671.894567	0.211802
672.098272	0.211931
672.301959	0.212089
672.505628	0.212384
672.709278	0.212869
672.912911	0.212900
673.116525	0.213126
673.320121	0.213394
673.523699	0.214023
673.727258	0.214229
673.930799	0.214353
674.134322	0.214490
674.337827	0.214810
674.541314	0.214962
674.744782	0.215206
674.948232	0.215288
675.151664	0.215293
675.355078	0.215419
675.558474	0.215341
675.761851	0.215884
675.965210	0.216094
676.168551	0.216126
676.371873	0.216095
676.575178	0.216196
676.778464	0.216587
676.981732	0.217089
677.184981	0.216961
677.388213	0.217430
677.591426	0.217226
677.794621	0.217436
677.997798	0.217468
678.200956	0.217389
678.404097	0.217462
678.607219	0.217357
678.810323	0.217082
679.013408	0.217293
679.216476	0.217261
679.419525	0.217494
679.622556	0.217629
679.825569	0.217983
680.028563	0.218257
680.231540	0.218476
680.434498	0.218492
680.637438	0.218914
680.840359	0.219125
681.043263	0.219465
681.246148	0.219715
681.449015	0.219598
681.651864	0.219814
681.854694	0.220092
682.057506	0.220222
682.260301	0.220684
682.463076	0.220852
682.665834	0.220698
682.868573	0.220825
683.071295	0.220879
683.273998	0.221515
683.476682	0.221539
683.679349	0.221898
683.881997	0.222167
684.084627	0.222435
684.287239	0.222454
684.489833	0.222958
684.692408	0.222932
684.894965	0.223214
685.097504	0.223117
685.300025	0.223312
685.502527	0.223443
685.705012	0.223486
685.907478	0.223429
686.109925	0.223617
686.312355	0.223568
686.514766	0.223867
686.717159	0.223848
686.919534	0.224183
687.121891	0.224442
687.324230	0.224604
687.526550	0.224785
687.728852	0.224708
687.931136	0.225081
688.133401	0.225366
688.335649	0.225691
688.537878	0.225908
688.740089	0.226093
688.942281	0.226186
689.144456	0.226038
689.346612	0.226013
689.548750	0.226444
689.750870	0.226328
689.952971	0.226384
690.155055	0.226280
690.357120	0.226377
690.559167	0.226323
690.761195	0.226298
690.963206	0.226493
691.165198	0.226741
691.367172	0.226749
691.569128	0.226773
691.771065	0.226743
691.972984	0.226802
692.174885	0.226711
692.376768	0.226882
692.578633	0.226889
692.780479	0.226746
692.982308	0.227085
693.184118	0.227217
693.385909	0.227349
