sample name	sample
index	1254
start time	 04-29-2021  12:58:06 PM


Wavelength (nm)	Absorbance
494.344910	-0.075991
494.563924	-0.075991
494.782919	-0.075991
495.001897	NaN
495.220856	0.046998
495.439797	0.040241
495.658719	0.063694
495.877624	0.024176
496.096510	0.037548
496.315378	0.107682
496.534227	0.082173
496.753059	0.110364
496.971872	0.149888
497.190667	0.202641
497.409444	0.203958
497.628203	0.205847
497.846943	0.207794
498.065665	0.206052
498.284369	0.204933
498.503055	0.204966
498.721723	0.206655
498.940372	0.205580
499.159003	0.204346
499.377616	0.204815
499.596210	0.204519
499.814787	0.204411
500.033345	0.204204
500.251885	0.203882
500.470406	0.204159
500.688910	0.203747
500.907395	0.205363
501.125862	0.205886
501.344311	0.206122
501.562742	0.205026
501.781154	0.205372
501.999548	0.205072
502.217924	0.206173
502.436282	0.205941
502.654621	0.205004
502.872942	0.204732
503.091245	0.205328
503.309530	0.205627
503.527797	0.206906
503.746045	0.205696
503.964275	0.206304
504.182487	0.206304
504.400681	0.206949
504.618856	0.207606
504.837013	0.206600
505.055152	0.206449
505.273273	0.205460
505.491376	0.204875
505.709460	0.207078
505.927526	0.207037
506.145574	0.206342
506.363604	0.205440
506.581615	0.205923
506.799608	0.206155
507.017583	0.205785
507.235540	0.207024
507.453478	0.207599
507.671399	0.206264
507.889301	0.206867
508.107185	0.208609
508.325050	0.209705
508.542898	0.209212
508.760727	0.209723
508.978538	0.209858
509.196330	0.209826
509.414105	0.210399
509.631861	0.211799
509.849599	0.211195
510.067319	0.210204
510.285021	0.210169
510.502704	0.210613
510.720369	0.211102
510.938016	0.210688
511.155645	0.211607
511.373255	0.210397
511.590848	0.210236
511.808422	0.210693
512.025977	0.212284
512.243515	0.212305
512.461034	0.213423
512.678536	0.213375
512.896018	0.214008
513.113483	0.213765
513.330930	0.214443
513.548358	0.214180
513.765768	0.214180
513.983160	0.213941
514.200533	0.213625
514.417889	0.212452
514.635226	0.213023
514.852545	0.214327
515.069845	0.214206
515.287128	0.214090
515.504392	0.214955
515.721638	0.215982
515.938866	0.215291
516.156075	0.215872
516.373267	0.216840
516.590440	0.217067
516.807594	0.216574
517.024731	0.217236
517.241850	0.218030
517.458950	0.217724
517.676032	0.217751
517.893095	0.219024
518.110141	0.220003
518.327168	0.220073
518.544177	0.219819
518.761168	0.220438
518.978141	0.220180
519.195095	0.220593
519.412031	0.221438
519.628949	0.221414
519.845849	0.221217
520.062731	0.220936
520.279594	0.221537
520.496439	0.222558
520.713266	0.222219
520.930074	0.222299
521.146865	0.222817
521.363637	0.222361
521.580391	0.222379
521.797127	0.222605
522.013844	0.223344
522.230543	0.223627
522.447224	0.223834
522.663887	0.224989
522.880532	0.225889
523.097158	0.225807
523.313766	0.226608
523.530356	0.227237
523.746928	0.228050
523.963481	0.227937
524.180017	0.228611
524.396534	0.227841
524.613032	0.227305
524.829513	0.227897
525.045975	0.228664
525.262420	0.228658
525.478845	0.229183
525.695253	0.229453
525.911643	0.230196
526.128014	0.229543
526.344367	0.230226
526.560702	0.231129
526.777018	0.230762
526.993316	0.230960
527.209597	0.231365
527.425858	0.231627
527.642102	0.231814
527.858328	0.232275
528.074535	0.233010
528.290724	0.233810
528.506894	0.233686
528.723047	0.234620
528.939181	0.234977
529.155297	0.235174
529.371395	0.235274
529.587475	0.235587
529.803536	0.235619
530.019579	0.236117
530.235604	0.236637
530.451611	0.237480
530.667600	0.237566
530.883570	0.237571
531.099522	0.238092
531.315456	0.238569
531.531372	0.238504
531.747269	0.238949
531.963148	0.238404
532.179009	0.238614
532.394852	0.238308
532.610676	0.238578
532.826482	0.239586
533.042271	0.239782
533.258040	0.240145
533.473792	0.240715
533.689525	0.240678
533.905240	0.242000
534.120937	0.241937
534.336616	0.242403
534.552277	0.243439
534.767919	0.243490
534.983543	0.244210
535.199149	0.244818
535.414736	0.244388
535.630306	0.244987
535.845857	0.245353
536.061390	0.245895
536.276904	0.246751
536.492401	0.246575
536.707879	0.246754
536.923339	0.246771
537.138781	0.246605
537.354204	0.247720
537.569610	0.247463
537.784997	0.247803
538.000366	0.248066
538.215716	0.248209
538.431049	0.247764
538.646363	0.248262
538.861659	0.248604
539.076937	0.248690
539.292196	0.248857
539.507438	0.249759
539.722661	0.249507
539.937866	0.249593
540.153052	0.249181
540.368221	0.250146
540.583371	0.250221
540.798503	0.251037
541.013617	0.251406
541.228712	0.251634
541.443789	0.252223
541.658848	0.252590
541.873889	0.252591
542.088912	0.253902
542.303916	0.254354
542.518902	0.254855
542.733870	0.255361
542.948820	0.255779
543.163752	0.256637
543.378665	0.256342
543.593560	0.257093
543.808437	0.257673
544.023295	0.257367
544.238136	0.257447
544.452958	0.257728
544.667762	0.257143
544.882548	0.257548
545.097315	0.257777
545.312064	0.258383
545.526795	0.258416
545.741508	0.258599
545.956203	0.258907
546.170879	0.259682
546.385537	0.259911
546.600177	0.260448
546.814799	0.260926
547.029402	0.260949
547.243988	0.261190
547.458555	0.262057
547.673103	0.262880
547.887634	0.263649
548.102146	0.263831
548.316640	0.264398
548.531116	0.264996
548.745574	0.265879
548.960013	0.266671
549.174435	0.267071
549.388838	0.267312
549.603222	0.267610
549.817589	0.267497
550.031937	0.267378
550.246267	0.267879
550.460579	0.268202
550.674873	0.267908
550.889148	0.267470
551.103405	0.267589
551.317644	0.267164
551.531865	0.267405
551.746068	0.267070
551.960252	0.267381
552.174418	0.267213
552.388566	0.267534
552.602696	0.267789
552.816807	0.267890
553.030900	0.268042
553.244975	0.268120
553.459032	0.268282
553.673070	0.269427
553.887091	0.269522
554.101093	0.269778
554.315077	0.269515
554.529042	0.269942
554.742990	0.270300
554.956919	0.270546
555.170830	0.270785
555.384722	0.271101
555.598597	0.270916
555.812453	0.271526
556.026291	0.271915
556.240111	0.272464
556.453913	0.272333
556.667696	0.272562
556.881461	0.273240
557.095208	0.274350
557.308937	0.274252
557.522647	0.274358
557.736339	0.273944
557.950013	0.273913
558.163669	0.273535
558.377307	0.273938
558.590926	0.274335
558.804527	0.274077
559.018110	0.273466
559.231675	0.273904
559.445221	0.274453
559.658749	0.274906
559.872259	0.274893
560.085751	0.275618
560.299225	0.275883
560.512680	0.276184
560.726117	0.276559
560.939536	0.277123
561.152937	0.276847
561.366319	0.277098
561.579683	0.277367
561.793029	0.277807
562.006357	0.277672
562.219667	0.277821
562.432958	0.277477
562.646231	0.277739
562.859486	0.278330
563.072723	0.278802
563.285941	0.278534
563.499141	0.278739
563.712323	0.278816
563.925487	0.279231
564.138632	0.279348
564.351760	0.280007
564.564869	0.279874
564.777960	0.279662
564.991032	0.279477
565.204087	0.279820
565.417123	0.279915
565.630141	0.280448
565.843140	0.280692
566.056122	0.280818
566.269085	0.281114
566.482030	0.281116
566.694957	0.281287
566.907866	0.281961
567.120756	0.282051
567.333628	0.282235
567.546482	0.282258
567.759318	0.282161
567.972135	0.282320
568.184935	0.282315
568.397716	0.282817
568.610478	0.283175
568.823223	0.283371
569.035949	0.284020
569.248657	0.284400
569.461347	0.284360
569.674019	0.284802
569.886672	0.284788
570.099308	0.284786
570.311925	0.285019
570.524523	0.285151
570.737104	0.285470
570.949666	0.285190
571.162210	0.284793
571.374736	0.285171
571.587244	0.285461
571.799733	0.285842
572.012205	0.285908
572.224658	0.285934
572.437092	0.285824
572.649509	0.285938
572.861907	0.285787
573.074287	0.286718
573.286649	0.286442
573.498993	0.286014
573.711318	0.286043
573.923625	0.286104
574.135914	0.286213
574.348185	0.286389
574.560438	0.286872
574.772672	0.287826
574.984888	0.288041
575.197086	0.288437
575.409266	0.288846
575.621427	0.289349
575.833570	0.289689
576.045695	0.289755
576.257802	0.290282
576.469890	0.289702
576.681961	0.289316
576.894013	0.289252
577.106046	0.289871
577.318062	0.290316
577.530059	0.290351
577.742039	0.290601
577.954000	0.291173
578.165942	0.291051
578.377867	0.291645
578.589773	0.292063
578.801661	0.292051
579.013531	0.291835
579.225382	0.291608
579.437216	0.291760
579.649031	0.292048
579.860828	0.291964
580.072606	0.291990
580.284367	0.292256
580.496109	0.292262
580.707833	0.292308
580.919539	0.292242
581.131227	0.292755
581.342896	0.292907
581.554547	0.293130
581.766180	0.293193
581.977795	0.293484
582.189391	0.293377
582.400969	0.293912
582.612529	0.294402
582.824071	0.294694
583.035595	0.294559
583.247100	0.294561
583.458587	0.294641
583.670056	0.295100
583.881506	0.295364
584.092939	0.295411
584.304353	0.294886
584.515749	0.295098
584.727127	0.295807
584.938486	0.296156
585.149828	0.296202
585.361151	0.296379
585.572456	0.296581
585.783742	0.296480
585.995011	0.296981
586.206261	0.297594
586.417493	0.297783
586.628706	0.297777
586.839902	0.298176
587.051079	0.298734
587.262238	0.298740
587.473379	0.299226
587.684502	0.299628
587.895606	0.299587
588.106692	0.299811
588.317760	0.299769
588.528810	0.300074
588.739841	0.300304
588.950855	0.300356
589.161850	0.300930
589.372827	0.300894
589.583785	0.300955
589.794726	0.301256
590.005648	0.301495
590.216552	0.302066
590.427437	0.301728
590.638305	0.301878
590.849154	0.302405
591.059985	0.302468
591.270798	0.302579
591.481592	0.303057
591.692369	0.303066
591.903127	0.302962
592.113867	0.302935
592.324588	0.303185
592.535292	0.303154
592.745977	0.303360
592.956644	0.303654
593.167293	0.303613
593.377923	0.303377
593.588536	0.303176
593.799130	0.303377
594.009706	0.303102
594.220263	0.303398
594.430803	0.303479
594.641324	0.303612
594.851827	0.303402
595.062312	0.303852
595.272778	0.304564
595.483227	0.305098
595.693657	0.305065
595.904069	0.305686
596.114462	0.305965
596.324838	0.306034
596.535195	0.305920
596.745534	0.306169
596.955855	0.306017
597.166157	0.305793
597.376441	0.305805
597.586707	0.306227
597.796955	0.306360
598.007185	0.306592
598.217396	0.306803
598.427589	0.307285
598.637764	0.307691
598.847921	0.308049
599.058060	0.308268
599.268180	0.308849
599.478282	0.309127
599.688366	0.309084
599.898431	0.309425
600.108479	0.310032
600.318508	0.309607
600.528519	0.309710
600.738511	0.309969
600.948486	0.310077
601.158442	0.310135
601.368380	0.310711
601.578300	0.310732
601.788202	0.310860
601.998085	0.310303
602.207950	0.310548
602.417797	0.310431
602.627626	0.310559
602.837436	0.310881
603.047228	0.311094
603.257002	0.310436
603.466758	0.310655
603.676496	0.310665
603.886215	0.311227
604.095916	0.311546
604.305599	0.311713
604.515264	0.311364
604.724910	0.311447
604.934538	0.311485
605.144148	0.311999
605.353740	0.312339
605.563314	0.312025
605.772869	0.312337
605.982406	0.312299
606.191925	0.312723
606.401425	0.313146
606.610908	0.313646
606.820372	0.314018
607.029818	0.314090
607.239246	0.314145
607.448655	0.315005
607.658047	0.314823
607.867420	0.315288
608.076775	0.315769
608.286111	0.316244
608.495430	0.315918
608.704730	0.316117
608.914012	0.316138
609.123275	0.316192
609.332521	0.316219
609.541748	0.316321
609.750957	0.316044
609.960148	0.315875
610.169321	0.315539
610.378475	0.316135
610.587611	0.316048
610.796729	0.316248
611.005829	0.316868
611.214910	0.316552
611.423974	0.316942
611.633019	0.317321
611.842045	0.317190
612.051054	0.317609
612.260044	0.317376
612.469017	0.317368
612.677970	0.317550
612.886906	0.317028
613.095824	0.317543
613.304723	0.317471
613.513604	0.317680
613.722467	0.317566
613.931311	0.317597
614.140138	0.317827
614.348946	0.318232
614.557736	0.318135
614.766507	0.318776
614.975261	0.318804
615.183996	0.318813
615.392713	0.318538
615.601412	0.319478
615.810092	0.319815
616.018754	0.319745
616.227399	0.319623
616.436024	0.320119
616.644632	0.319850
616.853222	0.320222
617.061793	0.320794
617.270346	0.321467
617.478880	0.321212
617.687397	0.321063
617.895895	0.321362
618.104375	0.321736
618.312837	0.322064
618.521281	0.322534
618.729706	0.322226
618.938113	0.322194
619.146502	0.321959
619.354873	0.322049
619.563226	0.322064
619.771560	0.322253
619.979876	0.322322
620.188174	0.322418
620.396453	0.322309
620.604715	0.322478
620.812958	0.322636
621.021183	0.322951
621.229390	0.323246
621.437578	0.323666
621.645748	0.324027
621.853900	0.324216
622.062034	0.324420
622.270150	0.325111
622.478247	0.325444
622.686326	0.325995
622.894387	0.326313
623.102430	0.326710
623.310454	0.327184
623.518461	0.327249
623.726449	0.327376
623.934418	0.327232
624.142370	0.326752
624.350303	0.326906
624.558218	0.326595
624.766115	0.326601
624.973994	0.326371
625.181855	0.326212
625.389697	0.326001
625.597521	0.326145
625.805327	0.326443
626.013114	0.326524
626.220883	0.326795
626.428634	0.326998
626.636367	0.327393
626.844082	0.327488
627.051778	0.327791
627.259457	0.327768
627.467117	0.327665
627.674758	0.327873
627.882382	0.328304
628.089987	0.328357
628.297574	0.328555
628.505143	0.328318
628.712694	0.328681
628.920226	0.328815
629.127740	0.328980
629.335236	0.329363
629.542714	0.329498
629.750174	0.329468
629.957615	0.329480
630.165038	0.329405
630.372443	0.329942
630.579829	0.329986
630.787198	0.330177
630.994548	0.330716
631.201880	0.330856
631.409194	0.331044
631.616489	0.331421
631.823766	0.331993
632.031025	0.332401
632.238266	0.332279
632.445489	0.332554
632.652693	0.332664
632.859879	0.332816
633.067047	0.332810
633.274197	0.332820
633.481329	0.332876
633.688442	0.332683
633.895537	0.332879
634.102614	0.333201
634.309672	0.333405
634.516713	0.333664
634.723735	0.333868
634.930739	0.334055
635.137724	0.334040
635.344692	0.334375
635.551641	0.334430
635.758572	0.334612
635.965485	0.334818
636.172379	0.334926
636.379256	0.334810
636.586114	0.334812
636.792954	0.335170
636.999775	0.335649
637.206579	0.335654
637.413364	0.336160
637.620131	0.336360
637.826880	0.336619
638.033610	0.336869
638.240323	0.337248
638.447017	0.337793
638.653692	0.337827
638.860350	0.337950
639.066990	0.338115
639.273611	0.338107
639.480214	0.338311
639.686798	0.338570
639.893365	0.338493
640.099913	0.338578
640.306443	0.338372
640.512955	0.338877
640.719449	0.339068
640.925924	0.339239
641.132381	0.339462
641.338820	0.339525
641.545241	0.339722
641.751644	0.340128
641.958028	0.340435
642.164394	0.340896
642.370742	0.340812
642.577071	0.340906
642.783383	0.341033
642.989676	0.341216
643.195951	0.341496
643.402207	0.341351
643.608446	0.341584
643.814666	0.341628
644.020868	0.341908
644.227052	0.342088
644.433218	0.342418
644.639365	0.342716
644.845494	0.342779
645.051605	0.343013
645.257698	0.343159
645.463772	0.343328
645.669828	0.343584
645.875866	0.343612
646.081886	0.343925
646.287888	0.344217
646.493871	0.344805
646.699836	0.345073
646.905783	0.345176
647.111712	0.345751
647.317622	0.345736
647.523514	0.345901
647.729388	0.345726
647.935244	0.345950
648.141082	0.345793
648.346901	0.345535
648.552702	0.345869
648.758485	0.346064
648.964250	0.345962
649.169996	0.346185
649.375724	0.346561
649.581434	0.346967
649.787126	0.347113
649.992800	0.347654
650.198455	0.347893
650.404092	0.347600
650.609711	0.347616
650.815311	0.347806
651.020894	0.348140
651.226458	0.347829
651.432004	0.347781
651.637532	0.347727
651.843041	0.347855
652.048532	0.348126
652.254006	0.348639
652.459460	0.348747
652.664897	0.349083
652.870315	0.349244
653.075716	0.349689
653.281097	0.350371
653.486461	0.350659
653.691807	0.351035
653.897134	0.351117
654.102443	0.351458
654.307734	0.351648
654.513006	0.351641
654.718261	0.351982
654.923497	0.352272
655.128715	0.352285
655.333915	0.352742
655.539096	0.352763
655.744259	0.353230
655.949404	0.353463
656.154531	0.354133
656.359640	0.354584
656.564730	0.354640
656.769802	0.355292
656.974856	0.355653
657.179892	0.356079
657.384909	0.356211
657.589908	0.356406
657.794889	0.356500
657.999852	0.356635
658.204797	0.357013
658.409723	0.357111
658.614631	0.356807
658.819521	0.357080
659.024393	0.357046
659.229246	0.357338
659.434081	0.357447
659.638898	0.357728
659.843697	0.357830
660.048478	0.357819
660.253240	0.357999
660.457984	0.358094
660.662710	0.358221
660.867417	0.358389
661.072107	0.358788
661.276778	0.359112
661.481431	0.359202
661.686066	0.359381
661.890682	0.359630
662.095281	0.360033
662.299861	0.360285
662.504422	0.360505
662.708966	0.360540
662.913491	0.360451
663.117999	0.360645
663.322488	0.361095
663.526958	0.361274
663.731411	0.361640
663.935845	0.361666
664.140261	0.361984
664.344659	0.362051
664.549038	0.362557
664.753400	0.362908
664.957743	0.363107
665.162068	0.363259
665.366375	0.363783
665.570663	0.363681
665.774933	0.364035
665.979185	0.364181
666.183419	0.364496
666.387635	0.364693
666.591832	0.365006
666.796011	0.365283
667.000172	0.365694
667.204315	0.365523
667.408439	0.366089
667.612545	0.366612
667.816634	0.367051
668.020703	0.367543
668.224755	0.367892
668.428788	0.368240
668.632803	0.368707
668.836800	0.368852
669.040779	0.369600
669.244739	0.369977
669.448681	0.370341
669.652605	0.370590
669.856511	0.370570
670.060399	0.370872
670.264268	0.371179
670.468119	0.371466
670.671952	0.371598
670.875767	0.371658
671.079563	0.371969
671.283341	0.371756
671.487101	0.372235
671.690843	0.372545
671.894567	0.372532
672.098272	0.372517
672.301959	0.372538
672.505628	0.372906
672.709278	0.372943
672.912911	0.372678
673.116525	0.372851
673.320121	0.372857
673.523699	0.373151
673.727258	0.373213
673.930799	0.373416
674.134322	0.373585
674.337827	0.373543
674.541314	0.373897
674.744782	0.374244
674.948232	0.374611
675.151664	0.374726
675.355078	0.374803
675.558474	0.375145
675.761851	0.375491
675.965210	0.375776
676.168551	0.376392
676.371873	0.376774
676.575178	0.376747
676.778464	0.377080
676.981732	0.377412
677.184981	0.377722
677.388213	0.378162
677.591426	0.378054
677.794621	0.378046
677.997798	0.377930
678.200956	0.377994
678.404097	0.378422
678.607219	0.378522
678.810323	0.378586
679.013408	0.378599
679.216476	0.378464
679.419525	0.378782
679.622556	0.379188
679.825569	0.379357
680.028563	0.379463
680.231540	0.379567
680.434498	0.379806
680.637438	0.379999
680.840359	0.380103
681.043263	0.380522
681.246148	0.380932
681.449015	0.381044
681.651864	0.381371
681.854694	0.381466
682.057506	0.381610
682.260301	0.381743
682.463076	0.382352
682.665834	0.382719
682.868573	0.382961
683.071295	0.383196
683.273998	0.383508
683.476682	0.383638
683.679349	0.383953
683.881997	0.384349
684.084627	0.384853
684.287239	0.384649
684.489833	0.385135
684.692408	0.385530
684.894965	0.385550
685.097504	0.385745
685.300025	0.386139
685.502527	0.386359
685.705012	0.386349
685.907478	0.386378
686.109925	0.386706
686.312355	0.386628
686.514766	0.386671
686.717159	0.386762
686.919534	0.386972
687.121891	0.386964
687.324230	0.387314
687.526550	0.387631
687.728852	0.387636
687.931136	0.387848
688.133401	0.388060
688.335649	0.387981
688.537878	0.388186
688.740089	0.388348
688.942281	0.388708
689.144456	0.388805
689.346612	0.389148
689.548750	0.389467
689.750870	0.389818
689.952971	0.390103
690.155055	0.390629
690.357120	0.391054
690.559167	0.391363
690.761195	0.391332
690.963206	0.391382
691.165198	0.391434
691.367172	0.391781
691.569128	0.391871
691.771065	0.392281
691.972984	0.392472
692.174885	0.392656
692.376768	0.392848
692.578633	0.393250
692.780479	0.393634
692.982308	0.393910
693.184118	0.393902
693.385909	0.394103
