sample name	sample
index	1133
start time	 04-22-2021  02:24:52 PM
880	0.181555
Peak Time (s)	102.035
Peak Height 	0.1816
calc peak height	100,103
Baseline Time (s)	10.035
Baseline Value 	-0.006147
subtract baseline	10,4
Abs	0.129112
Peak Time (s)	100.537
Peak Height 	0.1291
calc peak height	100,103
Baseline Time (s)	9.037
Baseline Value 	0.003555
subtract baseline	10,3
PK_550	0.079114
Peak Time (s)	102.035
Peak Height 	0.07911
calc peak height	100,103
Baseline Time (s)	9.537
Baseline Value 	5.668E-4
subtract baseline	10,2
PK_880	0.126078
Peak Time (s)	100.537
Peak Height 	0.1261
calc peak height	100,103
Baseline Time (s)	11.536
Baseline Value 	0.002414
subtract baseline	10,1


Time (s)	A880-A510	A880-A775	A880-A975	A880	I510	I775	I975	I880	
0.034000	0.000194	-0.000334	-0.003166	0.002615	6281.711488	43122.839005	3918.167733	22705.413079
0.539500	-0.000417	0.000658	-0.004018	0.005351	6256.200767	42962.177798	3909.984892	22581.442328
1.035000	0.001105	0.000532	-0.004180	0.005039	6270.155443	42979.314505	3910.326224	22595.562385
1.536500	-0.003156	-0.000511	-0.003432	0.006753	6224.900859	42726.528449	3908.130849	22518.202865
2.035500	0.001189	0.000255	-0.002328	0.001378	6298.837050	43291.816372	3922.931213	22761.743960
2.538500	-0.000293	-0.000428	0.000577	0.000542	6293.871303	43306.030805	3931.578447	22799.900997
3.036000	0.000558	0.000542	-0.002248	-0.000726	6310.180983	43514.080450	3927.968703	22857.894248
3.537500	0.000086	-0.000018	-0.003265	0.003758	6272.146802	43046.570964	3915.327272	22653.526162
4.037000	0.002712	0.000723	0.004413	0.001019	6313.337393	43368.504990	3939.402674	22778.105953
4.537000	0.000544	0.000683	0.001808	0.000842	6297.989250	43381.206357	3933.738655	22786.170032
5.037000	-0.000797	0.000127	-0.000886	0.000359	6291.408143	43374.510856	3928.610105	22808.258957
5.535000	0.000824	0.000264	-0.003704	0.000145	6305.512280	43407.080261	3922.601157	22818.013382
6.035000	0.000626	0.000522	0.000476	0.000524	6301.072585	43395.804876	3931.382795	22800.687001
6.535500	0.000900	0.000768	-0.003514	0.001118	6298.611253	43363.498393	3920.801733	22773.582489
7.035500	0.000287	-0.000155	0.003308	-0.000033	6302.750002	43384.708128	3939.279234	22826.183914
7.536000	-0.000171	-0.000187	-0.004730	-0.000178	6300.339758	43395.108465	3920.985283	22832.782851
8.036500	0.002120	0.000417	0.008478	0.000464	6313.060014	43391.688928	3950.267523	22803.463983
8.536500	0.002951	0.000280	0.000374	0.000356	6320.320191	43389.027306	3931.537651	22808.398680
9.037000	0.000267	0.000237	0.000000	0.000309	6299.961981	43389.377626	3930.778885	22810.537897
9.537000	-0.000276	0.000000	-0.003377	-0.000238	6299.996518	43418.112793	3924.236034	22835.531138
10.035000	-0.001475	-0.000110	-0.001425	0.000000	6288.958818	43385.778241	3928.193274	22824.657137
10.535000	-0.000694	-0.000639	-0.002059	-0.000649	6299.947604	43396.980476	3928.230163	22854.376950
11.035000	0.003330	-0.000021	0.004941	-0.000239	6327.860760	43416.260943	3943.589286	22835.590033
11.535500	0.000000	0.000940	0.000463	0.000466	6296.704334	43440.086688	3931.488213	22803.362013
12.039000	0.000680	0.000279	0.000215	-0.000118	6306.434785	43432.962167	3932.268237	22830.069819
12.536000	-0.000179	0.000944	0.000042	0.000287	6296.704630	43457.077202	3930.926373	22811.532057
13.036000	0.002102	0.000464	0.002896	0.000283	6314.314050	43412.855779	3937.579357	22811.732155
13.536500	0.000422	-0.000294	0.002255	-0.000985	6311.135061	43460.305723	3939.042872	22869.757537
14.037000	-0.002530	-0.000259	-0.000730	0.001629	6268.435486	43220.943444	3926.033961	22750.283961
14.540000	-0.002446	-0.000327	-0.002655	0.001594	6269.338722	43217.792928	3921.680254	22751.872245
15.034500	0.000152	0.000818	0.005657	0.000261	6299.445811	43447.794311	3944.095681	22812.717448
15.534500	0.001275	0.000006	0.000692	-0.000459	6313.659289	43439.264813	3934.170893	22845.673632
16.035500	0.001972	0.000571	-0.000031	-0.000207	6317.090805	43468.371870	3931.904218	22834.112984
16.535500	0.002130	-0.000267	0.002577	-0.000784	6322.784585	43444.062943	3939.325435	22860.523326
17.036000	0.002318	0.000214	0.001555	-0.002107	6334.513757	43612.353916	3940.030340	22921.271906
17.539000	0.000393	0.000218	-0.002651	0.000574	6298.894808	43362.934186	3924.039729	22798.441752
18.036500	-0.001143	0.000280	0.002081	0.001019	6283.691334	43327.369704	3933.964207	22778.116424
18.536500	-0.000067	-0.000364	-0.000412	0.000190	6298.308873	43344.570553	3930.099389	22815.964503
19.037000	-0.000911	-0.000103	0.001049	0.000636	6288.405246	43327.428682	3932.456143	22795.611978
19.534500	-0.002394	-0.000703	-0.003296	-0.000253	6283.852553	43354.214696	3924.458660	22836.241699
20.037500	-0.000822	0.000431	-0.003312	0.000943	6286.731238	43348.480945	3921.669513	22781.578311
20.535000	-0.001254	0.000046	-0.003323	0.000173	6289.328690	43384.258436	3923.414542	22816.753997
21.035000	-0.003162	-0.000497	-0.002739	-0.000053	6276.453983	43354.792197	3925.282942	22827.102935
21.539000	0.001206	0.001654	-0.001495	0.001832	6295.468381	43379.473581	3923.802075	22741.040784
22.036000	-0.000196	-0.000150	-0.002038	0.000444	6295.360918	43340.843305	3925.750640	22804.339783
22.536000	0.001044	0.000737	-0.003545	0.000835	6301.899089	43386.885634	3921.381682	22786.515024
23.036500	-0.000619	0.000179	0.001505	0.000529	6291.464172	43363.536992	3933.764716	22800.494517
23.537000	0.002130	0.000087	0.002333	0.000801	6310.531783	43329.762635	3935.057608	22788.068388
24.037000	-0.000109	0.001171	-0.003075	0.001238	6289.940317	43389.764347	3921.534195	22768.108811
24.535500	-0.001336	0.000557	-0.000718	0.000877	6283.302983	43366.333307	3927.801385	22784.611405
25.035500	-0.002388	0.000255	-0.001452	0.000656	6276.950341	43358.819191	3926.615718	22794.693255
25.535000	-0.001493	0.000598	0.000801	0.000994	6281.200209	43359.188847	3931.047402	22779.235001
26.038000	0.000081	-0.000017	-0.003976	0.000428	6297.615624	43354.715878	3921.326305	22805.098353
26.536000	-0.000422	0.000063	-0.002636	0.000734	6291.405574	43333.745738	3923.704628	22791.122837
27.036500	0.001456	0.000625	0.004830	-0.001382	6322.190597	43582.936438	3946.015171	22887.946298
27.536000	0.002345	-0.000249	0.000263	-0.001663	6331.271821	43527.623852	3935.974224	22900.857746
28.037000	-0.000733	-0.000094	0.000298	-0.000790	6300.726231	43460.812527	3934.023405	22860.826205
28.537000	-0.000189	0.000472	-0.000909	-0.000948	6306.132554	43528.209812	3931.586641	22868.060356
29.037500	0.000446	-0.000041	0.003178	-0.000824	6310.069715	43468.813377	3940.826287	22862.364561
29.534500	-0.000301	0.000877	-0.000215	0.000010	6297.894139	43476.649762	3930.972729	22824.198711
30.035500	-0.000159	-0.000028	0.001611	-0.001083	6307.407588	43494.235520	3937.768467	22874.265237
30.535500	-0.002036	-0.000435	-0.003091	0.001931	6269.900348	43176.745074	3919.908252	22736.551583
31.036500	0.001036	0.000981	-0.002585	0.001574	6296.151997	43340.938850	3921.890555	22752.812781
31.538500	-0.002006	-0.000533	0.000420	-0.001435	6295.900953	43479.978332	3935.809764	22890.397061
32.036500	0.000793	0.000345	0.002186	-0.000368	6309.235355	43462.404511	3937.440063	22841.510802
32.536500	0.001724	0.000562	0.003080	-0.000470	6317.212547	43492.098866	3939.769551	22846.182718
33.037000	0.000194	-0.000123	-0.001326	-0.000821	6308.100888	43460.879854	3930.324028	22862.224807
33.537000	-0.001395	-0.000563	-0.004580	0.000663	6284.495209	43282.275849	3919.402012	22794.374941
34.035000	-0.001397	-0.000458	-0.002154	0.001059	6281.441174	43255.221437	3924.064964	22776.274586
34.535000	0.000603	0.000604	-0.000832	0.001874	6290.521756	43278.232687	3925.236809	22739.159574
35.035000	-0.002608	0.000817	-0.004853	0.001395	6269.629886	43342.368090	3917.099722	22760.973141
35.538500	0.001243	0.000057	0.003589	0.001283	6299.975865	43282.198560	3936.860045	22766.055595
36.036000	-0.001918	-0.000272	-0.001781	0.001139	6276.848164	43265.063445	3924.741913	22772.636094
36.536500	-0.000055	-0.000664	0.004638	0.000844	6293.380331	43256.124868	3940.338759	22786.097030
37.036500	-0.001017	0.000397	0.001145	0.001913	6277.817953	43255.402017	3929.715384	22737.374950
37.537000	-0.000774	0.000450	-0.000088	0.001426	6283.401256	43305.375558	3927.988017	22759.549669
38.037000	0.000873	0.000523	-0.002267	0.001519	6295.317192	43303.529768	3922.747439	22755.306071
38.537500	-0.001268	0.000420	0.003299	0.001376	6280.002449	43307.245169	3935.967683	22761.819642
39.034500	-0.002241	0.000013	0.002444	0.001579	6271.020536	43250.667645	3933.504169	22752.557936
39.534500	-0.001456	0.000553	0.005278	0.001809	6275.256619	43279.399773	3939.577359	22742.086537
40.035500	-0.000387	0.000703	-0.002135	0.001766	6283.763717	43297.380218	3922.483122	22744.078538
40.535500	-0.001684	-0.000236	-0.000667	0.001387	6276.744308	43245.469445	3926.739984	22761.339013
41.036000	-0.001843	0.000384	-0.000507	0.001880	6271.757167	43257.239109	3925.969737	22738.852901
41.536000	0.000428	0.000450	0.004089	0.002137	6287.161684	43239.491576	3936.035987	22727.168805
42.036500	0.000734	0.000196	0.000147	0.001864	6291.610817	43241.333429	3927.519561	22739.616106
42.537000	-0.001047	-0.000522	-0.004448	0.001280	6282.431616	43228.919429	3918.288763	22766.221010
43.037000	-0.000742	0.000225	0.002694	0.001689	6281.634212	43260.244532	3933.832194	22747.577276
43.534500	0.002215	0.001416	0.002225	-0.002076	6333.465062	43721.836868	3941.526371	22919.803488
44.035000	0.002016	0.000184	-0.003462	-0.000281	6318.011581	43439.279168	3924.140239	22837.526355
44.538500	-0.001090	0.000770	-0.000407	0.000103	6291.119993	43458.104816	3930.312616	22819.963598
45.038000	-0.001394	0.000311	-0.000273	0.000396	6286.538249	43388.099778	3929.944241	22806.543789
45.536000	0.000648	0.000498	0.002173	-0.000145	6306.399557	43455.825173	3936.889790	22831.300685
46.036000	-0.000773	0.000822	0.000084	0.000610	6289.668570	43415.752949	3930.275503	22796.802180
46.536500	0.000378	0.000150	0.002915	-0.000061	6303.666924	43415.591925	3938.426481	22827.437403
47.036500	-0.002226	-0.000400	-0.004630	0.003313	6257.937277	43052.430015	3913.228586	22673.716731
47.537500	-0.001827	0.000400	0.002929	0.002063	6270.491717	43241.807620	3933.508214	22730.540270
48.065000	0.002218	0.000823	-0.001688	0.000516	6313.412197	43424.539896	3926.393247	22801.066889
48.535000	-0.001782	0.000707	0.000671	0.000065	6286.111261	43455.762698	3932.904303	22821.705749
49.035500	-0.002190	0.000360	-0.000827	0.003514	6256.690306	43104.019784	3921.472209	22664.620861
49.539000	0.003124	0.000076	0.002058	-0.002760	6345.866386	43660.445595	3942.738117	22951.260305
50.086000	-0.000301	-0.000035	0.005719	0.002103	6281.839208	43197.800304	3939.920722	22728.693681
50.628000	0.009023	-0.002954	0.019071	0.233672	4950.681190	26440.752608	3538.496526	14559.980763
51.036000	0.014540	-0.009081	-0.014290	0.215523	5062.252243	27097.802189	3517.330251	15054.886952
51.536500	0.005265	-0.025040	-0.021835	-0.106188	7277.984255	51688.319154	4147.571682	28326.112609
52.037000	0.003698	-0.092412	-0.013714	-0.281560	9403.728702	65425.300634	4791.141409	40944.723759
52.537000	0.002615	-0.078125	-0.004685	-0.262080	9105.662334	64683.723413	4746.736476	39278.719260
53.037500	-0.000555	-0.051615	-0.007710	-0.222102	8524.281726	62801.095137	4574.858690	36085.001361
53.535000	0.005299	-0.040501	-0.004050	-0.205532	8388.638430	62054.993805	4526.494349	34845.089772
54.035000	-0.005240	-0.027628	-0.007055	-0.171386	7857.694858	59233.554890	4395.071091	32434.370624
54.538500	-0.007208	-0.023879	-0.010131	-0.172645	7849.713071	59885.379885	4388.928254	32519.945587
55.038500	-0.004281	-0.029320	-0.010200	-0.181267	7981.518022	60303.270784	4418.073455	33112.598443
55.536000	0.000253	-0.027612	0.001577	-0.175916	7972.091383	59824.965834	4440.355148	32743.436860
56.039000	0.001997	-0.014937	-0.001666	-0.128706	7473.745928	55483.690548	4273.991414	29675.866504
56.536500	0.005314	-0.009644	0.005043	-0.095823	7176.591738	52255.355692	4195.010989	27727.993913
57.039500	0.003058	-0.003475	-0.001332	-0.062249	6842.555671	49245.278282	4083.270971	25885.601755
57.537500	0.011781	-0.000670	0.005452	-0.051410	6823.682383	48398.285827	4072.495461	25320.624577
58.037000	0.012792	0.002501	0.013711	-0.037562	6711.105917	47296.535766	4057.802906	24618.961144
58.535500	0.016107	0.006186	0.013884	-0.016893	6564.110288	45598.958392	4005.516270	23612.422307
59.040500	0.022937	0.010307	0.021091	0.009724	6403.525901	43450.220421	3958.225191	22384.903778
59.536000	0.028873	0.014683	0.028372	0.028450	6303.543155	42136.589756	3931.314130	21565.263852
60.038500	0.030619	0.017267	0.025947	0.039747	6230.788568	41359.911313	3899.971074	21087.628846
60.536000	0.035701	0.018627	0.026425	0.044882	6230.386235	41028.208777	3889.556124	20874.579462
61.039500	0.035336	0.021476	0.029432	0.072038	6029.473780	38960.066942	3837.307496	19788.881678
61.537000	0.039559	0.024193	0.033389	0.068554	6084.462868	39476.764496	3853.100217	19924.429108
62.040500	0.042743	0.025561	0.036507	0.066184	6124.693601	39791.701335	3864.919398	20017.207510
62.537500	0.046177	0.027845	0.043157	0.066290	6149.055426	39976.602877	3879.212921	20013.069617
63.042500	0.047690	0.029246	0.050775	0.064255	6175.222933	40269.971824	3900.689715	20093.133363
63.540500	0.050797	0.029704	0.048806	0.065477	6189.218025	40204.557200	3893.536791	20045.015006
64.041500	0.053164	0.031204	0.052636	0.068890	6181.447113	40041.154646	3894.469863	19911.291213
64.536000	0.056883	0.034344	0.055267	0.073146	6177.462075	39946.191220	3890.843749	19746.017263
65.039000	0.056639	0.035747	0.059719	0.077224	6145.582704	39719.582640	3891.677032	19589.165109
65.539500	0.056373	0.036202	0.060391	0.082667	6103.960480	39300.594987	3881.097622	19382.073825
66.039500	0.058481	0.038510	0.054238	0.086194	6093.708276	39198.986121	3859.994005	19249.298565
66.537000	0.060691	0.039407	0.060603	0.088899	6090.128288	39048.668598	3867.915989	19148.149325
67.040000	0.059394	0.041259	0.059074	0.098384	6013.340290	38421.242124	3844.268607	18798.503688
67.535000	0.064847	0.042818	0.060081	0.094889	6076.934996	38835.501741	3853.863493	18926.466407
68.037500	0.065152	0.042318	0.059256	0.096403	6068.269050	38669.825990	3848.866043	18870.917505
68.538000	0.067592	0.044195	0.068149	0.097950	6074.663936	38696.854016	3864.649073	18814.331244
69.041000	0.064758	0.045431	0.064804	0.106762	5992.217040	38080.197078	3838.674235	18495.971020
69.535500	0.068673	0.046168	0.074923	0.100724	6062.540584	38631.194231	3873.358965	18713.427883
70.039000	0.071779	0.048831	0.073149	0.103519	6064.768313	38620.356689	3863.419597	18612.383081
70.536500	0.071736	0.047345	0.075612	0.103457	6064.899739	38503.900244	3868.898791	18614.610222
71.039500	0.070656	0.049037	0.071972	0.113321	5987.596165	37842.713529	3839.955697	18263.127711
71.537000	0.074189	0.048706	0.074227	0.107863	6050.960479	38256.021559	3856.375774	18456.622612
72.040000	0.077727	0.051116	0.084242	0.110645	6056.351682	38225.904320	3872.042714	18357.687728
72.535000	0.079995	0.051714	0.079287	0.110445	6074.008138	38290.634618	3861.716570	18364.808445
73.035000	0.077512	0.052335	0.075743	0.118666	5998.153417	37678.971753	3836.641599	18075.977414
73.535500	0.083279	0.053789	0.086207	0.112285	6084.382233	38309.729324	3872.753247	18299.666318
74.038000	0.085734	0.054632	0.079303	0.112728	6098.894829	38342.236820	3856.831233	18284.037294
74.536000	0.086029	0.054782	0.090426	0.112398	6103.423361	38381.239994	3881.770732	18295.690892
75.036000	0.083234	0.055661	0.085429	0.118646	6038.617654	37946.979330	3857.278189	18076.696283
75.537000	0.090042	0.057617	0.091161	0.114312	6118.657271	38456.363781	3879.173174	18228.275149
76.036500	0.088199	0.057153	0.090874	0.114488	6104.005047	38404.203525	3878.155582	18222.089224
76.534500	0.091500	0.058382	0.093368	0.115626	6119.705818	38411.583388	3881.138642	18182.147563
77.034500	0.087678	0.058725	0.088889	0.122176	6045.098067	37909.500246	3857.126725	17954.322874
77.535000	0.089882	0.059774	0.092969	0.118796	6085.046875	38267.080366	3873.302694	18071.481896
78.038000	0.093123	0.061629	0.098941	0.121231	6090.851973	38220.047447	3881.067945	17987.000093
78.535500	0.094921	0.062790	0.102130	0.123631	6086.509662	38119.742357	3882.808309	17904.189656
79.035500	0.090921	0.061050	0.090986	0.129821	6013.976276	37484.874039	3845.276060	17692.746999
79.536000	0.095153	0.062827	0.098739	0.127028	6063.800500	37849.318869	3867.931240	17787.772844
80.036500	0.097961	0.064159	0.098678	0.130588	6058.422538	37671.180394	3860.091073	17666.745995
80.537000	0.100004	0.065175	0.100363	0.133286	6053.754378	37537.298408	3857.910054	17575.694943
81.037000	0.097388	0.065457	0.101351	0.142396	5971.300368	36842.974182	3840.598683	17272.365471
81.537000	0.100318	0.066437	0.103320	0.137989	6022.638615	37265.066869	3854.161997	17418.324980
82.034500	0.102778	0.066512	0.103546	0.139541	6029.042840	37148.705712	3851.323481	17366.732822
82.535500	0.098984	0.066480	0.103390	0.140596	5994.954763	37063.462894	3848.741398	17331.798445
83.035000	0.101110	0.066585	0.105277	0.147425	5962.246022	36540.691853	3838.271002	17107.624613
83.536000	0.105492	0.068162	0.107486	0.144438	6013.646919	36894.612163	3849.282427	17205.241211
84.035500	0.106104	0.066482	0.107768	0.144480	6017.660219	36760.651368	3849.794158	17203.863519
84.536000	0.106332	0.068131	0.105034	0.146208	6007.119074	36754.521831	3840.327600	17147.328874
85.036500	0.103057	0.068039	0.106053	0.153154	5936.203667	36212.443718	3827.898725	16922.252021
85.536500	0.110846	0.069069	0.111732	0.149178	6017.975149	36597.124595	3848.230114	17050.662824
86.039500	0.112279	0.069276	0.112920	0.151321	6012.982079	36447.902490	3846.199975	16981.321772
86.534500	0.112592	0.068789	0.113568	0.151827	6011.618752	36371.575801	3846.500269	16964.996624
87.034500	0.108439	0.069746	0.110849	0.159252	5931.293405	35878.631408	3825.192221	16727.618868
87.538000	0.114472	0.070680	0.117129	0.155127	6001.651239	36263.542724	3847.053778	16858.988430
88.035500	0.114369	0.070542	0.113793	0.156526	5991.148188	36146.131157	3837.040476	16814.307175
88.536000	0.113836	0.070892	0.117248	0.157309	5981.965479	36113.103857	3842.677297	16789.348708
89.036000	0.116508	0.071005	0.119069	0.158236	5994.145304	36051.228980	3844.571845	16759.874505
89.536500	0.116522	0.071757	0.119833	0.159970	5982.139989	35976.598152	3842.516589	16704.887718
90.036500	0.116108	0.071496	0.121742	0.160503	5975.553991	35916.400900	3845.433686	16688.034717
90.537000	0.118340	0.072992	0.126444	0.162046	5980.352095	35912.955892	3852.163685	16639.374760
91.037500	0.116360	0.073578	0.117091	0.163625	5955.682257	35837.823150	3829.080932	16589.726532
91.535000	0.118676	0.072785	0.118402	0.163565	5972.124945	35782.468285	3831.942807	16591.606573
92.038000	0.120862	0.073056	0.118908	0.164488	5980.906853	35733.354687	3831.072169	16562.688711
92.535500	0.120936	0.074190	0.123545	0.166168	5969.748102	35692.264206	3837.271209	16510.165617
93.035000	0.119663	0.073674	0.117621	0.166355	5959.646149	35639.473971	3824.505960	16504.350492
93.536000	0.121761	0.074714	0.123961	0.167904	5963.442201	35601.269473	3834.499879	16456.146105
94.036000	0.120326	0.075011	0.128931	0.168817	5947.239786	35555.109809	3843.048529	16427.803387
94.536500	0.122016	0.076459	0.128797	0.170263	5948.917499	35555.210481	3839.708283	16383.030114
95.037000	0.120686	0.075137	0.123212	0.169798	5942.968128	35491.144878	3828.971917	16397.421017
95.537000	0.123266	0.075381	0.122730	0.170487	5955.994568	35457.938994	3826.535136	16376.129651
96.036500	0.119868	0.075393	0.120853	0.171195	5927.785504	35405.981345	3821.176455	16354.266089
96.535000	0.121279	0.076373	0.126751	0.172361	5929.461637	35392.117873	3831.009822	16318.372739
97.038000	0.120273	0.076620	0.123393	0.176285	5895.929108	35119.316798	3815.922434	16198.251256
97.535500	0.121241	0.076653	0.125404	0.173773	5919.557959	35307.893824	3825.262626	16275.023908
