sample name	sample
index	854
start time	 04-08-2021  10:59:51 AM


Wavelength (nm)	Absorbance
494.344910	-0.085182
494.563924	-0.085182
494.782919	-0.085182
495.001897	-0.042727
495.220856	-0.035854
495.439797	-0.021812
495.658719	-0.017720
495.877624	-0.017238
496.096510	-0.014198
496.315378	-0.024276
496.534227	-0.025678
496.753059	-0.021607
496.971872	-0.022340
497.190667	0.047250
497.409444	0.074015
497.628203	0.084279
497.846943	0.088677
498.065665	0.092289
498.284369	0.094567
498.503055	0.098471
498.721723	0.099067
498.940372	0.099061
499.159003	0.099224
499.377616	0.099869
499.596210	0.100441
499.814787	0.101675
500.033345	0.101824
500.251885	0.102659
500.470406	0.100842
500.688910	0.101424
500.907395	0.102286
501.125862	0.102243
501.344311	0.102106
501.562742	0.102729
501.781154	0.102698
501.999548	0.103321
502.217924	0.103012
502.436282	0.103715
502.654621	0.103413
502.872942	0.103500
503.091245	0.103634
503.309530	0.104018
503.527797	0.103523
503.746045	0.104120
503.964275	0.103734
504.182487	0.104045
504.400681	0.103981
504.618856	0.104756
504.837013	0.105340
505.055152	0.105274
505.273273	0.104396
505.491376	0.105144
505.709460	0.104726
505.927526	0.104638
506.145574	0.104905
506.363604	0.104828
506.581615	0.104375
506.799608	0.104777
507.017583	0.105259
507.235540	0.105323
507.453478	0.104341
507.671399	0.104405
507.889301	0.105222
508.107185	0.105510
508.325050	0.105816
508.542898	0.106468
508.760727	0.106149
508.978538	0.106682
509.196330	0.107532
509.414105	0.108130
509.631861	0.108549
509.849599	0.108736
510.067319	0.109517
510.285021	0.110480
510.502704	0.110800
510.720369	0.111063
510.938016	0.111090
511.155645	0.111446
511.373255	0.111099
511.590848	0.111186
511.808422	0.111641
512.025977	0.111162
512.243515	0.110952
512.461034	0.110750
512.678536	0.110950
512.896018	0.110723
513.113483	0.111047
513.330930	0.111213
513.548358	0.111254
513.765768	0.110720
513.983160	0.110627
514.200533	0.110605
514.417889	0.110571
514.635226	0.110209
514.852545	0.110918
515.069845	0.111169
515.287128	0.112552
515.504392	0.113197
515.721638	0.113257
515.938866	0.113489
516.156075	0.114678
516.373267	0.115701
516.590440	0.116194
516.807594	0.116123
517.024731	0.115670
517.241850	0.116149
517.458950	0.115547
517.676032	0.116049
517.893095	0.116274
518.110141	0.116188
518.327168	0.116457
518.544177	0.116896
518.761168	0.116654
518.978141	0.116699
519.195095	0.115977
519.412031	0.117294
519.628949	0.117267
519.845849	0.118042
520.062731	0.117652
520.279594	0.117634
520.496439	0.117021
520.713266	0.117440
520.930074	0.117640
521.146865	0.118511
521.363637	0.118559
521.580391	0.119089
521.797127	0.118718
522.013844	0.118997
522.230543	0.119225
522.447224	0.120112
522.663887	0.119960
522.880532	0.120044
523.097158	0.119740
523.313766	0.119713
523.530356	0.119384
523.746928	0.119444
523.963481	0.119386
524.180017	0.119181
524.396534	0.119282
524.613032	0.120882
524.829513	0.121330
525.045975	0.122188
525.262420	0.122169
525.478845	0.122462
525.695253	0.122931
525.911643	0.123460
526.128014	0.123645
526.344367	0.123810
526.560702	0.123700
526.777018	0.123993
526.993316	0.123669
527.209597	0.123467
527.425858	0.123763
527.642102	0.124099
527.858328	0.123918
528.074535	0.124699
528.290724	0.125302
528.506894	0.125754
528.723047	0.126581
528.939181	0.126875
529.155297	0.127258
529.371395	0.128109
529.587475	0.128618
529.803536	0.128953
530.019579	0.129314
530.235604	0.129486
530.451611	0.129210
530.667600	0.129617
530.883570	0.129924
531.099522	0.130945
531.315456	0.131117
531.531372	0.131310
531.747269	0.131380
531.963148	0.131470
532.179009	0.131597
532.394852	0.132013
532.610676	0.131594
532.826482	0.131773
533.042271	0.131602
533.258040	0.131304
533.473792	0.131522
533.689525	0.132332
533.905240	0.132647
534.120937	0.133236
534.336616	0.133712
534.552277	0.134663
534.767919	0.135179
534.983543	0.135648
535.199149	0.136313
535.414736	0.136143
535.630306	0.136229
535.845857	0.136553
536.061390	0.136811
536.276904	0.136843
536.492401	0.136816
536.707879	0.136470
536.923339	0.136914
537.138781	0.137105
537.354204	0.137595
537.569610	0.137899
537.784997	0.137892
538.000366	0.137985
538.215716	0.137598
538.431049	0.137775
538.646363	0.138487
538.861659	0.138944
539.076937	0.139277
539.292196	0.139729
539.507438	0.140064
539.722661	0.140373
539.937866	0.140818
540.153052	0.141369
540.368221	0.141004
540.583371	0.141144
540.798503	0.141060
541.013617	0.141440
541.228712	0.141424
541.443789	0.141515
541.658848	0.142263
541.873889	0.142450
542.088912	0.142736
542.303916	0.143573
542.518902	0.143833
542.733870	0.144270
542.948820	0.144357
543.163752	0.144666
543.378665	0.145226
543.593560	0.144970
543.808437	0.144945
544.023295	0.145636
544.238136	0.145591
544.452958	0.145881
544.667762	0.145940
544.882548	0.146515
545.097315	0.146952
545.312064	0.147396
545.526795	0.147552
545.741508	0.147871
545.956203	0.147225
546.170879	0.147606
546.385537	0.147744
546.600177	0.148112
546.814799	0.148375
547.029402	0.148698
547.243988	0.148428
547.458555	0.148749
547.673103	0.148907
547.887634	0.150237
548.102146	0.150719
548.316640	0.151325
548.531116	0.151321
548.745574	0.151635
548.960013	0.151796
549.174435	0.152203
549.388838	0.152632
549.603222	0.152632
549.817589	0.152380
550.031937	0.153047
550.246267	0.152843
550.460579	0.152947
550.674873	0.152508
550.889148	0.152789
551.103405	0.152710
551.317644	0.152690
551.531865	0.153298
551.746068	0.153617
551.960252	0.152615
552.174418	0.152897
552.388566	0.153172
552.602696	0.153366
552.816807	0.152905
553.030900	0.153272
553.244975	0.153357
553.459032	0.153302
553.673070	0.153389
553.887091	0.154603
554.101093	0.154873
554.315077	0.154922
554.529042	0.155427
554.742990	0.155719
554.956919	0.155777
555.170830	0.155768
555.384722	0.156373
555.598597	0.156383
555.812453	0.155823
556.026291	0.155920
556.240111	0.156029
556.453913	0.155785
556.667696	0.156350
556.881461	0.156788
557.095208	0.157528
557.308937	0.157652
557.522647	0.157583
557.736339	0.158058
557.950013	0.158271
558.163669	0.158812
558.377307	0.159214
558.590926	0.159114
558.804527	0.159048
559.018110	0.158731
559.231675	0.158854
559.445221	0.158909
559.658749	0.159071
559.872259	0.159238
560.085751	0.158877
560.299225	0.159056
560.512680	0.159137
560.726117	0.159370
560.939536	0.159717
561.152937	0.159579
561.366319	0.160164
561.579683	0.160289
561.793029	0.160672
562.006357	0.161103
562.219667	0.161581
562.432958	0.162151
562.646231	0.162108
562.859486	0.162289
563.072723	0.162407
563.285941	0.163048
563.499141	0.163480
563.712323	0.163440
563.925487	0.163762
564.138632	0.163526
564.351760	0.163151
564.564869	0.163855
564.777960	0.163983
564.991032	0.164409
565.204087	0.164414
565.417123	0.164165
565.630141	0.164412
565.843140	0.164711
566.056122	0.165253
566.269085	0.165666
566.482030	0.165215
566.694957	0.165246
566.907866	0.165410
567.120756	0.165127
567.333628	0.165708
567.546482	0.165644
567.759318	0.165623
567.972135	0.165767
568.184935	0.166001
568.397716	0.166711
568.610478	0.167101
568.823223	0.167003
569.035949	0.167475
569.248657	0.167217
569.461347	0.167262
569.674019	0.167396
569.886672	0.167199
570.099308	0.167107
570.311925	0.167178
570.524523	0.167329
570.737104	0.167383
570.949666	0.167372
571.162210	0.167404
571.374736	0.167303
571.587244	0.167632
571.799733	0.167756
572.012205	0.167999
572.224658	0.167963
572.437092	0.167880
572.649509	0.167969
572.861907	0.167947
573.074287	0.168358
573.286649	0.168640
573.498993	0.168489
573.711318	0.168895
573.923625	0.168922
574.135914	0.168886
574.348185	0.169070
574.560438	0.169486
574.772672	0.169578
574.984888	0.169474
575.197086	0.169855
575.409266	0.170269
575.621427	0.170292
575.833570	0.170809
576.045695	0.171230
576.257802	0.171270
576.469890	0.171578
576.681961	0.171777
576.894013	0.172071
577.106046	0.171939
577.318062	0.171928
577.530059	0.171841
577.742039	0.171713
577.954000	0.171898
578.165942	0.172146
578.377867	0.172099
578.589773	0.172323
578.801661	0.172341
579.013531	0.172535
579.225382	0.172538
579.437216	0.172649
579.649031	0.172984
579.860828	0.172885
580.072606	0.172881
580.284367	0.172562
580.496109	0.172470
580.707833	0.172700
580.919539	0.172692
581.131227	0.172378
581.342896	0.172454
581.554547	0.172319
581.766180	0.172484
581.977795	0.172620
582.189391	0.172959
582.400969	0.173195
582.612529	0.173136
582.824071	0.173708
583.035595	0.174321
583.247100	0.174596
583.458587	0.174961
583.670056	0.174988
583.881506	0.175554
584.092939	0.175839
584.304353	0.176134
584.515749	0.176278
584.727127	0.176368
584.938486	0.176480
585.149828	0.176623
585.361151	0.176733
585.572456	0.176752
585.783742	0.176799
585.995011	0.176734
586.206261	0.176764
586.417493	0.176971
586.628706	0.177235
586.839902	0.177333
587.051079	0.177810
587.262238	0.177825
587.473379	0.178029
587.684502	0.177949
587.895606	0.178470
588.106692	0.178775
588.317760	0.178955
588.528810	0.178967
588.739841	0.179147
588.950855	0.178725
589.161850	0.178967
589.372827	0.179265
589.583785	0.179499
589.794726	0.179340
590.005648	0.179336
590.216552	0.179715
590.427437	0.179673
590.638305	0.179866
590.849154	0.180005
591.059985	0.180000
591.270798	0.179734
591.481592	0.180087
591.692369	0.180116
591.903127	0.180240
592.113867	0.179958
592.324588	0.180001
592.535292	0.179861
592.745977	0.180341
592.956644	0.180719
593.167293	0.181104
593.377923	0.181116
593.588536	0.181769
593.799130	0.181592
594.009706	0.182245
594.220263	0.182676
594.430803	0.182951
594.641324	0.183072
594.851827	0.183208
595.062312	0.183275
595.272778	0.183382
595.483227	0.183262
595.693657	0.183792
595.904069	0.183451
596.114462	0.183625
596.324838	0.183799
596.535195	0.183734
596.745534	0.183782
596.955855	0.184071
597.166157	0.184228
597.376441	0.184207
597.586707	0.183992
597.796955	0.184185
598.007185	0.184015
598.217396	0.184365
598.427589	0.184568
598.637764	0.184963
598.847921	0.185137
599.058060	0.185011
599.268180	0.185400
599.478282	0.185761
599.688366	0.186197
599.898431	0.186658
600.108479	0.186590
600.318508	0.186649
600.528519	0.186778
600.738511	0.186804
600.948486	0.187096
601.158442	0.187176
601.368380	0.187083
601.578300	0.187074
601.788202	0.186763
601.998085	0.186983
602.207950	0.187157
602.417797	0.186643
602.627626	0.186828
602.837436	0.186905
603.047228	0.186925
603.257002	0.187705
603.466758	0.187767
603.676496	0.187844
603.886215	0.187839
604.095916	0.188424
604.305599	0.189068
604.515264	0.188960
604.724910	0.188843
604.934538	0.188848
605.144148	0.188313
605.353740	0.188547
605.563314	0.188885
605.772869	0.189288
605.982406	0.188822
606.191925	0.188561
606.401425	0.188668
606.610908	0.189082
606.820372	0.189284
607.029818	0.189893
607.239246	0.189945
607.448655	0.190120
607.658047	0.190014
607.867420	0.190359
608.076775	0.190649
608.286111	0.190916
608.495430	0.190951
608.704730	0.191134
608.914012	0.190854
609.123275	0.190855
609.332521	0.190956
609.541748	0.191244
609.750957	0.191285
609.960148	0.190919
610.169321	0.191106
610.378475	0.191483
610.587611	0.191495
610.796729	0.191644
611.005829	0.191796
611.214910	0.191899
611.423974	0.191897
611.633019	0.192063
611.842045	0.192693
612.051054	0.192833
612.260044	0.192703
612.469017	0.192849
612.677970	0.193254
612.886906	0.193384
613.095824	0.193565
613.304723	0.193774
613.513604	0.193824
613.722467	0.194142
613.931311	0.194107
614.140138	0.194339
614.348946	0.194421
614.557736	0.194391
614.766507	0.194474
614.975261	0.194465
615.183996	0.193996
615.392713	0.193853
615.601412	0.193815
615.810092	0.193849
616.018754	0.193860
616.227399	0.194163
616.436024	0.194493
616.644632	0.194697
616.853222	0.194925
617.061793	0.195595
617.270346	0.195835
617.478880	0.195854
617.687397	0.196452
617.895895	0.196627
618.104375	0.196742
618.312837	0.196475
618.521281	0.196565
618.729706	0.196655
618.938113	0.196432
619.146502	0.196596
619.354873	0.196447
619.563226	0.196275
619.771560	0.196506
619.979876	0.196625
620.188174	0.196681
620.396453	0.196803
620.604715	0.196833
620.812958	0.197217
621.021183	0.197319
621.229390	0.197663
621.437578	0.197713
621.645748	0.197636
621.853900	0.197696
622.062034	0.197964
622.270150	0.198058
622.478247	0.198522
622.686326	0.198419
622.894387	0.199006
623.102430	0.199160
623.310454	0.199464
623.518461	0.199367
623.726449	0.199410
623.934418	0.199777
624.142370	0.199720
624.350303	0.199543
624.558218	0.199867
624.766115	0.199525
624.973994	0.199652
625.181855	0.199603
625.389697	0.199709
625.597521	0.199931
625.805327	0.199581
626.013114	0.200114
626.220883	0.200117
626.428634	0.200187
626.636367	0.200406
626.844082	0.200551
627.051778	0.200738
627.259457	0.201065
627.467117	0.201205
627.674758	0.201674
627.882382	0.201679
628.089987	0.201769
628.297574	0.201967
628.505143	0.202080
628.712694	0.202190
628.920226	0.202251
629.127740	0.202439
629.335236	0.202351
629.542714	0.202245
629.750174	0.202126
629.957615	0.202532
630.165038	0.202527
630.372443	0.202674
630.579829	0.202830
630.787198	0.202911
630.994548	0.202986
631.201880	0.203262
631.409194	0.203513
631.616489	0.203707
631.823766	0.203738
632.031025	0.203760
632.238266	0.203667
632.445489	0.203741
632.652693	0.204124
632.859879	0.204137
633.067047	0.204154
633.274197	0.204255
633.481329	0.204407
633.688442	0.204544
633.895537	0.204774
634.102614	0.205053
634.309672	0.205137
634.516713	0.205240
634.723735	0.205348
634.930739	0.205633
635.137724	0.205679
635.344692	0.205814
635.551641	0.205696
635.758572	0.206070
635.965485	0.206213
636.172379	0.206384
636.379256	0.206290
636.586114	0.206456
636.792954	0.206425
636.999775	0.206651
637.206579	0.206873
637.413364	0.207364
637.620131	0.207421
637.826880	0.207477
638.033610	0.207595
638.240323	0.207949
638.447017	0.208141
638.653692	0.208587
638.860350	0.208876
639.066990	0.208980
639.273611	0.209232
639.480214	0.209658
639.686798	0.209902
639.893365	0.210223
640.099913	0.210263
640.306443	0.210426
640.512955	0.210213
640.719449	0.210121
640.925924	0.210186
641.132381	0.210082
641.338820	0.209925
641.545241	0.209928
641.751644	0.209815
641.958028	0.209922
642.164394	0.210215
642.370742	0.210553
642.577071	0.210684
642.783383	0.210822
642.989676	0.211009
643.195951	0.210940
643.402207	0.211176
643.608446	0.211417
643.814666	0.211582
644.020868	0.211427
644.227052	0.211503
644.433218	0.211745
644.639365	0.211775
644.845494	0.211951
645.051605	0.212181
645.257698	0.212346
645.463772	0.212682
645.669828	0.212763
645.875866	0.213170
646.081886	0.213269
646.287888	0.213574
646.493871	0.214054
646.699836	0.214141
646.905783	0.214325
647.111712	0.214618
647.317622	0.214623
647.523514	0.214855
647.729388	0.215061
647.935244	0.215378
648.141082	0.215327
648.346901	0.215449
648.552702	0.215849
648.758485	0.215944
648.964250	0.216044
649.169996	0.216244
649.375724	0.216364
649.581434	0.216471
649.787126	0.216392
649.992800	0.216512
650.198455	0.216529
650.404092	0.216289
650.609711	0.216453
650.815311	0.216347
651.020894	0.216391
651.226458	0.216347
651.432004	0.216341
651.637532	0.216612
651.843041	0.216924
652.048532	0.217094
652.254006	0.217369
652.459460	0.217541
652.664897	0.217818
652.870315	0.217912
653.075716	0.218132
653.281097	0.218203
653.486461	0.218429
653.691807	0.218562
653.897134	0.218699
654.102443	0.218834
654.307734	0.219119
654.513006	0.219508
654.718261	0.219847
654.923497	0.220024
655.128715	0.220198
655.333915	0.220310
655.539096	0.220243
655.744259	0.220343
655.949404	0.220662
656.154531	0.220864
656.359640	0.221025
656.564730	0.221179
656.769802	0.221476
656.974856	0.221818
657.179892	0.222045
657.384909	0.222319
657.589908	0.222478
657.794889	0.222488
657.999852	0.222589
658.204797	0.222717
658.409723	0.222628
658.614631	0.222673
658.819521	0.222900
659.024393	0.222807
659.229246	0.222840
659.434081	0.223212
659.638898	0.223430
659.843697	0.223514
660.048478	0.223680
660.253240	0.223968
660.457984	0.224144
660.662710	0.224104
660.867417	0.224409
661.072107	0.224750
661.276778	0.224739
661.481431	0.224939
661.686066	0.225303
661.890682	0.225470
662.095281	0.225901
662.299861	0.226078
662.504422	0.226418
662.708966	0.226434
662.913491	0.226759
663.117999	0.226937
663.322488	0.227044
663.526958	0.226767
663.731411	0.226924
663.935845	0.227049
664.140261	0.227416
664.344659	0.227435
664.549038	0.227988
664.753400	0.228132
664.957743	0.228469
665.162068	0.228612
665.366375	0.229061
665.570663	0.229041
665.774933	0.228927
665.979185	0.229094
666.183419	0.229524
666.387635	0.229765
666.591832	0.229782
666.796011	0.229914
667.000172	0.230103
667.204315	0.230134
667.408439	0.230425
667.612545	0.230840
667.816634	0.230968
668.020703	0.230988
668.224755	0.230727
668.428788	0.231032
668.632803	0.231097
668.836800	0.231454
669.040779	0.231751
669.244739	0.231943
669.448681	0.232113
669.652605	0.232339
669.856511	0.232338
670.060399	0.232679
670.264268	0.232803
670.468119	0.232811
670.671952	0.232884
670.875767	0.232880
671.079563	0.233122
671.283341	0.232965
671.487101	0.232933
671.690843	0.233324
671.894567	0.233306
672.098272	0.233728
672.301959	0.234298
672.505628	0.234476
672.709278	0.234892
672.912911	0.234926
673.116525	0.235255
673.320121	0.235461
673.523699	0.235835
673.727258	0.236344
673.930799	0.236165
674.134322	0.236208
674.337827	0.236334
674.541314	0.236460
674.744782	0.236864
674.948232	0.237103
675.151664	0.237482
675.355078	0.237418
675.558474	0.237538
675.761851	0.237816
675.965210	0.238016
676.168551	0.238316
676.371873	0.238386
676.575178	0.238394
676.778464	0.238749
676.981732	0.238972
677.184981	0.239016
677.388213	0.239164
677.591426	0.239316
677.794621	0.239600
677.997798	0.239835
678.200956	0.240282
678.404097	0.240432
678.607219	0.240507
678.810323	0.240500
679.013408	0.240688
679.216476	0.240683
679.419525	0.240930
679.622556	0.240842
679.825569	0.241036
680.028563	0.241044
680.231540	0.241001
680.434498	0.241242
680.637438	0.241448
680.840359	0.241599
681.043263	0.241948
681.246148	0.242150
681.449015	0.242522
681.651864	0.242492
681.854694	0.242617
682.057506	0.242845
682.260301	0.242886
682.463076	0.243076
682.665834	0.243191
682.868573	0.243251
683.071295	0.243339
683.273998	0.243332
683.476682	0.243495
683.679349	0.243782
683.881997	0.244317
684.084627	0.244596
684.287239	0.244486
684.489833	0.244874
684.692408	0.244985
684.894965	0.245203
685.097504	0.245468
685.300025	0.245648
685.502527	0.245776
685.705012	0.245688
685.907478	0.245763
686.109925	0.246199
686.312355	0.246358
686.514766	0.246622
686.717159	0.246634
686.919534	0.246699
687.121891	0.246970
687.324230	0.247243
687.526550	0.247575
687.728852	0.247726
687.931136	0.248022
688.133401	0.248237
688.335649	0.248234
688.537878	0.248464
688.740089	0.248702
688.942281	0.248846
689.144456	0.248844
689.346612	0.248687
689.548750	0.248558
689.750870	0.248680
689.952971	0.248830
690.155055	0.249167
690.357120	0.249197
690.559167	0.249411
690.761195	0.249683
690.963206	0.249891
691.165198	0.250324
691.367172	0.250693
691.569128	0.250792
691.771065	0.250773
691.972984	0.250961
692.174885	0.251273
692.376768	0.251430
692.578633	0.251316
692.780479	0.251289
692.982308	0.251379
693.184118	0.251574
693.385909	0.251431
