sample name	sample
index	696
start time	 03-22-2021  12:40:39 PM


Wavelength (nm)	Absorbance
494.344910	-0.269405
494.563924	-0.269405
494.782919	-0.269405
495.001897	NaN
495.220856	0.346396
495.439797	0.324663
495.658719	0.473084
495.877624	0.366509
496.096510	0.194749
496.315378	0.271168
496.534227	0.096219
496.753059	0.012519
496.971872	-0.017619
497.190667	0.049954
497.409444	0.052133
497.628203	0.051992
497.846943	0.054521
498.065665	0.054520
498.284369	0.054398
498.503055	0.053996
498.721723	0.054799
498.940372	0.054764
499.159003	0.054046
499.377616	0.053549
499.596210	0.053246
499.814787	0.052911
500.033345	0.052056
500.251885	0.051813
500.470406	0.052473
500.688910	0.052856
500.907395	0.052761
501.125862	0.054297
501.344311	0.054691
501.562742	0.054959
501.781154	0.054687
501.999548	0.055577
502.217924	0.055788
502.436282	0.056100
502.654621	0.054831
502.872942	0.054274
503.091245	0.053535
503.309530	0.053773
503.527797	0.053857
503.746045	0.053908
503.964275	0.053537
504.182487	0.053070
504.400681	0.053087
504.618856	0.053484
504.837013	0.053967
505.055152	0.053682
505.273273	0.054285
505.491376	0.053588
505.709460	0.053540
505.927526	0.053575
506.145574	0.054212
506.363604	0.053561
506.581615	0.053244
506.799608	0.052351
507.017583	0.052561
507.235540	0.051641
507.453478	0.052589
507.671399	0.053186
507.889301	0.053453
508.107185	0.052361
508.325050	0.052328
508.542898	0.052511
508.760727	0.053293
508.978538	0.052369
509.196330	0.053180
509.414105	0.053014
509.631861	0.053009
509.849599	0.053255
510.067319	0.054279
510.285021	0.054867
510.502704	0.054869
510.720369	0.054568
510.938016	0.055434
511.155645	0.054731
511.373255	0.054634
511.590848	0.054054
511.808422	0.054493
512.025977	0.053692
512.243515	0.052623
512.461034	0.052549
512.678536	0.052697
512.896018	0.052234
513.113483	0.053138
513.330930	0.053354
513.548358	0.052877
513.765768	0.051761
513.983160	0.052236
514.200533	0.052758
514.417889	0.052654
514.635226	0.052435
514.852545	0.052536
515.069845	0.051275
515.287128	0.051275
515.504392	0.051780
515.721638	0.052037
515.938866	0.052313
516.156075	0.052394
516.373267	0.052494
516.590440	0.052457
516.807594	0.052814
517.024731	0.053045
517.241850	0.052577
517.458950	0.052426
517.676032	0.052339
517.893095	0.051836
518.110141	0.051598
518.327168	0.051597
518.544177	0.052027
518.761168	0.051693
518.978141	0.052172
519.195095	0.052573
519.412031	0.052574
519.628949	0.052543
519.845849	0.052315
520.062731	0.052319
520.279594	0.052466
520.496439	0.052508
520.713266	0.052861
520.930074	0.052851
521.146865	0.052901
521.363637	0.053154
521.580391	0.053537
521.797127	0.053817
522.013844	0.053681
522.230543	0.053792
522.447224	0.053723
522.663887	0.053783
522.880532	0.053645
523.097158	0.053460
523.313766	0.053816
523.530356	0.053177
523.746928	0.053672
523.963481	0.053805
524.180017	0.053649
524.396534	0.054066
524.613032	0.053441
524.829513	0.053382
525.045975	0.053451
525.262420	0.053503
525.478845	0.054148
525.695253	0.054343
525.911643	0.054352
526.128014	0.054319
526.344367	0.054296
526.560702	0.054672
526.777018	0.055345
526.993316	0.055274
527.209597	0.054775
527.425858	0.054855
527.642102	0.054709
527.858328	0.055031
528.074535	0.055053
528.290724	0.054928
528.506894	0.055287
528.723047	0.054770
528.939181	0.055000
529.155297	0.055181
529.371395	0.055409
529.587475	0.055280
529.803536	0.055639
530.019579	0.056179
530.235604	0.056081
530.451611	0.056214
530.667600	0.056501
530.883570	0.056549
531.099522	0.056962
531.315456	0.056262
531.531372	0.056635
531.747269	0.056706
531.963148	0.056252
532.179009	0.056012
532.394852	0.055520
532.610676	0.055390
532.826482	0.055332
533.042271	0.055191
533.258040	0.055547
533.473792	0.055261
533.689525	0.054712
533.905240	0.054594
534.120937	0.054969
534.336616	0.055314
534.552277	0.055687
534.767919	0.055841
534.983543	0.055764
535.199149	0.056164
535.414736	0.056346
535.630306	0.056869
535.845857	0.057060
536.061390	0.056977
536.276904	0.057321
536.492401	0.057293
536.707879	0.057225
536.923339	0.057805
537.138781	0.057237
537.354204	0.056807
537.569610	0.056796
537.784997	0.057285
538.000366	0.057404
538.215716	0.057432
538.431049	0.057291
538.646363	0.057273
538.861659	0.056754
539.076937	0.056822
539.292196	0.057352
539.507438	0.057137
539.722661	0.056965
539.937866	0.057078
540.153052	0.057176
540.368221	0.057168
540.583371	0.057608
540.798503	0.057615
541.013617	0.057769
541.228712	0.057635
541.443789	0.057947
541.658848	0.057711
541.873889	0.057744
542.088912	0.057596
542.303916	0.057611
542.518902	0.057452
542.733870	0.057855
542.948820	0.058231
543.163752	0.058672
543.378665	0.058789
543.593560	0.059755
543.808437	0.059737
544.023295	0.059831
544.238136	0.059998
544.452958	0.060014
544.667762	0.059795
544.882548	0.059792
545.097315	0.059705
545.312064	0.059579
545.526795	0.058755
545.741508	0.058989
545.956203	0.058713
546.170879	0.058752
546.385537	0.058648
546.600177	0.058868
546.814799	0.058531
547.029402	0.058480
547.243988	0.058715
547.458555	0.058965
547.673103	0.058935
547.887634	0.059016
548.102146	0.058764
548.316640	0.059193
548.531116	0.058917
548.745574	0.059072
548.960013	0.058896
549.174435	0.058333
549.388838	0.058063
549.603222	0.058014
549.817589	0.057866
550.031937	0.058202
550.246267	0.058049
550.460579	0.058429
550.674873	0.058759
550.889148	0.058624
551.103405	0.058936
551.317644	0.059317
551.531865	0.059480
551.746068	0.059750
551.960252	0.059712
552.174418	0.059573
552.388566	0.059869
552.602696	0.059684
552.816807	0.059843
553.030900	0.060028
553.244975	0.060060
553.459032	0.059858
553.673070	0.060071
553.887091	0.060272
554.101093	0.060598
554.315077	0.060443
554.529042	0.060802
554.742990	0.060671
554.956919	0.060421
555.170830	0.060377
555.384722	0.060220
555.598597	0.060163
555.812453	0.059931
556.026291	0.059859
556.240111	0.059779
556.453913	0.059568
556.667696	0.059947
556.881461	0.060352
557.095208	0.060569
557.308937	0.061275
557.522647	0.061166
557.736339	0.061303
557.950013	0.061262
558.163669	0.061630
558.377307	0.061625
558.590926	0.061893
558.804527	0.062057
559.018110	0.061840
559.231675	0.061425
559.445221	0.061560
559.658749	0.061834
559.872259	0.061906
560.085751	0.061572
560.299225	0.061720
560.512680	0.061639
560.726117	0.061492
560.939536	0.061858
561.152937	0.062268
561.366319	0.062585
561.579683	0.062521
561.793029	0.062631
562.006357	0.062830
562.219667	0.062852
562.432958	0.062800
562.646231	0.063102
562.859486	0.063417
563.072723	0.063206
563.285941	0.063234
563.499141	0.063114
563.712323	0.063051
563.925487	0.063228
564.138632	0.063386
564.351760	0.063552
564.564869	0.063524
564.777960	0.062749
564.991032	0.062801
565.204087	0.062728
565.417123	0.063269
565.630141	0.063355
565.843140	0.063143
566.056122	0.063267
566.269085	0.063264
566.482030	0.063096
566.694957	0.063538
566.907866	0.063588
567.120756	0.063481
567.333628	0.062958
567.546482	0.063193
567.759318	0.063223
567.972135	0.063173
568.184935	0.063128
568.397716	0.063157
568.610478	0.063192
568.823223	0.063617
569.035949	0.063497
569.248657	0.063589
569.461347	0.063637
569.674019	0.063977
569.886672	0.063824
570.099308	0.063759
570.311925	0.063751
570.524523	0.063514
570.737104	0.063120
570.949666	0.063192
571.162210	0.063355
571.374736	0.063222
571.587244	0.063082
571.799733	0.063324
572.012205	0.063553
572.224658	0.063615
572.437092	0.063649
572.649509	0.063754
572.861907	0.063939
573.074287	0.064067
573.286649	0.064075
573.498993	0.063931
573.711318	0.063975
573.923625	0.064256
574.135914	0.064421
574.348185	0.064690
574.560438	0.064711
574.772672	0.065077
574.984888	0.065162
575.197086	0.065173
575.409266	0.065216
575.621427	0.065222
575.833570	0.065013
576.045695	0.064976
576.257802	0.064943
576.469890	0.065119
576.681961	0.064669
576.894013	0.064710
577.106046	0.064477
577.318062	0.064578
577.530059	0.064447
577.742039	0.064141
577.954000	0.064337
578.165942	0.064206
578.377867	0.063958
578.589773	0.064310
578.801661	0.064060
579.013531	0.064523
579.225382	0.064552
579.437216	0.064498
579.649031	0.064983
579.860828	0.064777
580.072606	0.065312
580.284367	0.065439
580.496109	0.065389
580.707833	0.065354
580.919539	0.065415
581.131227	0.065659
581.342896	0.065772
581.554547	0.065649
581.766180	0.065894
581.977795	0.065635
582.189391	0.065860
582.400969	0.065907
582.612529	0.066541
582.824071	0.066573
583.035595	0.066330
583.247100	0.066504
583.458587	0.066420
583.670056	0.066291
583.881506	0.066580
584.092939	0.066849
584.304353	0.066844
584.515749	0.066539
584.727127	0.066519
584.938486	0.066791
585.149828	0.066923
585.361151	0.067132
585.572456	0.066903
585.783742	0.066724
585.995011	0.066426
586.206261	0.066595
586.417493	0.066736
586.628706	0.066919
586.839902	0.066899
587.051079	0.067077
587.262238	0.067034
587.473379	0.067425
587.684502	0.067740
587.895606	0.067628
588.106692	0.067487
588.317760	0.067589
588.528810	0.067627
588.739841	0.067659
588.950855	0.067513
589.161850	0.067703
589.372827	0.067636
589.583785	0.067380
589.794726	0.067561
590.005648	0.067798
590.216552	0.068077
590.427437	0.068092
590.638305	0.067977
590.849154	0.068112
591.059985	0.068146
591.270798	0.068559
591.481592	0.068685
591.692369	0.068824
591.903127	0.068800
592.113867	0.068402
592.324588	0.068076
592.535292	0.068265
592.745977	0.068303
592.956644	0.068384
593.167293	0.068160
593.377923	0.068095
593.588536	0.068224
593.799130	0.068063
594.009706	0.068335
594.220263	0.068709
594.430803	0.068676
594.641324	0.068733
594.851827	0.068628
595.062312	0.068886
595.272778	0.069349
595.483227	0.069156
595.693657	0.069248
595.904069	0.069230
596.114462	0.069362
596.324838	0.069195
596.535195	0.069077
596.745534	0.069157
596.955855	0.069172
597.166157	0.068780
597.376441	0.069040
597.586707	0.069506
597.796955	0.069477
598.007185	0.069344
598.217396	0.069614
598.427589	0.069833
598.637764	0.069873
598.847921	0.069815
599.058060	0.070190
599.268180	0.070348
599.478282	0.070454
599.688366	0.070584
599.898431	0.070726
600.108479	0.070839
600.318508	0.070935
600.528519	0.070998
600.738511	0.070821
600.948486	0.070730
601.158442	0.070684
601.368380	0.070521
601.578300	0.070593
601.788202	0.070340
601.998085	0.070385
602.207950	0.070291
602.417797	0.070412
602.627626	0.070550
602.837436	0.070622
603.047228	0.070526
603.257002	0.070383
603.466758	0.070336
603.676496	0.070539
603.886215	0.070602
604.095916	0.070728
604.305599	0.070699
604.515264	0.070728
604.724910	0.070793
604.934538	0.070807
605.144148	0.070987
605.353740	0.071343
605.563314	0.071406
605.772869	0.071492
605.982406	0.071568
606.191925	0.071640
606.401425	0.071661
606.610908	0.071774
606.820372	0.071981
607.029818	0.072126
607.239246	0.071824
607.448655	0.071846
607.658047	0.071627
607.867420	0.071420
608.076775	0.071265
608.286111	0.071657
608.495430	0.071644
608.704730	0.071617
608.914012	0.071624
609.123275	0.071457
609.332521	0.071398
609.541748	0.071717
609.750957	0.071940
609.960148	0.071904
610.169321	0.071703
610.378475	0.071576
610.587611	0.071648
610.796729	0.071669
611.005829	0.071893
611.214910	0.072265
611.423974	0.072107
611.633019	0.071845
611.842045	0.072136
612.051054	0.072032
612.260044	0.072180
612.469017	0.072218
612.677970	0.071928
612.886906	0.071976
613.095824	0.071589
613.304723	0.071701
613.513604	0.071763
613.722467	0.071738
613.931311	0.071921
614.140138	0.071769
614.348946	0.071588
614.557736	0.071781
614.766507	0.071736
614.975261	0.071975
615.183996	0.071867
615.392713	0.071863
615.601412	0.071758
615.810092	0.071484
616.018754	0.071502
616.227399	0.071508
616.436024	0.071294
616.644632	0.071168
616.853222	0.071147
617.061793	0.071235
617.270346	0.071663
617.478880	0.071783
617.687397	0.072250
617.895895	0.072329
618.104375	0.072556
618.312837	0.072955
618.521281	0.073424
618.729706	0.073400
618.938113	0.073452
619.146502	0.073328
619.354873	0.073384
619.563226	0.073333
619.771560	0.073670
619.979876	0.073732
620.188174	0.073589
620.396453	0.073629
620.604715	0.073799
620.812958	0.073950
621.021183	0.073997
621.229390	0.074016
621.437578	0.074114
621.645748	0.073871
621.853900	0.073688
622.062034	0.073976
622.270150	0.074033
622.478247	0.074001
622.686326	0.073842
622.894387	0.073884
623.102430	0.073892
623.310454	0.073647
623.518461	0.073802
623.726449	0.073877
623.934418	0.073803
624.142370	0.073669
624.350303	0.073693
624.558218	0.073832
624.766115	0.073879
624.973994	0.074090
625.181855	0.074448
625.389697	0.074530
625.597521	0.074629
625.805327	0.074547
626.013114	0.074509
626.220883	0.074685
626.428634	0.074782
626.636367	0.074868
626.844082	0.074680
627.051778	0.074509
627.259457	0.074560
627.467117	0.074860
627.674758	0.074731
627.882382	0.074998
628.089987	0.075284
628.297574	0.075416
628.505143	0.075319
628.712694	0.075547
628.920226	0.075623
629.127740	0.075654
629.335236	0.075448
629.542714	0.075697
629.750174	0.075535
629.957615	0.075123
630.165038	0.074973
630.372443	0.075022
630.579829	0.074874
630.787198	0.074814
630.994548	0.074759
631.201880	0.074672
631.409194	0.074631
631.616489	0.074615
631.823766	0.074751
632.031025	0.074800
632.238266	0.074689
632.445489	0.074667
632.652693	0.074667
632.859879	0.074582
633.067047	0.074586
633.274197	0.074707
633.481329	0.074817
633.688442	0.074928
633.895537	0.074872
634.102614	0.075150
634.309672	0.075272
634.516713	0.075435
634.723735	0.075593
634.930739	0.075579
635.137724	0.075484
635.344692	0.075541
635.551641	0.075494
635.758572	0.075776
635.965485	0.075556
636.172379	0.075806
636.379256	0.075895
636.586114	0.076094
636.792954	0.076416
636.999775	0.076596
637.206579	0.076480
637.413364	0.076618
637.620131	0.076623
637.826880	0.076947
638.033610	0.076819
638.240323	0.076857
638.447017	0.076623
638.653692	0.076452
638.860350	0.076514
639.066990	0.076762
639.273611	0.076673
639.480214	0.076798
639.686798	0.076681
639.893365	0.076753
640.099913	0.076792
640.306443	0.076919
640.512955	0.076997
640.719449	0.077050
640.925924	0.076938
641.132381	0.077006
641.338820	0.076929
641.545241	0.076938
641.751644	0.076937
641.958028	0.076995
642.164394	0.077181
642.370742	0.077307
642.577071	0.077510
642.783383	0.077646
642.989676	0.077633
643.195951	0.077630
643.402207	0.077794
643.608446	0.077905
643.814666	0.077790
644.020868	0.077764
644.227052	0.077861
644.433218	0.077774
644.639365	0.077905
644.845494	0.078173
645.051605	0.078107
645.257698	0.078193
645.463772	0.078069
645.669828	0.078315
645.875866	0.078325
646.081886	0.078350
646.287888	0.078285
646.493871	0.078166
646.699836	0.078041
646.905783	0.078030
647.111712	0.078035
647.317622	0.078231
647.523514	0.078110
647.729388	0.078267
647.935244	0.078258
648.141082	0.078345
648.346901	0.078466
648.552702	0.078638
648.758485	0.078888
648.964250	0.079009
649.169996	0.079024
649.375724	0.079075
649.581434	0.078927
649.787126	0.078801
649.992800	0.078647
650.198455	0.078438
650.404092	0.078270
650.609711	0.078035
650.815311	0.077840
651.020894	0.077630
651.226458	0.077528
651.432004	0.077501
651.637532	0.077696
651.843041	0.077673
652.048532	0.077901
652.254006	0.077911
652.459460	0.078023
652.664897	0.077996
652.870315	0.078148
653.075716	0.078140
653.281097	0.078285
653.486461	0.078132
653.691807	0.078334
653.897134	0.078251
654.102443	0.078559
654.307734	0.078667
654.513006	0.078835
654.718261	0.079118
654.923497	0.079316
655.128715	0.079322
655.333915	0.079675
655.539096	0.079783
655.744259	0.080040
655.949404	0.079886
656.154531	0.080010
656.359640	0.079966
656.564730	0.079779
656.769802	0.079678
656.974856	0.079701
657.179892	0.079767
657.384909	0.079957
657.589908	0.079653
657.794889	0.079896
657.999852	0.079981
658.204797	0.080037
658.409723	0.080041
658.614631	0.080205
658.819521	0.080245
659.024393	0.080095
659.229246	0.080111
659.434081	0.080431
659.638898	0.080293
659.843697	0.080304
660.048478	0.080425
660.253240	0.080584
660.457984	0.080541
660.662710	0.080705
660.867417	0.080832
661.072107	0.080681
661.276778	0.080487
661.481431	0.080458
661.686066	0.080356
661.890682	0.080331
662.095281	0.080236
662.299861	0.080493
662.504422	0.080396
662.708966	0.080315
662.913491	0.080216
663.117999	0.080457
663.322488	0.080575
663.526958	0.080700
663.731411	0.080797
663.935845	0.080909
664.140261	0.080948
664.344659	0.081149
664.549038	0.081264
664.753400	0.081443
664.957743	0.081394
665.162068	0.081567
665.366375	0.081682
665.570663	0.081974
665.774933	0.082024
665.979185	0.082026
666.183419	0.081960
666.387635	0.081941
666.591832	0.082038
666.796011	0.082156
667.000172	0.082106
667.204315	0.082024
667.408439	0.081979
667.612545	0.082254
667.816634	0.082245
668.020703	0.082311
668.224755	0.082621
668.428788	0.082484
668.632803	0.082526
668.836800	0.082469
669.040779	0.082674
669.244739	0.082523
669.448681	0.082423
669.652605	0.082296
669.856511	0.082156
670.060399	0.082032
670.264268	0.082271
670.468119	0.082256
670.671952	0.082571
670.875767	0.082601
671.079563	0.082787
671.283341	0.082988
671.487101	0.083337
671.690843	0.083764
671.894567	0.083965
672.098272	0.084099
672.301959	0.084312
672.505628	0.084255
672.709278	0.084395
672.912911	0.084375
673.116525	0.084444
673.320121	0.084423
673.523699	0.084361
673.727258	0.084332
673.930799	0.084301
674.134322	0.084295
674.337827	0.084240
674.541314	0.084250
674.744782	0.084268
674.948232	0.083965
675.151664	0.083927
675.355078	0.083994
675.558474	0.084173
675.761851	0.084316
675.965210	0.084410
676.168551	0.084552
676.371873	0.084442
676.575178	0.084564
676.778464	0.084685
676.981732	0.084885
677.184981	0.084767
677.388213	0.084673
677.591426	0.084593
677.794621	0.084716
677.997798	0.084738
678.200956	0.084850
678.404097	0.084792
678.607219	0.085059
678.810323	0.085035
679.013408	0.085080
679.216476	0.085058
679.419525	0.085111
679.622556	0.085066
679.825569	0.084915
680.028563	0.084882
680.231540	0.084894
680.434498	0.084887
680.637438	0.084910
680.840359	0.084885
681.043263	0.084938
681.246148	0.085076
681.449015	0.085088
681.651864	0.085181
681.854694	0.085285
682.057506	0.085375
682.260301	0.085384
682.463076	0.085411
682.665834	0.085557
682.868573	0.085646
683.071295	0.085617
683.273998	0.085684
683.476682	0.085800
683.679349	0.085888
683.881997	0.086102
684.084627	0.086138
684.287239	0.086137
684.489833	0.086271
684.692408	0.086210
684.894965	0.086211
685.097504	0.086177
685.300025	0.086291
685.502527	0.086337
685.705012	0.086358
685.907478	0.086415
686.109925	0.086477
686.312355	0.086478
686.514766	0.086459
686.717159	0.086462
686.919534	0.086548
687.121891	0.086539
687.324230	0.086723
687.526550	0.086590
687.728852	0.086545
687.931136	0.086679
688.133401	0.086577
688.335649	0.086493
688.537878	0.086518
688.740089	0.086553
688.942281	0.086603
689.144456	0.086394
689.346612	0.086607
689.548750	0.086525
689.750870	0.086480
689.952971	0.086494
690.155055	0.086806
690.357120	0.086779
690.559167	0.086672
690.761195	0.086571
690.963206	0.086638
691.165198	0.086472
691.367172	0.086593
691.569128	0.086464
691.771065	0.086510
691.972984	0.086450
692.174885	0.086493
692.376768	0.086669
692.578633	0.086898
692.780479	0.086897
692.982308	0.086775
693.184118	0.086890
693.385909	0.086847
