sample name	sample
index	603
start time	 03-16-2021  05:17:18 PM


Wavelength (nm)	Absorbance
494.344910	NaN
494.563924	NaN
494.782919	NaN
495.001897	-0.736893
495.220856	-0.420324
495.439797	-0.322281
495.658719	-0.268353
495.877624	-0.235333
496.096510	-0.156601
496.315378	-0.032179
496.534227	-0.083467
496.753059	-0.028296
496.971872	-0.059876
497.190667	0.118332
497.409444	0.131093
497.628203	0.137328
497.846943	0.142744
498.065665	0.145603
498.284369	0.144689
498.503055	0.145987
498.721723	0.146013
498.940372	0.147652
499.159003	0.148993
499.377616	0.150214
499.596210	0.151048
499.814787	0.150496
500.033345	0.148656
500.251885	0.149245
500.470406	0.149438
500.688910	0.150096
500.907395	0.150191
501.125862	0.150122
501.344311	0.150015
501.562742	0.150767
501.781154	0.151816
501.999548	0.154337
502.217924	0.154898
502.436282	0.154949
502.654621	0.154426
502.872942	0.153269
503.091245	0.152667
503.309530	0.152690
503.527797	0.151667
503.746045	0.150986
503.964275	0.150785
504.182487	0.151320
504.400681	0.150367
504.618856	0.150758
504.837013	0.150864
505.055152	0.151990
505.273273	0.152594
505.491376	0.153395
505.709460	0.154607
505.927526	0.152788
506.145574	0.151551
506.363604	0.150805
506.581615	0.150170
506.799608	0.151834
507.017583	0.150768
507.235540	0.150899
507.453478	0.149061
507.671399	0.147324
507.889301	0.148091
508.107185	0.148351
508.325050	0.150179
508.542898	0.151791
508.760727	0.151758
508.978538	0.153259
509.196330	0.152912
509.414105	0.153451
509.631861	0.153568
509.849599	0.154596
510.067319	0.155931
510.285021	0.157101
510.502704	0.157331
510.720369	0.157108
510.938016	0.156803
511.155645	0.156045
511.373255	0.157254
511.590848	0.157801
511.808422	0.157327
512.025977	0.156355
512.243515	0.155040
512.461034	0.154554
512.678536	0.152727
512.896018	0.152957
513.113483	0.154104
513.330930	0.154856
513.548358	0.154632
513.765768	0.154940
513.983160	0.155294
514.200533	0.154944
514.417889	0.156076
514.635226	0.158835
514.852545	0.158695
515.069845	0.158578
515.287128	0.158957
515.504392	0.159702
515.721638	0.160648
515.938866	0.161602
516.156075	0.162478
516.373267	0.162218
516.590440	0.162294
516.807594	0.162885
517.024731	0.163293
517.241850	0.162380
517.458950	0.162981
517.676032	0.162989
517.893095	0.162064
518.110141	0.162424
518.327168	0.162661
518.544177	0.162488
518.761168	0.162608
518.978141	0.162723
519.195095	0.163419
519.412031	0.164440
519.628949	0.164246
519.845849	0.165280
520.062731	0.166136
520.279594	0.165419
520.496439	0.165468
520.713266	0.165514
520.930074	0.166213
521.146865	0.166427
521.363637	0.165289
521.580391	0.165646
521.797127	0.164683
522.013844	0.164445
522.230543	0.165282
522.447224	0.164850
522.663887	0.164548
522.880532	0.163613
523.097158	0.164315
523.313766	0.164733
523.530356	0.165119
523.746928	0.166019
523.963481	0.166217
524.180017	0.166224
524.396534	0.166039
524.613032	0.166866
524.829513	0.167445
525.045975	0.167938
525.262420	0.167792
525.478845	0.167611
525.695253	0.169027
525.911643	0.169343
526.128014	0.169336
526.344367	0.170220
526.560702	0.170228
526.777018	0.170955
526.993316	0.171806
527.209597	0.173389
527.425858	0.173700
527.642102	0.172536
527.858328	0.172599
528.074535	0.173183
528.290724	0.173770
528.506894	0.173898
528.723047	0.174426
528.939181	0.172780
529.155297	0.172950
529.371395	0.173299
529.587475	0.173998
529.803536	0.174225
530.019579	0.174567
530.235604	0.174344
530.451611	0.175116
530.667600	0.175041
530.883570	0.176089
531.099522	0.176619
531.315456	0.177508
531.531372	0.177862
531.747269	0.178004
531.963148	0.178234
532.179009	0.179120
532.394852	0.179128
532.610676	0.179826
532.826482	0.179741
533.042271	0.179289
533.258040	0.179440
533.473792	0.179786
533.689525	0.181021
533.905240	0.181681
534.120937	0.181981
534.336616	0.182387
534.552277	0.182815
534.767919	0.183448
534.983543	0.183401
535.199149	0.183460
535.414736	0.184137
535.630306	0.183859
535.845857	0.184022
536.061390	0.184228
536.276904	0.185237
536.492401	0.185125
536.707879	0.185786
536.923339	0.186167
537.138781	0.186557
537.354204	0.186145
537.569610	0.186276
537.784997	0.186458
538.000366	0.187063
538.215716	0.186762
538.431049	0.186551
538.646363	0.186561
538.861659	0.187498
539.076937	0.187884
539.292196	0.188576
539.507438	0.188676
539.722661	0.189319
539.937866	0.189204
540.153052	0.188985
540.368221	0.189775
540.583371	0.190878
540.798503	0.190801
541.013617	0.191145
541.228712	0.191322
541.443789	0.191856
541.658848	0.191960
541.873889	0.191778
542.088912	0.192361
542.303916	0.192788
542.518902	0.192196
542.733870	0.192088
542.948820	0.191779
543.163752	0.192117
543.378665	0.192553
543.593560	0.192375
543.808437	0.193534
544.023295	0.193877
544.238136	0.193728
544.452958	0.194405
544.667762	0.194709
544.882548	0.195428
545.097315	0.196098
545.312064	0.196114
545.526795	0.196723
545.741508	0.196413
545.956203	0.196582
546.170879	0.196717
546.385537	0.196355
546.600177	0.197283
546.814799	0.198105
547.029402	0.198078
547.243988	0.198978
547.458555	0.199353
547.673103	0.200399
547.887634	0.200715
548.102146	0.201381
548.316640	0.202308
548.531116	0.201845
548.745574	0.201404
548.960013	0.201805
549.174435	0.201654
549.388838	0.201525
549.603222	0.200772
549.817589	0.200828
550.031937	0.200546
550.246267	0.200367
550.460579	0.200762
550.674873	0.200791
550.889148	0.200521
551.103405	0.200830
551.317644	0.201394
551.531865	0.202149
551.746068	0.202774
551.960252	0.203433
552.174418	0.203779
552.388566	0.204224
552.602696	0.204463
552.816807	0.204937
553.030900	0.204879
553.244975	0.204853
553.459032	0.204642
553.673070	0.204747
553.887091	0.204914
554.101093	0.205302
554.315077	0.205921
554.529042	0.206555
554.742990	0.206330
554.956919	0.206965
555.170830	0.207384
555.384722	0.207627
555.598597	0.207573
555.812453	0.207996
556.026291	0.207584
556.240111	0.207080
556.453913	0.207039
556.667696	0.207122
556.881461	0.207324
557.095208	0.207690
557.308937	0.208052
557.522647	0.208422
557.736339	0.208564
557.950013	0.208902
558.163669	0.208867
558.377307	0.209165
558.590926	0.209896
558.804527	0.209690
559.018110	0.209387
559.231675	0.209702
559.445221	0.209712
559.658749	0.210370
559.872259	0.210081
560.085751	0.210604
560.299225	0.210625
560.512680	0.210934
560.726117	0.211492
560.939536	0.211690
561.152937	0.212093
561.366319	0.212124
561.579683	0.211379
561.793029	0.211938
562.006357	0.212287
562.219667	0.212945
562.432958	0.213689
562.646231	0.213241
562.859486	0.213601
563.072723	0.213112
563.285941	0.213614
563.499141	0.214304
563.712323	0.214441
563.925487	0.214513
564.138632	0.214231
564.351760	0.213565
564.564869	0.214271
564.777960	0.214130
564.991032	0.214706
565.204087	0.214823
565.417123	0.214770
565.630141	0.214981
565.843140	0.214831
566.056122	0.214850
566.269085	0.214964
566.482030	0.214831
566.694957	0.214970
566.907866	0.215656
567.120756	0.215397
567.333628	0.215494
567.546482	0.215861
567.759318	0.215816
567.972135	0.216430
568.184935	0.216765
568.397716	0.216852
568.610478	0.216766
568.823223	0.216088
569.035949	0.216441
569.248657	0.216608
569.461347	0.216691
569.674019	0.217174
569.886672	0.216963
570.099308	0.217246
570.311925	0.217827
570.524523	0.218397
570.737104	0.218933
570.949666	0.219114
571.162210	0.219183
571.374736	0.219154
571.587244	0.219391
571.799733	0.219896
572.012205	0.219434
572.224658	0.219571
572.437092	0.220090
572.649509	0.219968
572.861907	0.220400
573.074287	0.220966
573.286649	0.220831
573.498993	0.220715
573.711318	0.220752
573.923625	0.220933
574.135914	0.220806
574.348185	0.220567
574.560438	0.220829
574.772672	0.220696
574.984888	0.220815
575.197086	0.221145
575.409266	0.221411
575.621427	0.220990
575.833570	0.221708
576.045695	0.221584
576.257802	0.221743
576.469890	0.221714
576.681961	0.221615
576.894013	0.221402
577.106046	0.221068
577.318062	0.221282
577.530059	0.221625
577.742039	0.221252
577.954000	0.221961
578.165942	0.221976
578.377867	0.221928
578.589773	0.222331
578.801661	0.222487
579.013531	0.223146
579.225382	0.223460
579.437216	0.223967
579.649031	0.224260
579.860828	0.223744
580.072606	0.224102
580.284367	0.224722
580.496109	0.224813
580.707833	0.224729
580.919539	0.224775
581.131227	0.224861
581.342896	0.224555
581.554547	0.224386
581.766180	0.224908
581.977795	0.224940
582.189391	0.224680
582.400969	0.224965
582.612529	0.225575
582.824071	0.225764
583.035595	0.225605
583.247100	0.225672
583.458587	0.225829
583.670056	0.225760
583.881506	0.226237
584.092939	0.226256
584.304353	0.226396
584.515749	0.226690
584.727127	0.226943
584.938486	0.227023
585.149828	0.227036
585.361151	0.227297
585.572456	0.227854
585.783742	0.227714
585.995011	0.228339
586.206261	0.228337
586.417493	0.227895
586.628706	0.228167
586.839902	0.228209
587.051079	0.229016
587.262238	0.229552
587.473379	0.229512
587.684502	0.229421
587.895606	0.229596
588.106692	0.229957
588.317760	0.230639
588.528810	0.230673
588.739841	0.231246
588.950855	0.231293
589.161850	0.231292
589.372827	0.231262
589.583785	0.231707
589.794726	0.231414
590.005648	0.231132
590.216552	0.230861
590.427437	0.230844
590.638305	0.230891
590.849154	0.230647
591.059985	0.230642
591.270798	0.230736
591.481592	0.230229
591.692369	0.230384
591.903127	0.231023
592.113867	0.231036
592.324588	0.231669
592.535292	0.231897
592.745977	0.232033
592.956644	0.232606
593.167293	0.232661
593.377923	0.233935
593.588536	0.234472
593.799130	0.234536
594.009706	0.235259
594.220263	0.234913
594.430803	0.234741
594.641324	0.234692
594.851827	0.234332
595.062312	0.234598
595.272778	0.234388
595.483227	0.233986
595.693657	0.234068
595.904069	0.233845
596.114462	0.234096
596.324838	0.234177
596.535195	0.234380
596.745534	0.234594
596.955855	0.234640
597.166157	0.234329
597.376441	0.234902
597.586707	0.234911
597.796955	0.234848
598.007185	0.235092
598.217396	0.235458
598.427589	0.235519
598.637764	0.235719
598.847921	0.235485
599.058060	0.235593
599.268180	0.235476
599.478282	0.235426
599.688366	0.235675
599.898431	0.235750
600.108479	0.235846
600.318508	0.235985
600.528519	0.236095
600.738511	0.237022
600.948486	0.237103
601.158442	0.237101
601.368380	0.237703
601.578300	0.238015
601.788202	0.237992
601.998085	0.238295
602.207950	0.238599
602.417797	0.238774
602.627626	0.239016
602.837436	0.239457
603.047228	0.239682
603.257002	0.239481
603.466758	0.239039
603.676496	0.239014
603.886215	0.239168
604.095916	0.239284
604.305599	0.239901
604.515264	0.239666
604.724910	0.240050
604.934538	0.240363
605.144148	0.240470
605.353740	0.240788
605.563314	0.241310
605.772869	0.241450
605.982406	0.241867
606.191925	0.241705
606.401425	0.241862
606.610908	0.242002
606.820372	0.242404
607.029818	0.242686
607.239246	0.243261
607.448655	0.243572
607.658047	0.243447
607.867420	0.243430
608.076775	0.243135
608.286111	0.243355
608.495430	0.243152
608.704730	0.243012
608.914012	0.243102
609.123275	0.243414
609.332521	0.243323
609.541748	0.243678
609.750957	0.243828
609.960148	0.244209
610.169321	0.244140
610.378475	0.244353
610.587611	0.244459
610.796729	0.244937
611.005829	0.244535
611.214910	0.244714
611.423974	0.244792
611.633019	0.245083
611.842045	0.245281
612.051054	0.245507
612.260044	0.245819
612.469017	0.245930
612.677970	0.246019
612.886906	0.246094
613.095824	0.246188
613.304723	0.246280
613.513604	0.246275
613.722467	0.246388
613.931311	0.246248
614.140138	0.245922
614.348946	0.246056
614.557736	0.246044
614.766507	0.246485
614.975261	0.246950
615.183996	0.247106
615.392713	0.247174
615.601412	0.247316
615.810092	0.247546
616.018754	0.247986
616.227399	0.248279
616.436024	0.248305
616.644632	0.248378
616.853222	0.248111
617.061793	0.248548
617.270346	0.248764
617.478880	0.248892
617.687397	0.249441
617.895895	0.249419
618.104375	0.249416
618.312837	0.249497
618.521281	0.249729
618.729706	0.249760
618.938113	0.249685
619.146502	0.250013
619.354873	0.250244
619.563226	0.249951
619.771560	0.250456
619.979876	0.250387
620.188174	0.250249
620.396453	0.249907
620.604715	0.250184
620.812958	0.250210
621.021183	0.250091
621.229390	0.250075
621.437578	0.250179
621.645748	0.250352
621.853900	0.250641
622.062034	0.251306
622.270150	0.251809
622.478247	0.251975
622.686326	0.251933
622.894387	0.252150
623.102430	0.252329
623.310454	0.252615
623.518461	0.252505
623.726449	0.253198
623.934418	0.252849
624.142370	0.252986
624.350303	0.253249
624.558218	0.253342
624.766115	0.252972
624.973994	0.252940
625.181855	0.252974
625.389697	0.252986
625.597521	0.252531
625.805327	0.252751
626.013114	0.252522
626.220883	0.252267
626.428634	0.252718
626.636367	0.253105
626.844082	0.253497
627.051778	0.253641
627.259457	0.253637
627.467117	0.253787
627.674758	0.253950
627.882382	0.254431
628.089987	0.254950
628.297574	0.255112
628.505143	0.255377
628.712694	0.255167
628.920226	0.255204
629.127740	0.255143
629.335236	0.255399
629.542714	0.255776
629.750174	0.255837
629.957615	0.255996
630.165038	0.256253
630.372443	0.256404
630.579829	0.256625
630.787198	0.257083
630.994548	0.257854
631.201880	0.257758
631.409194	0.257675
631.616489	0.257990
631.823766	0.257826
632.031025	0.257719
632.238266	0.258032
632.445489	0.258489
632.652693	0.258388
632.859879	0.258338
633.067047	0.258887
633.274197	0.259419
633.481329	0.259478
633.688442	0.260048
633.895537	0.260182
634.102614	0.260257
634.309672	0.260562
634.516713	0.260987
634.723735	0.261060
634.930739	0.261004
635.137724	0.261211
635.344692	0.261678
635.551641	0.261456
635.758572	0.261587
635.965485	0.261757
636.172379	0.261673
636.379256	0.261782
636.586114	0.261942
636.792954	0.262326
636.999775	0.261977
637.206579	0.261852
637.413364	0.262227
637.620131	0.262711
637.826880	0.262921
638.033610	0.263091
638.240323	0.263030
638.447017	0.263591
638.653692	0.263622
638.860350	0.264136
639.066990	0.264129
639.273611	0.264208
639.480214	0.263901
639.686798	0.264125
639.893365	0.264341
640.099913	0.264630
640.306443	0.264361
640.512955	0.264451
640.719449	0.264318
640.925924	0.264433
641.132381	0.264601
641.338820	0.265221
641.545241	0.265307
641.751644	0.265362
641.958028	0.265558
642.164394	0.265940
642.370742	0.266098
642.577071	0.266434
642.783383	0.267214
642.989676	0.267499
643.195951	0.267321
643.402207	0.267460
643.608446	0.267808
643.814666	0.268104
644.020868	0.268320
644.227052	0.268494
644.433218	0.269018
644.639365	0.268711
644.845494	0.268816
645.051605	0.269285
645.257698	0.269673
645.463772	0.269969
645.669828	0.269977
645.875866	0.270082
646.081886	0.270578
646.287888	0.270564
646.493871	0.270692
646.699836	0.270779
646.905783	0.270445
647.111712	0.270274
647.317622	0.270107
647.523514	0.270384
647.729388	0.270699
647.935244	0.270556
648.141082	0.270476
648.346901	0.270899
648.552702	0.271244
648.758485	0.271758
648.964250	0.272027
649.169996	0.272252
649.375724	0.272206
649.581434	0.272257
649.787126	0.272374
649.992800	0.272623
650.198455	0.272767
650.404092	0.272547
650.609711	0.272790
650.815311	0.273171
651.020894	0.273662
651.226458	0.274232
651.432004	0.274528
651.637532	0.274802
651.843041	0.275109
652.048532	0.275384
652.254006	0.275797
652.459460	0.275813
652.664897	0.275807
652.870315	0.275886
653.075716	0.275648
653.281097	0.275787
653.486461	0.275841
653.691807	0.275899
653.897134	0.275699
654.102443	0.275810
654.307734	0.276156
654.513006	0.276347
654.718261	0.276389
654.923497	0.276572
655.128715	0.276581
655.333915	0.277071
655.539096	0.277229
655.744259	0.277596
655.949404	0.277711
656.154531	0.277424
656.359640	0.277398
656.564730	0.277717
656.769802	0.278279
656.974856	0.278462
657.179892	0.278354
657.384909	0.278177
657.589908	0.278013
657.794889	0.278259
657.999852	0.278716
658.204797	0.279031
658.409723	0.278811
658.614631	0.278821
658.819521	0.279114
659.024393	0.279426
659.229246	0.280278
659.434081	0.280978
659.638898	0.281547
659.843697	0.281765
660.048478	0.282141
660.253240	0.282625
660.457984	0.282715
660.662710	0.282666
660.867417	0.282861
661.072107	0.282958
661.276778	0.283129
661.481431	0.283110
661.686066	0.283525
661.890682	0.283381
662.095281	0.283449
662.299861	0.283493
662.504422	0.283763
662.708966	0.283908
662.913491	0.283899
663.117999	0.283894
663.322488	0.284061
663.526958	0.284025
663.731411	0.284456
663.935845	0.284665
664.140261	0.285273
664.344659	0.285454
664.549038	0.285526
664.753400	0.285772
664.957743	0.286031
665.162068	0.286164
665.366375	0.286510
665.570663	0.286582
665.774933	0.286833
665.979185	0.286925
666.183419	0.286844
666.387635	0.287196
666.591832	0.287172
666.796011	0.287367
667.000172	0.287495
667.204315	0.287749
667.408439	0.288048
667.612545	0.288351
667.816634	0.288447
668.020703	0.288822
668.224755	0.288732
668.428788	0.289410
668.632803	0.289574
668.836800	0.289801
669.040779	0.289922
669.244739	0.290398
669.448681	0.290529
669.652605	0.290840
669.856511	0.291262
670.060399	0.291950
670.264268	0.291757
670.468119	0.291687
670.671952	0.291907
670.875767	0.292086
671.079563	0.292249
671.283341	0.292842
671.487101	0.292911
671.690843	0.292997
671.894567	0.293136
672.098272	0.293736
672.301959	0.294513
672.505628	0.295056
672.709278	0.295303
672.912911	0.295418
673.116525	0.295340
673.320121	0.295732
673.523699	0.296198
673.727258	0.296521
673.930799	0.296378
674.134322	0.296526
674.337827	0.296278
674.541314	0.296420
674.744782	0.296708
674.948232	0.296562
675.151664	0.296714
675.355078	0.296723
675.558474	0.296585
675.761851	0.297018
675.965210	0.296936
676.168551	0.297196
676.371873	0.297409
676.575178	0.297261
676.778464	0.297654
676.981732	0.297890
677.184981	0.298307
677.388213	0.298661
677.591426	0.298880
677.794621	0.299265
677.997798	0.299687
678.200956	0.299979
678.404097	0.300390
678.607219	0.300588
678.810323	0.300767
679.013408	0.300794
679.216476	0.300979
679.419525	0.300930
679.622556	0.300940
679.825569	0.301287
680.028563	0.301655
680.231540	0.302070
680.434498	0.302430
680.637438	0.302594
680.840359	0.302942
681.043263	0.303197
681.246148	0.303273
681.449015	0.303584
681.651864	0.303859
681.854694	0.304008
682.057506	0.303972
682.260301	0.304288
682.463076	0.304761
682.665834	0.305006
682.868573	0.305318
683.071295	0.305622
683.273998	0.305941
683.476682	0.305955
683.679349	0.305964
683.881997	0.306155
684.084627	0.306211
684.287239	0.306148
684.489833	0.306437
684.692408	0.306603
684.894965	0.306954
685.097504	0.307210
685.300025	0.307189
685.502527	0.307548
685.705012	0.307829
685.907478	0.307651
686.109925	0.307821
686.312355	0.308111
686.514766	0.308167
686.717159	0.308300
686.919534	0.308475
687.121891	0.308504
687.324230	0.308942
687.526550	0.309246
687.728852	0.309826
687.931136	0.309998
688.133401	0.309865
688.335649	0.310002
688.537878	0.310269
688.740089	0.310482
688.942281	0.310948
689.144456	0.310952
689.346612	0.310877
689.548750	0.311159
689.750870	0.311272
689.952971	0.311608
690.155055	0.311930
690.357120	0.312018
690.559167	0.312087
690.761195	0.312286
690.963206	0.312398
691.165198	0.312884
691.367172	0.312741
691.569128	0.312981
691.771065	0.313335
691.972984	0.313612
692.174885	0.313866
692.376768	0.314326
692.578633	0.314730
692.780479	0.314491
692.982308	0.314460
693.184118	0.314822
693.385909	0.315212
