sample name	sample
index	813
start time	 03-31-2021  03:27:37 PM


Wavelength (nm)	Absorbance
494.344910	-0.376641
494.563924	-0.376641
494.782919	-0.376641
495.001897	-0.536243
495.220856	-0.108400
495.439797	0.036183
495.658719	0.169480
495.877624	0.604437
496.096510	NaN
496.315378	0.590147
496.534227	NaN
496.753059	NaN
496.971872	0.536503
497.190667	0.106304
497.409444	0.095759
497.628203	0.093158
497.846943	0.093393
498.065665	0.094994
498.284369	0.096449
498.503055	0.097066
498.721723	0.097491
498.940372	0.098804
499.159003	0.098966
499.377616	0.100522
499.596210	0.100899
499.814787	0.101153
500.033345	0.100874
500.251885	0.101394
500.470406	0.101372
500.688910	0.100683
500.907395	0.100394
501.125862	0.101115
501.344311	0.100089
501.562742	0.100698
501.781154	0.101107
501.999548	0.101234
502.217924	0.100258
502.436282	0.099976
502.654621	0.100788
502.872942	0.100977
503.091245	0.100612
503.309530	0.101823
503.527797	0.101899
503.746045	0.101793
503.964275	0.102506
504.182487	0.103323
504.400681	0.102411
504.618856	0.101386
504.837013	0.101697
505.055152	0.101507
505.273273	0.100401
505.491376	0.100896
505.709460	0.100558
505.927526	0.100244
506.145574	0.099298
506.363604	0.100762
506.581615	0.101334
506.799608	0.100501
507.017583	0.101007
507.235540	0.101392
507.453478	0.100597
507.671399	0.101572
507.889301	0.100161
508.107185	0.101165
508.325050	0.100322
508.542898	0.100873
508.760727	0.101216
508.978538	0.100675
509.196330	0.100742
509.414105	0.101464
509.631861	0.100836
509.849599	0.101257
510.067319	0.100737
510.285021	0.101783
510.502704	0.102252
510.720369	0.102361
510.938016	0.102784
511.155645	0.101659
511.373255	0.101032
511.590848	0.101654
511.808422	0.102690
512.025977	0.102647
512.243515	0.101336
512.461034	0.100456
512.678536	0.100308
512.896018	0.100713
513.113483	0.102100
513.330930	0.103029
513.548358	0.103000
513.765768	0.102993
513.983160	0.103499
514.200533	0.104449
514.417889	0.104711
514.635226	0.104990
514.852545	0.104405
515.069845	0.103930
515.287128	0.103419
515.504392	0.103518
515.721638	0.103548
515.938866	0.103308
516.156075	0.102981
516.373267	0.102702
516.590440	0.102823
516.807594	0.102685
517.024731	0.103213
517.241850	0.103864
517.458950	0.103649
517.676032	0.103494
517.893095	0.103558
518.110141	0.103566
518.327168	0.103522
518.544177	0.103280
518.761168	0.103885
518.978141	0.103494
519.195095	0.103275
519.412031	0.103866
519.628949	0.104524
519.845849	0.105176
520.062731	0.105030
520.279594	0.105559
520.496439	0.106314
520.713266	0.105875
520.930074	0.106397
521.146865	0.106910
521.363637	0.106478
521.580391	0.105881
521.797127	0.105699
522.013844	0.106159
522.230543	0.106002
522.447224	0.105569
522.663887	0.105640
522.880532	0.105743
523.097158	0.105322
523.313766	0.105524
523.530356	0.106146
523.746928	0.106232
523.963481	0.106454
524.180017	0.106988
524.396534	0.106804
524.613032	0.106956
524.829513	0.107058
525.045975	0.107528
525.262420	0.107049
525.478845	0.107116
525.695253	0.107313
525.911643	0.107570
526.128014	0.107399
526.344367	0.107762
526.560702	0.107910
526.777018	0.108034
526.993316	0.108344
527.209597	0.109113
527.425858	0.109073
527.642102	0.108704
527.858328	0.108932
528.074535	0.108654
528.290724	0.108812
528.506894	0.108726
528.723047	0.109112
528.939181	0.108639
529.155297	0.108445
529.371395	0.108251
529.587475	0.108484
529.803536	0.108656
530.019579	0.109458
530.235604	0.108919
530.451611	0.108999
530.667600	0.108541
530.883570	0.108723
531.099522	0.109097
531.315456	0.109586
531.531372	0.110031
531.747269	0.109839
531.963148	0.109430
532.179009	0.110059
532.394852	0.110378
532.610676	0.110454
532.826482	0.110818
533.042271	0.111020
533.258040	0.110988
533.473792	0.110704
533.689525	0.110952
533.905240	0.111181
534.120937	0.111608
534.336616	0.111940
534.552277	0.112578
534.767919	0.112331
534.983543	0.113370
535.199149	0.113663
535.414736	0.113910
535.630306	0.114122
535.845857	0.114334
536.061390	0.113960
536.276904	0.114046
536.492401	0.114136
536.707879	0.114516
536.923339	0.114138
537.138781	0.114337
537.354204	0.114434
537.569610	0.114749
537.784997	0.114841
538.000366	0.115737
538.215716	0.116059
538.431049	0.116764
538.646363	0.116648
538.861659	0.116910
539.076937	0.116711
539.292196	0.117048
539.507438	0.116420
539.722661	0.116515
539.937866	0.116224
540.153052	0.116335
540.368221	0.116079
540.583371	0.116748
540.798503	0.116600
541.013617	0.116918
541.228712	0.117244
541.443789	0.117671
541.658848	0.117546
541.873889	0.117085
542.088912	0.117454
542.303916	0.117574
542.518902	0.117191
542.733870	0.117139
542.948820	0.117028
543.163752	0.116874
543.378665	0.117131
543.593560	0.117709
543.808437	0.118790
544.023295	0.118471
544.238136	0.118904
544.452958	0.119607
544.667762	0.119838
544.882548	0.120848
545.097315	0.120765
545.312064	0.121428
545.526795	0.121841
545.741508	0.121925
545.956203	0.122634
546.170879	0.122481
546.385537	0.122889
546.600177	0.122815
546.814799	0.122132
547.029402	0.122230
547.243988	0.122093
547.458555	0.121966
547.673103	0.122171
547.887634	0.122231
548.102146	0.122556
548.316640	0.122431
548.531116	0.123002
548.745574	0.123483
548.960013	0.123874
549.174435	0.124405
549.388838	0.124462
549.603222	0.124511
549.817589	0.124534
550.031937	0.124196
550.246267	0.124262
550.460579	0.124200
550.674873	0.124273
550.889148	0.124686
551.103405	0.124528
551.317644	0.124897
551.531865	0.124781
551.746068	0.125076
551.960252	0.125348
552.174418	0.125181
552.388566	0.125540
552.602696	0.125480
552.816807	0.125513
553.030900	0.125659
553.244975	0.125532
553.459032	0.126071
553.673070	0.126076
553.887091	0.126050
554.101093	0.126360
554.315077	0.126605
554.529042	0.127122
554.742990	0.127351
554.956919	0.127483
555.170830	0.127655
555.384722	0.127603
555.598597	0.127370
555.812453	0.127590
556.026291	0.127640
556.240111	0.127413
556.453913	0.127283
556.667696	0.126997
556.881461	0.126965
557.095208	0.127278
557.308937	0.127322
557.522647	0.127792
557.736339	0.127721
557.950013	0.127904
558.163669	0.128278
558.377307	0.128339
558.590926	0.129039
558.804527	0.129289
559.018110	0.129551
559.231675	0.130061
559.445221	0.129687
559.658749	0.129671
559.872259	0.129718
560.085751	0.129374
560.299225	0.129709
560.512680	0.129664
560.726117	0.129524
560.939536	0.129279
561.152937	0.128991
561.366319	0.129393
561.579683	0.129682
561.793029	0.130166
562.006357	0.130240
562.219667	0.130325
562.432958	0.130193
562.646231	0.130133
562.859486	0.130453
563.072723	0.130353
563.285941	0.130673
563.499141	0.130933
563.712323	0.130676
563.925487	0.130961
564.138632	0.131204
564.351760	0.131181
564.564869	0.131475
564.777960	0.131637
564.991032	0.131715
565.204087	0.131962
565.417123	0.132289
565.630141	0.132493
565.843140	0.132742
566.056122	0.132585
566.269085	0.132951
566.482030	0.133486
566.694957	0.133474
566.907866	0.133769
567.120756	0.133558
567.333628	0.133924
567.546482	0.134127
567.759318	0.134179
567.972135	0.134106
568.184935	0.134306
568.397716	0.134233
568.610478	0.133977
568.823223	0.134286
569.035949	0.134745
569.248657	0.134278
569.461347	0.134124
569.674019	0.133950
569.886672	0.134627
570.099308	0.134442
570.311925	0.134614
570.524523	0.134791
570.737104	0.134935
570.949666	0.134697
571.162210	0.135124
571.374736	0.135147
571.587244	0.135701
571.799733	0.135401
572.012205	0.135735
572.224658	0.135494
572.437092	0.135895
572.649509	0.135788
572.861907	0.135863
573.074287	0.135855
573.286649	0.136293
573.498993	0.136229
573.711318	0.136656
573.923625	0.136744
574.135914	0.137026
574.348185	0.137043
574.560438	0.137362
574.772672	0.137606
574.984888	0.137631
575.197086	0.137370
575.409266	0.137797
575.621427	0.137723
575.833570	0.137740
576.045695	0.137930
576.257802	0.138303
576.469890	0.138044
576.681961	0.137923
576.894013	0.137842
577.106046	0.138239
577.318062	0.137868
577.530059	0.138205
577.742039	0.138813
577.954000	0.138933
578.165942	0.138778
578.377867	0.139078
578.589773	0.139233
578.801661	0.139495
579.013531	0.139527
579.225382	0.139893
579.437216	0.139938
579.649031	0.139363
579.860828	0.139148
580.072606	0.139464
580.284367	0.139861
580.496109	0.139889
580.707833	0.140196
580.919539	0.140431
581.131227	0.140648
581.342896	0.140641
581.554547	0.140816
581.766180	0.141296
581.977795	0.141304
582.189391	0.141218
582.400969	0.141323
582.612529	0.141380
582.824071	0.141472
583.035595	0.141295
583.247100	0.141158
583.458587	0.141379
583.670056	0.141589
583.881506	0.141474
584.092939	0.141769
584.304353	0.141947
584.515749	0.141974
584.727127	0.142071
584.938486	0.142417
585.149828	0.142903
585.361151	0.143053
585.572456	0.142756
585.783742	0.143082
585.995011	0.142482
586.206261	0.142822
586.417493	0.143275
586.628706	0.143243
586.839902	0.143388
587.051079	0.143415
587.262238	0.143736
587.473379	0.143977
587.684502	0.143996
587.895606	0.144445
588.106692	0.144572
588.317760	0.144568
588.528810	0.144818
588.739841	0.144898
588.950855	0.144891
589.161850	0.144494
589.372827	0.144721
589.583785	0.145108
589.794726	0.145337
590.005648	0.145463
590.216552	0.145439
590.427437	0.145442
590.638305	0.145279
590.849154	0.145467
591.059985	0.146027
591.270798	0.145936
591.481592	0.146043
591.692369	0.146070
591.903127	0.146113
592.113867	0.146174
592.324588	0.146514
592.535292	0.146643
592.745977	0.146748
592.956644	0.146903
593.167293	0.147495
593.377923	0.147091
593.588536	0.147398
593.799130	0.147696
594.009706	0.147992
594.220263	0.148305
594.430803	0.148648
594.641324	0.148774
594.851827	0.148477
595.062312	0.148216
595.272778	0.148873
595.483227	0.148607
595.693657	0.148179
595.904069	0.147764
596.114462	0.147317
596.324838	0.147855
596.535195	0.148299
596.745534	0.148450
596.955855	0.148916
597.166157	0.148985
597.376441	0.149480
597.586707	0.149883
597.796955	0.150460
598.007185	0.150992
598.217396	0.150420
598.427589	0.150341
598.637764	0.150906
598.847921	0.150617
599.058060	0.150610
599.268180	0.150715
599.478282	0.150814
599.688366	0.150500
599.898431	0.150495
600.108479	0.150644
600.318508	0.150428
600.528519	0.150235
600.738511	0.150374
600.948486	0.150286
601.158442	0.149921
601.368380	0.149785
601.578300	0.150379
601.788202	0.150439
601.998085	0.150746
602.207950	0.150761
602.417797	0.151123
602.627626	0.151176
602.837436	0.151334
603.047228	0.151661
603.257002	0.152218
603.466758	0.152220
603.676496	0.152206
603.886215	0.152211
604.095916	0.152463
604.305599	0.152692
604.515264	0.152617
604.724910	0.152567
604.934538	0.152547
605.144148	0.152285
605.353740	0.151952
605.563314	0.151936
605.772869	0.151853
605.982406	0.152037
606.191925	0.151678
606.401425	0.151883
606.610908	0.151949
606.820372	0.151991
607.029818	0.152094
607.239246	0.152553
607.448655	0.152200
607.658047	0.152636
607.867420	0.152518
608.076775	0.152596
608.286111	0.152968
608.495430	0.153339
608.704730	0.153735
608.914012	0.153886
609.123275	0.153660
609.332521	0.154354
609.541748	0.154257
609.750957	0.154191
609.960148	0.154488
610.169321	0.154223
610.378475	0.154386
610.587611	0.154021
610.796729	0.153929
611.005829	0.154299
611.214910	0.154127
611.423974	0.153794
611.633019	0.154077
611.842045	0.154092
612.051054	0.154253
612.260044	0.153884
612.469017	0.154380
612.677970	0.154655
612.886906	0.154550
613.095824	0.154820
613.304723	0.155178
613.513604	0.155215
613.722467	0.155181
613.931311	0.155397
614.140138	0.155900
614.348946	0.155893
614.557736	0.155803
614.766507	0.156110
614.975261	0.156552
615.183996	0.156604
615.392713	0.156849
615.601412	0.157056
615.810092	0.156998
616.018754	0.156863
616.227399	0.157048
616.436024	0.157467
616.644632	0.157286
616.853222	0.157231
617.061793	0.157457
617.270346	0.157531
617.478880	0.157720
617.687397	0.157969
617.895895	0.158024
618.104375	0.158011
618.312837	0.158115
618.521281	0.158219
618.729706	0.157988
618.938113	0.158496
619.146502	0.158414
619.354873	0.158358
619.563226	0.158809
619.771560	0.159189
619.979876	0.159416
620.188174	0.159480
620.396453	0.159808
620.604715	0.160015
620.812958	0.159584
621.021183	0.160163
621.229390	0.160393
621.437578	0.160172
621.645748	0.159890
621.853900	0.160111
622.062034	0.160068
622.270150	0.159930
622.478247	0.160389
622.686326	0.160695
622.894387	0.160639
623.102430	0.160613
623.310454	0.160679
623.518461	0.161087
623.726449	0.160883
623.934418	0.160960
624.142370	0.161075
624.350303	0.160665
624.558218	0.160557
624.766115	0.160452
624.973994	0.160455
625.181855	0.160480
625.389697	0.160624
625.597521	0.161114
625.805327	0.161554
626.013114	0.161726
626.220883	0.161974
626.428634	0.161936
626.636367	0.161976
626.844082	0.162173
627.051778	0.162508
627.259457	0.162321
627.467117	0.162060
627.674758	0.161718
627.882382	0.161922
628.089987	0.161952
628.297574	0.162550
628.505143	0.162847
628.712694	0.163065
628.920226	0.163039
629.127740	0.163476
629.335236	0.163799
629.542714	0.164153
629.750174	0.164434
629.957615	0.164608
630.165038	0.164580
630.372443	0.164650
630.579829	0.164817
630.787198	0.164972
630.994548	0.164891
631.201880	0.164875
631.409194	0.164864
631.616489	0.164624
631.823766	0.164828
632.031025	0.164752
632.238266	0.164603
632.445489	0.164423
632.652693	0.164451
632.859879	0.164460
633.067047	0.164485
633.274197	0.164605
633.481329	0.164750
633.688442	0.164876
633.895537	0.165064
634.102614	0.165328
634.309672	0.165457
634.516713	0.165660
634.723735	0.165876
634.930739	0.165781
635.137724	0.165825
635.344692	0.165701
635.551641	0.165626
635.758572	0.165438
635.965485	0.165884
636.172379	0.166004
636.379256	0.165844
636.586114	0.165848
636.792954	0.166120
636.999775	0.166279
637.206579	0.166820
637.413364	0.166879
637.620131	0.167314
637.826880	0.167165
638.033610	0.167667
638.240323	0.167841
638.447017	0.168105
638.653692	0.168357
638.860350	0.168250
639.066990	0.168414
639.273611	0.168731
639.480214	0.168866
639.686798	0.168706
639.893365	0.168590
640.099913	0.168786
640.306443	0.168891
640.512955	0.168847
640.719449	0.169113
640.925924	0.169038
641.132381	0.169164
641.338820	0.169353
641.545241	0.169621
641.751644	0.169482
641.958028	0.169642
642.164394	0.169762
642.370742	0.169922
642.577071	0.170071
642.783383	0.170495
642.989676	0.170537
643.195951	0.170417
643.402207	0.170623
643.608446	0.170770
643.814666	0.170741
644.020868	0.170774
644.227052	0.170774
644.433218	0.170897
644.639365	0.170694
644.845494	0.170707
645.051605	0.170672
645.257698	0.170752
645.463772	0.171132
645.669828	0.171095
645.875866	0.171375
646.081886	0.171654
646.287888	0.171792
646.493871	0.171935
646.699836	0.172287
646.905783	0.172760
647.111712	0.173036
647.317622	0.173083
647.523514	0.173339
647.729388	0.173399
647.935244	0.173330
648.141082	0.173282
648.346901	0.173021
648.552702	0.173055
648.758485	0.173028
648.964250	0.172904
649.169996	0.173013
649.375724	0.173126
649.581434	0.173097
649.787126	0.173442
649.992800	0.173682
650.198455	0.174102
650.404092	0.174101
650.609711	0.174027
650.815311	0.174028
651.020894	0.174101
651.226458	0.174399
651.432004	0.174589
651.637532	0.174690
651.843041	0.174847
652.048532	0.175053
652.254006	0.175189
652.459460	0.175577
652.664897	0.175842
652.870315	0.175715
653.075716	0.175618
653.281097	0.175707
653.486461	0.175832
653.691807	0.175942
653.897134	0.176119
654.102443	0.176141
654.307734	0.175957
654.513006	0.175950
654.718261	0.176424
654.923497	0.176564
655.128715	0.176761
655.333915	0.176760
655.539096	0.176811
655.744259	0.176870
655.949404	0.177170
656.154531	0.177406
656.359640	0.177617
656.564730	0.177553
656.769802	0.177657
656.974856	0.177596
657.179892	0.177687
657.384909	0.177828
657.589908	0.177781
657.794889	0.177827
657.999852	0.178051
658.204797	0.178191
658.409723	0.178265
658.614631	0.178473
658.819521	0.178517
659.024393	0.178955
659.229246	0.179230
659.434081	0.179670
659.638898	0.179846
659.843697	0.179870
660.048478	0.179971
660.253240	0.180363
660.457984	0.180495
660.662710	0.180674
660.867417	0.180547
661.072107	0.180394
661.276778	0.180221
661.481431	0.180185
661.686066	0.180404
661.890682	0.180518
662.095281	0.180431
662.299861	0.180321
662.504422	0.180587
662.708966	0.180749
662.913491	0.180959
663.117999	0.181196
663.322488	0.181431
663.526958	0.181402
663.731411	0.181593
663.935845	0.181887
664.140261	0.182328
664.344659	0.182295
664.549038	0.182351
664.753400	0.182596
664.957743	0.182604
665.162068	0.182981
665.366375	0.183309
665.570663	0.183446
665.774933	0.183290
665.979185	0.183357
666.183419	0.183517
666.387635	0.183590
666.591832	0.183635
666.796011	0.183782
667.000172	0.183614
667.204315	0.183894
667.408439	0.183734
667.612545	0.183930
667.816634	0.184051
668.020703	0.184131
668.224755	0.184428
668.428788	0.184501
668.632803	0.184763
668.836800	0.185062
669.040779	0.185105
669.244739	0.185342
669.448681	0.185475
669.652605	0.185579
669.856511	0.185993
670.060399	0.186222
670.264268	0.186614
670.468119	0.186763
670.671952	0.186940
670.875767	0.186854
671.079563	0.187115
671.283341	0.187358
671.487101	0.187481
671.690843	0.187481
671.894567	0.187415
672.098272	0.187487
672.301959	0.187508
672.505628	0.187374
672.709278	0.187788
672.912911	0.187911
673.116525	0.187991
673.320121	0.188185
673.523699	0.188356
673.727258	0.188536
673.930799	0.188566
674.134322	0.188691
674.337827	0.188784
674.541314	0.188583
674.744782	0.188691
674.948232	0.188821
675.151664	0.188986
675.355078	0.188999
675.558474	0.189172
675.761851	0.189185
675.965210	0.189384
676.168551	0.189525
676.371873	0.189847
676.575178	0.189994
676.778464	0.190114
676.981732	0.190253
677.184981	0.190414
677.388213	0.190513
677.591426	0.190684
677.794621	0.190670
677.997798	0.190966
678.200956	0.191056
678.404097	0.191460
678.607219	0.191646
678.810323	0.191725
679.013408	0.191835
679.216476	0.191878
679.419525	0.192117
679.622556	0.192331
679.825569	0.192488
680.028563	0.192657
680.231540	0.192330
680.434498	0.192261
680.637438	0.192554
680.840359	0.192618
681.043263	0.192727
681.246148	0.192690
681.449015	0.193020
681.651864	0.193182
681.854694	0.193210
682.057506	0.193465
682.260301	0.193837
682.463076	0.193705
682.665834	0.193973
682.868573	0.194301
683.071295	0.194585
683.273998	0.194570
683.476682	0.194580
683.679349	0.194580
683.881997	0.195054
684.084627	0.195248
684.287239	0.195236
684.489833	0.195417
684.692408	0.195418
684.894965	0.195438
685.097504	0.195694
685.300025	0.196076
685.502527	0.196544
685.705012	0.196145
685.907478	0.196100
686.109925	0.196420
686.312355	0.196550
686.514766	0.196551
686.717159	0.196762
686.919534	0.196795
687.121891	0.196739
687.324230	0.196588
687.526550	0.196980
687.728852	0.197092
687.931136	0.197062
688.133401	0.196880
688.335649	0.197131
688.537878	0.197134
688.740089	0.197146
688.942281	0.197047
689.144456	0.197125
689.346612	0.197303
689.548750	0.197252
689.750870	0.197444
689.952971	0.197422
690.155055	0.197247
690.357120	0.197335
690.559167	0.197401
690.761195	0.197538
690.963206	0.197896
691.165198	0.197790
691.367172	0.197965
691.569128	0.198013
691.771065	0.198344
691.972984	0.198644
692.174885	0.198811
692.376768	0.199281
692.578633	0.199489
692.780479	0.199425
692.982308	0.199520
693.184118	0.199625
693.385909	0.199700
693.587683	0.199839
