sample name	sample
index	162
start time	 02-15-2021  03:13:31 PM


Wavelength (nm)	Absorbance
494.344910	-0.920590
494.563924	-0.920590
494.782919	-0.920590
495.001897	-0.268845
495.220856	NaN
495.439797	NaN
495.658719	NaN
495.877624	-0.341894
496.096510	NaN
496.315378	NaN
496.534227	NaN
496.753059	NaN
496.971872	NaN
497.190667	0.165424
497.409444	0.108608
497.628203	0.093400
497.846943	0.097580
498.065665	0.083490
498.284369	0.076265
498.503055	0.078543
498.721723	0.073222
498.940372	0.074037
499.159003	0.079475
499.377616	0.080711
499.596210	0.084243
499.814787	0.083836
500.033345	0.086177
500.251885	0.088071
500.470406	0.087524
500.688910	0.090167
500.907395	0.089391
501.125862	0.089151
501.344311	0.085702
501.562742	0.084072
501.781154	0.082832
501.999548	0.082179
502.217924	0.081721
502.436282	0.081298
502.654621	0.081001
502.872942	0.084987
503.091245	0.082666
503.309530	0.084247
503.527797	0.082862
503.746045	0.084248
503.964275	0.083921
504.182487	0.085871
504.400681	0.086911
504.618856	0.086465
504.837013	0.083317
505.055152	0.084312
505.273273	0.083011
505.491376	0.083780
505.709460	0.086278
505.927526	0.087238
506.145574	0.087994
506.363604	0.088440
506.581615	0.089063
506.799608	0.088730
507.017583	0.088252
507.235540	0.090454
507.453478	0.091314
507.671399	0.089616
507.889301	0.091658
508.107185	0.090533
508.325050	0.090143
508.542898	0.088247
508.760727	0.087724
508.978538	0.088217
509.196330	0.087479
509.414105	0.088851
509.631861	0.089480
509.849599	0.088372
510.067319	0.088749
510.285021	0.090852
510.502704	0.093873
510.720369	0.095311
510.938016	0.095663
511.155645	0.096213
511.373255	0.095472
511.590848	0.092788
511.808422	0.093421
512.025977	0.092914
512.243515	0.089350
512.461034	0.087954
512.678536	0.088746
512.896018	0.089480
513.113483	0.087384
513.330930	0.087469
513.548358	0.089098
513.765768	0.088260
513.983160	0.091014
514.200533	0.093548
514.417889	0.093878
514.635226	0.092755
514.852545	0.093297
515.069845	0.095776
515.287128	0.097164
515.504392	0.098380
515.721638	0.100029
515.938866	0.098777
516.156075	0.097434
516.373267	0.098434
516.590440	0.099887
516.807594	0.097578
517.024731	0.097253
517.241850	0.096356
517.458950	0.094955
517.676032	0.096370
517.893095	0.097722
518.110141	0.098186
518.327168	0.097109
518.544177	0.095193
518.761168	0.097680
518.978141	0.096741
519.195095	0.094661
519.412031	0.096184
519.628949	0.091772
519.845849	0.089582
520.062731	0.090127
520.279594	0.090957
520.496439	0.091295
520.713266	0.089122
520.930074	0.092686
521.146865	0.094612
521.363637	0.094452
521.580391	0.096952
521.797127	0.097101
522.013844	0.098096
522.230543	0.097561
522.447224	0.097861
522.663887	0.099960
522.880532	0.097476
523.097158	0.097959
523.313766	0.100303
523.530356	0.100733
523.746928	0.101173
523.963481	0.101193
524.180017	0.103385
524.396534	0.104792
524.613032	0.104641
524.829513	0.105708
525.045975	0.103967
525.262420	0.099591
525.478845	0.099062
525.695253	0.100097
525.911643	0.099623
526.128014	0.099654
526.344367	0.100097
526.560702	0.101738
526.777018	0.101057
526.993316	0.104130
527.209597	0.106965
527.425858	0.109500
527.642102	0.109820
527.858328	0.110753
528.074535	0.111357
528.290724	0.113034
528.506894	0.112239
528.723047	0.113308
528.939181	0.112675
529.155297	0.112238
529.371395	0.110589
529.587475	0.111638
529.803536	0.111515
530.019579	0.110094
530.235604	0.108630
530.451611	0.110172
530.667600	0.112366
530.883570	0.113515
531.099522	0.115885
531.315456	0.117830
531.531372	0.116311
531.747269	0.116390
531.963148	0.118158
532.179009	0.119225
532.394852	0.117287
532.610676	0.117470
532.826482	0.116606
533.042271	0.116517
533.258040	0.114942
533.473792	0.117056
533.689525	0.118767
533.905240	0.117874
534.120937	0.116414
534.336616	0.118197
534.552277	0.116784
534.767919	0.116851
534.983543	0.115930
535.199149	0.118011
535.414736	0.117914
535.630306	0.117245
535.845857	0.118662
536.061390	0.120365
536.276904	0.120188
536.492401	0.120934
536.707879	0.121207
536.923339	0.121940
537.138781	0.120098
537.354204	0.119529
537.569610	0.119767
537.784997	0.120039
538.000366	0.118912
538.215716	0.119365
538.431049	0.119053
538.646363	0.119186
538.861659	0.119834
539.076937	0.120930
539.292196	0.121945
539.507438	0.121287
539.722661	0.121238
539.937866	0.123767
540.153052	0.124126
540.368221	0.125467
540.583371	0.126270
540.798503	0.126060
541.013617	0.127131
541.228712	0.127088
541.443789	0.128561
541.658848	0.128678
541.873889	0.127614
542.088912	0.127951
542.303916	0.127138
542.518902	0.128133
542.733870	0.129934
542.948820	0.129764
543.163752	0.130430
543.378665	0.130528
543.593560	0.131455
543.808437	0.131989
544.023295	0.132345
544.238136	0.132894
544.452958	0.132966
544.667762	0.133439
544.882548	0.134253
545.097315	0.133957
545.312064	0.133794
545.526795	0.132762
545.741508	0.134602
545.956203	0.134625
546.170879	0.135245
546.385537	0.135966
546.600177	0.134943
546.814799	0.135337
547.029402	0.136505
547.243988	0.137088
547.458555	0.137889
547.673103	0.137504
547.887634	0.138617
548.102146	0.139011
548.316640	0.139183
548.531116	0.138484
548.745574	0.138744
548.960013	0.138293
549.174435	0.137575
549.388838	0.138485
549.603222	0.137468
549.817589	0.136736
550.031937	0.137496
550.246267	0.137081
550.460579	0.138539
550.674873	0.137978
550.889148	0.139122
551.103405	0.141047
551.317644	0.140338
551.531865	0.140305
551.746068	0.140806
551.960252	0.140594
552.174418	0.140815
552.388566	0.141041
552.602696	0.141111
552.816807	0.140030
553.030900	0.139971
553.244975	0.140721
553.459032	0.142092
553.673070	0.142596
553.887091	0.142551
554.101093	0.142713
554.315077	0.142486
554.529042	0.142924
554.742990	0.143599
554.956919	0.143146
555.170830	0.143213
555.384722	0.143451
555.598597	0.143328
555.812453	0.144248
556.026291	0.145362
556.240111	0.145689
556.453913	0.145622
556.667696	0.147462
556.881461	0.148152
557.095208	0.148354
557.308937	0.147545
557.522647	0.147380
557.736339	0.146984
557.950013	0.146153
558.163669	0.147296
558.377307	0.148325
558.590926	0.147280
558.804527	0.148541
559.018110	0.148676
559.231675	0.148963
559.445221	0.149073
559.658749	0.149063
559.872259	0.149316
560.085751	0.149504
560.299225	0.149029
560.512680	0.149319
560.726117	0.148381
560.939536	0.148490
561.152937	0.147828
561.366319	0.147389
561.579683	0.147811
561.793029	0.148838
562.006357	0.148316
562.219667	0.149082
562.432958	0.149003
562.646231	0.149236
562.859486	0.150411
563.072723	0.151725
563.285941	0.153320
563.499141	0.153037
563.712323	0.153383
563.925487	0.153109
564.138632	0.153921
564.351760	0.154637
564.564869	0.154937
564.777960	0.153929
564.991032	0.155179
565.204087	0.156507
565.417123	0.156892
565.630141	0.157329
565.843140	0.157895
566.056122	0.156144
566.269085	0.155344
566.482030	0.155355
566.694957	0.155170
566.907866	0.154144
567.120756	0.153472
567.333628	0.154481
567.546482	0.153471
567.759318	0.153737
567.972135	0.154419
568.184935	0.154514
568.397716	0.154860
568.610478	0.156097
568.823223	0.157470
569.035949	0.156471
569.248657	0.155268
569.461347	0.156309
569.674019	0.155846
569.886672	0.157536
570.099308	0.158096
570.311925	0.159139
570.524523	0.158884
570.737104	0.158694
570.949666	0.161225
571.162210	0.162145
571.374736	0.161377
571.587244	0.161861
571.799733	0.160665
572.012205	0.161092
572.224658	0.160355
572.437092	0.161146
572.649509	0.161700
572.861907	0.160951
573.074287	0.161311
573.286649	0.161910
573.498993	0.162621
573.711318	0.162773
573.923625	0.163346
574.135914	0.163292
574.348185	0.162285
574.560438	0.162474
574.772672	0.162136
574.984888	0.162599
575.197086	0.163275
575.409266	0.163116
575.621427	0.164285
575.833570	0.163852
576.045695	0.163668
576.257802	0.164461
576.469890	0.163893
576.681961	0.163878
576.894013	0.163165
577.106046	0.163168
577.318062	0.164163
577.530059	0.164425
577.742039	0.164426
577.954000	0.164907
578.165942	0.166423
578.377867	0.167335
578.589773	0.168091
578.801661	0.168494
579.013531	0.169064
579.225382	0.168537
579.437216	0.168493
579.649031	0.169167
579.860828	0.169999
580.072606	0.168750
580.284367	0.168500
580.496109	0.168924
580.707833	0.169211
580.919539	0.168964
581.131227	0.169241
581.342896	0.169408
581.554547	0.169388
581.766180	0.169146
581.977795	0.170286
582.189391	0.169880
582.400969	0.169661
582.612529	0.170708
582.824071	0.170930
583.035595	0.171399
583.247100	0.171462
583.458587	0.171248
583.670056	0.171702
583.881506	0.171077
584.092939	0.170744
584.304353	0.170713
584.515749	0.170663
584.727127	0.170434
584.938486	0.169805
585.149828	0.170210
585.361151	0.171857
585.572456	0.170619
585.783742	0.171218
585.995011	0.172621
586.206261	0.173166
586.417493	0.172717
586.628706	0.173060
586.839902	0.173320
587.051079	0.172696
587.262238	0.171833
587.473379	0.173429
587.684502	0.173451
587.895606	0.173713
588.106692	0.173733
588.317760	0.174420
588.528810	0.173875
588.739841	0.174746
588.950855	0.175489
589.161850	0.175833
589.372827	0.175669
589.583785	0.175758
589.794726	0.175745
590.005648	0.176234
590.216552	0.176956
590.427437	0.178211
590.638305	0.178186
590.849154	0.178507
591.059985	0.179109
591.270798	0.178958
591.481592	0.179177
591.692369	0.178916
591.903127	0.178062
592.113867	0.177436
592.324588	0.178039
592.535292	0.179058
592.745977	0.180186
592.956644	0.179984
593.167293	0.181417
593.377923	0.181793
593.588536	0.181844
593.799130	0.182827
594.009706	0.183801
594.220263	0.182616
594.430803	0.182684
594.641324	0.181405
594.851827	0.181660
595.062312	0.181860
595.272778	0.181312
595.483227	0.181614
595.693657	0.181687
595.904069	0.181888
596.114462	0.183245
596.324838	0.182877
596.535195	0.184102
596.745534	0.184089
596.955855	0.184154
597.166157	0.184759
597.376441	0.185493
597.586707	0.185858
597.796955	0.185403
598.007185	0.185789
598.217396	0.185860
598.427589	0.186370
598.637764	0.186514
598.847921	0.186729
599.058060	0.187018
599.268180	0.186431
599.478282	0.185978
599.688366	0.185675
599.898431	0.185224
600.108479	0.184955
600.318508	0.184768
600.528519	0.185505
600.738511	0.185209
600.948486	0.185260
601.158442	0.186323
601.368380	0.186799
601.578300	0.187615
601.788202	0.189239
601.998085	0.189588
602.207950	0.188910
602.417797	0.188841
602.627626	0.188481
602.837436	0.189422
603.047228	0.189861
603.257002	0.190307
603.466758	0.190696
603.676496	0.189878
603.886215	0.190158
604.095916	0.190240
604.305599	0.191387
604.515264	0.192224
604.724910	0.192473
604.934538	0.191870
605.144148	0.191799
605.353740	0.191944
605.563314	0.191432
605.772869	0.192424
605.982406	0.193052
606.191925	0.192228
606.401425	0.192939
606.610908	0.192888
606.820372	0.192674
607.029818	0.193046
607.239246	0.192544
607.448655	0.192739
607.658047	0.192641
607.867420	0.192547
608.076775	0.193229
608.286111	0.192611
608.495430	0.192393
608.704730	0.193202
608.914012	0.193317
609.123275	0.193717
609.332521	0.194460
609.541748	0.194451
609.750957	0.195331
609.960148	0.195254
610.169321	0.195215
610.378475	0.196027
610.587611	0.196152
610.796729	0.196472
611.005829	0.196859
611.214910	0.196647
611.423974	0.197225
611.633019	0.197135
611.842045	0.196583
612.051054	0.197018
612.260044	0.196514
612.469017	0.196614
612.677970	0.196337
612.886906	0.196549
613.095824	0.196730
613.304723	0.196576
613.513604	0.197310
613.722467	0.198056
613.931311	0.198530
614.140138	0.199082
614.348946	0.199385
614.557736	0.199870
614.766507	0.199485
614.975261	0.200221
615.183996	0.200135
615.392713	0.199280
615.601412	0.200092
615.810092	0.199254
616.018754	0.199466
616.227399	0.198867
616.436024	0.199114
616.644632	0.199780
616.853222	0.198987
617.061793	0.199552
617.270346	0.200041
617.478880	0.199284
617.687397	0.200125
617.895895	0.200009
618.104375	0.201214
618.312837	0.201166
618.521281	0.201405
618.729706	0.201935
618.938113	0.201700
619.146502	0.201934
619.354873	0.203062
619.563226	0.202474
619.771560	0.202350
619.979876	0.201909
620.188174	0.201983
620.396453	0.202158
620.604715	0.202710
620.812958	0.202991
621.021183	0.203169
621.229390	0.202220
621.437578	0.203297
621.645748	0.204293
621.853900	0.204851
622.062034	0.204380
622.270150	0.204863
622.478247	0.204434
622.686326	0.204659
622.894387	0.204655
623.102430	0.204412
623.310454	0.204691
623.518461	0.204330
623.726449	0.204210
623.934418	0.205324
624.142370	0.205688
624.350303	0.205828
624.558218	0.205582
624.766115	0.205760
624.973994	0.206254
625.181855	0.206891
625.389697	0.207703
625.597521	0.208298
625.805327	0.208718
626.013114	0.208810
626.220883	0.209662
626.428634	0.210425
626.636367	0.211200
626.844082	0.212245
627.051778	0.211529
627.259457	0.210601
627.467117	0.211011
627.674758	0.210969
627.882382	0.210996
628.089987	0.210663
628.297574	0.210785
628.505143	0.209920
628.712694	0.209529
628.920226	0.209841
629.127740	0.211023
629.335236	0.211043
629.542714	0.210905
629.750174	0.209949
629.957615	0.210628
630.165038	0.210951
630.372443	0.211763
630.579829	0.211897
630.787198	0.211919
630.994548	0.211212
631.201880	0.210926
631.409194	0.211107
631.616489	0.211987
631.823766	0.211939
632.031025	0.211925
632.238266	0.212093
632.445489	0.212096
632.652693	0.212439
632.859879	0.213064
633.067047	0.213764
633.274197	0.214085
633.481329	0.214496
633.688442	0.214699
633.895537	0.215134
634.102614	0.215426
634.309672	0.216009
634.516713	0.216616
634.723735	0.217149
634.930739	0.216976
635.137724	0.217369
635.344692	0.217811
635.551641	0.217929
635.758572	0.218552
635.965485	0.218421
636.172379	0.218557
636.379256	0.218967
636.586114	0.218856
636.792954	0.219109
636.999775	0.219536
637.206579	0.219483
637.413364	0.220086
637.620131	0.219976
637.826880	0.220564
638.033610	0.220590
638.240323	0.220281
638.447017	0.220319
638.653692	0.220674
638.860350	0.220634
639.066990	0.220993
639.273611	0.220810
639.480214	0.220179
639.686798	0.220712
639.893365	0.220960
640.099913	0.221271
640.306443	0.221839
640.512955	0.222052
640.719449	0.222397
640.925924	0.222810
641.132381	0.223443
641.338820	0.223932
641.545241	0.223530
641.751644	0.224025
641.958028	0.224462
642.164394	0.224873
642.370742	0.224986
642.577071	0.224908
642.783383	0.224992
642.989676	0.225079
643.195951	0.225376
643.402207	0.225508
643.608446	0.225817
643.814666	0.225839
644.020868	0.225601
644.227052	0.225780
644.433218	0.226578
644.639365	0.226022
644.845494	0.226375
645.051605	0.226742
645.257698	0.227084
645.463772	0.227399
645.669828	0.227507
645.875866	0.227517
646.081886	0.227790
646.287888	0.227233
646.493871	0.228032
646.699836	0.228097
646.905783	0.227889
647.111712	0.228522
647.317622	0.228434
647.523514	0.228750
647.729388	0.229203
647.935244	0.229366
648.141082	0.229562
648.346901	0.229941
648.552702	0.229746
648.758485	0.230403
648.964250	0.230966
649.169996	0.231446
649.375724	0.231520
649.581434	0.232018
649.787126	0.231991
649.992800	0.232181
650.198455	0.232864
650.404092	0.233594
650.609711	0.233421
650.815311	0.232854
651.020894	0.233056
651.226458	0.233771
651.432004	0.233881
651.637532	0.234418
651.843041	0.235120
652.048532	0.235299
652.254006	0.235228
652.459460	0.235438
652.664897	0.236280
652.870315	0.236441
653.075716	0.236222
653.281097	0.236402
653.486461	0.236852
653.691807	0.236725
653.897134	0.236866
654.102443	0.237157
654.307734	0.237599
654.513006	0.237476
654.718261	0.237936
654.923497	0.238418
655.128715	0.238549
655.333915	0.238617
655.539096	0.238987
655.744259	0.238555
655.949404	0.238579
656.154531	0.239643
656.359640	0.239855
656.564730	0.240180
656.769802	0.240127
656.974856	0.240258
657.179892	0.240215
657.384909	0.240750
657.589908	0.241371
657.794889	0.242131
657.999852	0.241579
658.204797	0.242152
658.409723	0.242215
658.614631	0.242866
658.819521	0.243253
659.024393	0.243772
659.229246	0.243956
659.434081	0.244036
659.638898	0.244196
659.843697	0.244727
660.048478	0.244896
660.253240	0.245238
660.457984	0.244914
660.662710	0.245193
660.867417	0.245660
661.072107	0.246252
661.276778	0.246527
661.481431	0.246562
661.686066	0.247204
661.890682	0.247127
662.095281	0.247334
662.299861	0.248484
662.504422	0.249405
662.708966	0.249408
662.913491	0.249449
663.117999	0.249488
663.322488	0.250488
663.526958	0.250662
663.731411	0.251236
663.935845	0.251185
664.140261	0.250914
664.344659	0.251025
664.549038	0.251473
664.753400	0.252145
664.957743	0.252869
665.162068	0.252956
665.366375	0.253528
665.570663	0.253383
665.774933	0.254002
665.979185	0.254778
666.183419	0.254978
666.387635	0.254987
666.591832	0.255247
666.796011	0.255245
667.000172	0.255424
667.204315	0.254996
667.408439	0.255557
667.612545	0.255484
667.816634	0.255433
668.020703	0.255264
668.224755	0.255955
668.428788	0.255930
668.632803	0.256339
668.836800	0.255907
669.040779	0.256298
669.244739	0.256462
669.448681	0.256299
669.652605	0.256052
669.856511	0.256216
670.060399	0.255517
670.264268	0.255567
670.468119	0.255930
670.671952	0.255919
670.875767	0.255625
671.079563	0.255751
671.283341	0.256161
671.487101	0.256758
671.690843	0.257364
671.894567	0.257696
672.098272	0.257868
672.301959	0.257754
672.505628	0.258325
672.709278	0.259171
672.912911	0.259953
673.116525	0.260274
673.320121	0.260521
673.523699	0.260330
673.727258	0.261302
673.930799	0.261611
674.134322	0.261822
674.337827	0.262310
674.541314	0.262346
674.744782	0.262530
674.948232	0.262749
675.151664	0.262728
675.355078	0.263142
675.558474	0.262867
675.761851	0.263045
675.965210	0.263355
676.168551	0.263568
676.371873	0.264068
676.575178	0.263901
676.778464	0.264694
676.981732	0.265434
677.184981	0.265668
677.388213	0.266516
677.591426	0.267593
677.794621	0.268356
677.997798	0.269074
678.200956	0.269358
678.404097	0.270434
678.607219	0.270831
678.810323	0.270820
679.013408	0.270946
679.216476	0.271155
679.419525	0.271159
679.622556	0.271682
679.825569	0.271821
680.028563	0.271643
680.231540	0.271835
680.434498	0.271921
680.637438	0.272410
680.840359	0.272522
681.043263	0.273091
681.246148	0.272923
681.449015	0.272739
681.651864	0.272910
681.854694	0.273276
682.057506	0.272815
682.260301	0.272826
682.463076	0.273116
682.665834	0.273564
682.868573	0.274004
683.071295	0.273961
683.273998	0.274652
683.476682	0.274893
683.679349	0.275101
683.881997	0.275576
684.084627	0.276125
684.287239	0.276419
684.489833	0.276615
684.692408	0.276902
684.894965	0.277338
685.097504	0.277069
685.300025	0.277056
685.502527	0.277477
685.705012	0.277193
685.907478	0.277281
686.109925	0.277047
686.312355	0.278100
686.514766	0.277521
686.717159	0.277674
686.919534	0.277521
687.121891	0.277973
687.324230	0.278639
687.526550	0.279092
687.728852	0.279525
687.931136	0.279999
688.133401	0.279743
688.335649	0.280031
688.537878	0.280705
688.740089	0.281465
688.942281	0.281314
689.144456	0.281163
689.346612	0.281672
689.548750	0.281894
689.750870	0.282224
689.952971	0.282572
690.155055	0.282845
690.357120	0.282503
690.559167	0.282448
690.761195	0.283467
690.963206	0.283765
691.165198	0.283694
691.367172	0.283567
691.569128	0.283533
691.771065	0.283595
691.972984	0.283580
692.174885	0.284058
692.376768	0.284413
692.578633	0.284416
692.780479	0.284576
692.982308	0.285337
693.184118	0.285844
693.385909	0.286737
693.587683	0.286448
693.789438	0.287179
