sample name	sample
index	1170
start time	 04-26-2021  10:56:39 AM


Wavelength (nm)	Absorbance
494.344910	-0.384038
494.563924	-0.384038
494.782919	-0.384038
495.001897	-0.024442
495.220856	-0.202318
495.439797	-0.155056
495.658719	-0.148466
495.877624	-0.153887
496.096510	-0.165384
496.315378	-0.103115
496.534227	-0.098078
496.753059	-0.105859
496.971872	-0.063351
497.190667	0.098744
497.409444	0.113692
497.628203	0.116871
497.846943	0.120172
498.065665	0.119395
498.284369	0.117849
498.503055	0.117559
498.721723	0.117855
498.940372	0.117681
499.159003	0.117664
499.377616	0.117761
499.596210	0.118654
499.814787	0.118529
500.033345	0.118361
500.251885	0.119065
500.470406	0.119251
500.688910	0.120418
500.907395	0.121003
501.125862	0.120479
501.344311	0.119469
501.562742	0.119044
501.781154	0.118722
501.999548	0.120152
502.217924	0.119935
502.436282	0.120055
502.654621	0.119043
502.872942	0.118165
503.091245	0.118981
503.309530	0.119818
503.527797	0.119996
503.746045	0.120425
503.964275	0.120540
504.182487	0.120865
504.400681	0.121187
504.618856	0.121402
504.837013	0.120595
505.055152	0.118982
505.273273	0.118667
505.491376	0.118518
505.709460	0.118036
505.927526	0.116791
506.145574	0.116707
506.363604	0.115911
506.581615	0.116942
506.799608	0.118110
507.017583	0.119123
507.235540	0.119295
507.453478	0.118661
507.671399	0.118385
507.889301	0.118451
508.107185	0.118553
508.325050	0.119534
508.542898	0.119081
508.760727	0.119757
508.978538	0.120164
509.196330	0.120148
509.414105	0.121189
509.631861	0.122055
509.849599	0.121984
510.067319	0.122154
510.285021	0.121805
510.502704	0.122036
510.720369	0.121709
510.938016	0.122720
511.155645	0.122557
511.373255	0.122029
511.590848	0.121571
511.808422	0.122041
512.025977	0.121992
512.243515	0.122015
512.461034	0.122391
512.678536	0.122986
512.896018	0.123163
513.113483	0.123297
513.330930	0.123578
513.548358	0.123967
513.765768	0.123864
513.983160	0.124150
514.200533	0.124865
514.417889	0.124397
514.635226	0.124124
514.852545	0.123473
515.069845	0.123351
515.287128	0.124198
515.504392	0.124742
515.721638	0.124872
515.938866	0.125141
516.156075	0.124635
516.373267	0.124909
516.590440	0.124682
516.807594	0.124887
517.024731	0.125485
517.241850	0.125495
517.458950	0.124671
517.676032	0.125169
517.893095	0.124737
518.110141	0.125037
518.327168	0.125362
518.544177	0.126208
518.761168	0.126978
518.978141	0.126988
519.195095	0.127298
519.412031	0.128601
519.628949	0.129027
519.845849	0.129250
520.062731	0.129406
520.279594	0.129557
520.496439	0.129136
520.713266	0.129205
520.930074	0.129719
521.146865	0.129466
521.363637	0.129571
521.580391	0.129581
521.797127	0.130102
522.013844	0.130457
522.230543	0.130483
522.447224	0.131035
522.663887	0.131166
522.880532	0.131315
523.097158	0.131534
523.313766	0.131083
523.530356	0.131169
523.746928	0.130615
523.963481	0.131195
524.180017	0.131086
524.396534	0.131360
524.613032	0.131176
524.829513	0.131380
525.045975	0.131554
525.262420	0.131560
525.478845	0.131962
525.695253	0.132564
525.911643	0.132014
526.128014	0.132105
526.344367	0.131912
526.560702	0.132381
526.777018	0.132808
526.993316	0.132928
527.209597	0.133184
527.425858	0.133863
527.642102	0.134427
527.858328	0.134647
528.074535	0.135969
528.290724	0.135842
528.506894	0.135681
528.723047	0.135123
528.939181	0.135142
529.155297	0.135980
529.371395	0.135608
529.587475	0.135601
529.803536	0.135795
530.019579	0.135206
530.235604	0.136029
530.451611	0.136039
530.667600	0.136728
530.883570	0.136944
531.099522	0.136598
531.315456	0.137211
531.531372	0.137515
531.747269	0.138090
531.963148	0.138378
532.179009	0.138691
532.394852	0.139106
532.610676	0.139354
532.826482	0.139780
533.042271	0.139705
533.258040	0.139649
533.473792	0.139638
533.689525	0.139861
533.905240	0.139861
534.120937	0.138968
534.336616	0.138764
534.552277	0.139428
534.767919	0.139608
534.983543	0.140396
535.199149	0.140420
535.414736	0.140888
535.630306	0.140950
535.845857	0.141691
536.061390	0.142800
536.276904	0.143467
536.492401	0.143098
536.707879	0.143137
536.923339	0.143048
537.138781	0.142550
537.354204	0.142872
537.569610	0.143359
537.784997	0.142855
538.000366	0.142513
538.215716	0.142931
538.431049	0.143411
538.646363	0.144127
538.861659	0.144880
539.076937	0.145476
539.292196	0.145866
539.507438	0.145963
539.722661	0.146837
539.937866	0.147331
540.153052	0.147260
540.368221	0.147200
540.583371	0.147184
540.798503	0.147203
541.013617	0.148081
541.228712	0.148327
541.443789	0.148728
541.658848	0.148467
541.873889	0.148610
542.088912	0.149509
542.303916	0.150140
542.518902	0.150375
542.733870	0.150272
542.948820	0.150217
543.163752	0.149877
543.378665	0.149964
543.593560	0.149999
543.808437	0.150602
544.023295	0.150023
544.238136	0.150183
544.452958	0.149885
544.667762	0.150177
544.882548	0.150746
545.097315	0.151531
545.312064	0.151503
545.526795	0.151638
545.741508	0.151741
545.956203	0.152176
546.170879	0.152121
546.385537	0.152600
546.600177	0.152550
546.814799	0.152260
547.029402	0.151903
547.243988	0.152129
547.458555	0.152487
547.673103	0.152460
547.887634	0.152441
548.102146	0.152676
548.316640	0.152671
548.531116	0.153175
548.745574	0.153346
548.960013	0.153623
549.174435	0.153680
549.388838	0.154137
549.603222	0.154385
549.817589	0.154984
550.031937	0.154984
550.246267	0.155384
550.460579	0.155492
550.674873	0.155661
550.889148	0.156078
551.103405	0.156738
551.317644	0.156352
551.531865	0.156461
551.746068	0.156384
551.960252	0.156668
552.174418	0.156696
552.388566	0.156714
552.602696	0.156776
552.816807	0.156521
553.030900	0.156310
553.244975	0.156970
553.459032	0.157138
553.673070	0.157239
553.887091	0.157295
554.101093	0.157707
554.315077	0.158161
554.529042	0.158425
554.742990	0.158924
554.956919	0.159028
555.170830	0.159201
555.384722	0.159742
555.598597	0.159865
555.812453	0.160124
556.026291	0.160542
556.240111	0.160486
556.453913	0.160322
556.667696	0.160167
556.881461	0.160100
557.095208	0.160432
557.308937	0.159607
557.522647	0.159750
557.736339	0.159849
557.950013	0.159902
558.163669	0.160320
558.377307	0.160568
558.590926	0.160586
558.804527	0.161114
559.018110	0.161064
559.231675	0.161761
559.445221	0.162151
559.658749	0.162261
559.872259	0.162021
560.085751	0.161790
560.299225	0.161690
560.512680	0.161752
560.726117	0.161818
560.939536	0.161783
561.152937	0.161611
561.366319	0.161518
561.579683	0.161517
561.793029	0.161714
562.006357	0.161760
562.219667	0.162498
562.432958	0.163055
562.646231	0.162841
562.859486	0.163104
563.072723	0.163169
563.285941	0.163471
563.499141	0.163811
563.712323	0.163959
563.925487	0.164500
564.138632	0.164429
564.351760	0.164086
564.564869	0.164548
564.777960	0.164685
564.991032	0.164890
565.204087	0.164954
565.417123	0.165379
565.630141	0.165252
565.843140	0.165374
566.056122	0.165755
566.269085	0.166338
566.482030	0.166184
566.694957	0.166758
566.907866	0.167135
567.120756	0.167316
567.333628	0.167431
567.546482	0.168006
567.759318	0.168184
567.972135	0.168238
568.184935	0.168507
568.397716	0.168796
568.610478	0.168723
568.823223	0.169008
569.035949	0.169024
569.248657	0.169347
569.461347	0.169316
569.674019	0.169467
569.886672	0.169257
570.099308	0.169114
570.311925	0.169380
570.524523	0.169198
570.737104	0.169333
570.949666	0.169551
571.162210	0.169529
571.374736	0.169328
571.587244	0.169008
571.799733	0.169509
572.012205	0.169843
572.224658	0.169936
572.437092	0.170098
572.649509	0.170502
572.861907	0.170687
573.074287	0.170595
573.286649	0.171495
573.498993	0.171924
573.711318	0.172086
573.923625	0.171747
574.135914	0.171961
574.348185	0.171915
574.560438	0.172029
574.772672	0.172771
574.984888	0.172857
575.197086	0.173161
575.409266	0.173341
575.621427	0.173164
575.833570	0.173691
576.045695	0.173664
576.257802	0.174154
576.469890	0.174508
576.681961	0.174140
576.894013	0.174449
577.106046	0.174311
577.318062	0.174487
577.530059	0.174941
577.742039	0.175244
577.954000	0.175608
578.165942	0.176174
578.377867	0.175997
578.589773	0.176286
578.801661	0.176144
579.013531	0.176066
579.225382	0.176230
579.437216	0.176368
579.649031	0.176168
579.860828	0.176309
580.072606	0.176335
580.284367	0.176233
580.496109	0.176091
580.707833	0.176342
580.919539	0.176682
581.131227	0.177038
581.342896	0.177271
581.554547	0.177677
581.766180	0.177592
581.977795	0.177321
582.189391	0.177789
582.400969	0.177965
582.612529	0.177928
582.824071	0.178242
583.035595	0.178324
583.247100	0.178186
583.458587	0.178591
583.670056	0.178931
583.881506	0.179141
584.092939	0.179600
584.304353	0.179759
584.515749	0.180505
584.727127	0.180373
584.938486	0.180472
585.149828	0.180586
585.361151	0.180698
585.572456	0.181380
585.783742	0.181709
585.995011	0.181305
586.206261	0.181483
586.417493	0.181240
586.628706	0.181661
586.839902	0.181989
587.051079	0.182431
587.262238	0.182571
587.473379	0.182387
587.684502	0.182635
587.895606	0.182960
588.106692	0.183287
588.317760	0.183809
588.528810	0.184010
588.739841	0.184404
588.950855	0.184895
589.161850	0.184744
589.372827	0.185183
589.583785	0.185476
589.794726	0.186077
590.005648	0.186431
590.216552	0.186423
590.427437	0.186108
590.638305	0.185765
590.849154	0.185670
591.059985	0.186140
591.270798	0.186049
591.481592	0.185819
591.692369	0.185529
591.903127	0.185568
592.113867	0.185866
592.324588	0.186564
592.535292	0.187180
592.745977	0.187330
592.956644	0.187501
593.167293	0.188046
593.377923	0.188524
593.588536	0.189205
593.799130	0.189421
594.009706	0.189526
594.220263	0.189585
594.430803	0.189605
594.641324	0.189882
594.851827	0.189958
595.062312	0.189638
595.272778	0.189795
595.483227	0.189633
595.693657	0.189925
595.904069	0.190063
596.114462	0.190405
596.324838	0.190445
596.535195	0.190623
596.745534	0.190501
596.955855	0.190802
597.166157	0.190506
597.376441	0.190804
597.586707	0.190574
597.796955	0.190520
598.007185	0.190429
598.217396	0.190472
598.427589	0.190477
598.637764	0.190660
598.847921	0.190861
599.058060	0.191209
599.268180	0.191007
599.478282	0.191411
599.688366	0.191880
599.898431	0.191931
600.108479	0.191917
600.318508	0.191927
600.528519	0.192610
600.738511	0.192484
600.948486	0.192711
601.158442	0.192819
601.368380	0.192628
601.578300	0.192842
601.788202	0.192785
601.998085	0.192961
602.207950	0.193056
602.417797	0.193128
602.627626	0.193471
602.837436	0.193448
603.047228	0.193729
603.257002	0.193991
603.466758	0.193968
603.676496	0.194279
603.886215	0.194466
604.095916	0.194391
604.305599	0.194333
604.515264	0.194665
604.724910	0.194696
604.934538	0.194677
605.144148	0.194750
605.353740	0.194507
605.563314	0.194581
605.772869	0.194803
605.982406	0.195427
606.191925	0.195243
606.401425	0.195007
606.610908	0.195229
606.820372	0.195443
607.029818	0.195658
607.239246	0.196151
607.448655	0.196563
607.658047	0.196435
607.867420	0.196408
608.076775	0.196635
608.286111	0.197108
608.495430	0.197218
608.704730	0.197174
608.914012	0.197186
609.123275	0.197290
609.332521	0.196757
609.541748	0.196819
609.750957	0.196936
609.960148	0.197218
610.169321	0.197324
610.378475	0.197695
610.587611	0.198107
610.796729	0.198316
611.005829	0.198489
611.214910	0.198733
611.423974	0.198861
611.633019	0.198805
611.842045	0.198815
612.051054	0.198684
612.260044	0.198740
612.469017	0.198748
612.677970	0.198773
612.886906	0.198439
613.095824	0.198929
613.304723	0.199469
613.513604	0.199924
613.722467	0.200044
613.931311	0.199960
614.140138	0.200051
614.348946	0.200019
614.557736	0.200245
614.766507	0.200727
614.975261	0.200541
615.183996	0.200674
615.392713	0.200541
615.601412	0.200625
615.810092	0.200961
616.018754	0.201245
616.227399	0.201460
616.436024	0.201636
616.644632	0.201695
616.853222	0.202086
617.061793	0.201719
617.270346	0.201825
617.478880	0.201843
617.687397	0.202051
617.895895	0.201896
618.104375	0.202081
618.312837	0.201744
618.521281	0.201812
618.729706	0.201910
618.938113	0.202331
619.146502	0.202341
619.354873	0.202476
619.563226	0.202245
619.771560	0.202476
619.979876	0.202410
620.188174	0.202643
620.396453	0.202799
620.604715	0.202464
620.812958	0.202496
621.021183	0.202649
621.229390	0.202578
621.437578	0.202818
621.645748	0.202688
621.853900	0.202934
622.062034	0.203322
622.270150	0.203131
622.478247	0.203598
622.686326	0.203562
622.894387	0.203594
623.102430	0.204012
623.310454	0.204024
623.518461	0.204180
623.726449	0.204026
623.934418	0.204201
624.142370	0.204580
624.350303	0.204929
624.558218	0.205132
624.766115	0.205752
624.973994	0.206016
625.181855	0.206038
625.389697	0.206343
625.597521	0.206865
625.805327	0.207059
626.013114	0.207278
626.220883	0.207248
626.428634	0.207516
626.636367	0.207424
626.844082	0.207356
627.051778	0.207569
627.259457	0.207818
627.467117	0.207755
627.674758	0.207600
627.882382	0.207701
628.089987	0.207872
628.297574	0.207938
628.505143	0.208114
628.712694	0.208414
628.920226	0.208463
629.127740	0.208400
629.335236	0.208828
629.542714	0.209080
629.750174	0.209321
629.957615	0.209366
630.165038	0.209678
630.372443	0.209612
630.579829	0.209528
630.787198	0.209957
630.994548	0.210189
631.201880	0.210044
631.409194	0.210162
631.616489	0.210185
631.823766	0.210056
632.031025	0.210193
632.238266	0.210169
632.445489	0.210399
632.652693	0.210586
632.859879	0.210632
633.067047	0.210858
633.274197	0.210827
633.481329	0.210947
633.688442	0.211134
633.895537	0.211068
634.102614	0.211376
634.309672	0.211349
634.516713	0.211371
634.723735	0.211192
634.930739	0.211249
635.137724	0.211565
635.344692	0.211581
635.551641	0.211847
635.758572	0.212137
635.965485	0.212295
636.172379	0.212687
636.379256	0.212905
636.586114	0.213095
636.792954	0.213237
636.999775	0.213043
637.206579	0.213320
637.413364	0.213475
637.620131	0.213360
637.826880	0.213602
638.033610	0.213777
638.240323	0.213657
638.447017	0.213937
638.653692	0.213968
638.860350	0.214631
639.066990	0.214444
639.273611	0.214378
639.480214	0.214618
639.686798	0.214764
639.893365	0.214812
640.099913	0.215191
640.306443	0.215537
640.512955	0.215835
640.719449	0.215735
640.925924	0.215939
641.132381	0.216227
641.338820	0.216594
641.545241	0.216716
641.751644	0.216710
641.958028	0.216822
642.164394	0.217022
642.370742	0.217018
642.577071	0.217275
642.783383	0.217897
642.989676	0.218165
643.195951	0.218173
643.402207	0.218275
643.608446	0.218603
643.814666	0.218613
644.020868	0.218581
644.227052	0.218857
644.433218	0.218817
644.639365	0.218779
644.845494	0.219018
645.051605	0.219246
645.257698	0.219475
645.463772	0.219714
645.669828	0.219937
645.875866	0.220139
646.081886	0.220273
646.287888	0.220640
646.493871	0.220624
646.699836	0.220705
646.905783	0.220787
647.111712	0.220977
647.317622	0.220930
647.523514	0.221407
647.729388	0.221748
647.935244	0.221890
648.141082	0.222114
648.346901	0.222470
648.552702	0.222563
648.758485	0.222764
648.964250	0.222849
649.169996	0.223253
649.375724	0.223002
649.581434	0.222957
649.787126	0.222924
649.992800	0.223005
650.198455	0.223233
650.404092	0.223412
650.609711	0.223418
650.815311	0.223504
651.020894	0.223670
651.226458	0.224058
651.432004	0.224421
651.637532	0.224725
651.843041	0.224815
652.048532	0.224869
652.254006	0.224946
652.459460	0.225265
652.664897	0.225498
652.870315	0.225549
653.075716	0.225569
653.281097	0.225702
653.486461	0.225938
653.691807	0.226289
653.897134	0.226364
654.102443	0.226761
654.307734	0.227036
654.513006	0.227432
654.718261	0.227693
654.923497	0.228206
655.128715	0.228357
655.333915	0.228726
655.539096	0.228910
655.744259	0.229235
655.949404	0.229371
656.154531	0.229482
656.359640	0.229358
656.564730	0.229500
656.769802	0.229534
656.974856	0.229711
657.179892	0.229845
657.384909	0.229808
657.589908	0.230107
657.794889	0.230372
657.999852	0.230663
658.204797	0.230820
658.409723	0.231075
658.614631	0.231100
658.819521	0.231314
659.024393	0.231398
659.229246	0.231861
659.434081	0.232199
659.638898	0.232431
659.843697	0.232656
660.048478	0.232875
660.253240	0.232909
660.457984	0.233331
660.662710	0.233459
660.867417	0.233731
661.072107	0.233694
661.276778	0.233552
661.481431	0.233537
661.686066	0.233587
661.890682	0.234021
662.095281	0.234265
662.299861	0.234428
662.504422	0.234616
662.708966	0.234716
662.913491	0.234787
663.117999	0.234979
663.322488	0.235238
663.526958	0.235506
663.731411	0.235380
663.935845	0.235480
664.140261	0.235680
664.344659	0.235798
664.549038	0.235881
664.753400	0.236134
664.957743	0.236275
665.162068	0.236401
665.366375	0.236429
665.570663	0.236813
665.774933	0.236941
665.979185	0.236809
666.183419	0.237095
666.387635	0.237252
666.591832	0.237406
666.796011	0.237566
667.000172	0.237721
667.204315	0.237803
667.408439	0.237873
667.612545	0.238112
667.816634	0.238397
668.020703	0.238348
668.224755	0.238707
668.428788	0.238915
668.632803	0.239296
668.836800	0.239493
669.040779	0.239794
669.244739	0.240120
669.448681	0.240554
669.652605	0.240967
669.856511	0.241278
670.060399	0.241562
670.264268	0.242095
670.468119	0.242294
670.671952	0.242549
670.875767	0.242628
671.079563	0.242700
671.283341	0.242714
671.487101	0.242773
671.690843	0.242928
671.894567	0.242761
672.098272	0.242891
672.301959	0.242731
672.505628	0.242782
672.709278	0.243111
672.912911	0.243270
673.116525	0.243471
673.320121	0.243788
673.523699	0.243949
673.727258	0.244417
673.930799	0.244493
674.134322	0.244945
674.337827	0.245142
674.541314	0.245327
674.744782	0.245741
674.948232	0.246169
675.151664	0.246348
675.355078	0.246712
675.558474	0.247056
675.761851	0.247329
675.965210	0.247590
676.168551	0.248161
676.371873	0.248331
676.575178	0.248602
676.778464	0.248587
676.981732	0.248621
677.184981	0.248567
677.388213	0.248554
677.591426	0.248723
677.794621	0.248780
677.997798	0.248978
678.200956	0.249370
678.404097	0.249373
678.607219	0.249482
678.810323	0.249761
679.013408	0.250103
679.216476	0.250473
679.419525	0.250553
679.622556	0.250706
679.825569	0.250621
680.028563	0.250449
680.231540	0.250569
680.434498	0.250771
680.637438	0.251000
680.840359	0.251131
681.043263	0.250947
681.246148	0.250851
681.449015	0.250867
681.651864	0.250793
681.854694	0.250999
682.057506	0.251104
682.260301	0.251237
682.463076	0.251118
682.665834	0.251249
682.868573	0.251623
683.071295	0.252108
683.273998	0.252485
683.476682	0.252995
683.679349	0.253521
683.881997	0.253759
684.084627	0.254061
684.287239	0.254459
684.489833	0.254726
684.692408	0.254766
684.894965	0.254826
685.097504	0.255171
685.300025	0.255133
685.502527	0.255061
685.705012	0.255194
685.907478	0.255489
686.109925	0.255585
686.312355	0.256004
686.514766	0.256306
686.717159	0.256656
686.919534	0.256746
687.121891	0.257054
687.324230	0.257421
687.526550	0.257672
687.728852	0.257600
687.931136	0.257877
688.133401	0.257892
688.335649	0.258096
688.537878	0.258112
688.740089	0.258121
688.942281	0.258307
689.144456	0.258226
689.346612	0.258367
689.548750	0.258592
689.750870	0.258772
689.952971	0.258901
690.155055	0.259212
690.357120	0.259408
690.559167	0.259735
690.761195	0.259771
690.963206	0.260155
691.165198	0.260279
691.367172	0.260388
691.569128	0.260402
691.771065	0.260636
691.972984	0.260658
692.174885	0.260839
692.376768	0.260749
692.578633	0.261051
692.780479	0.261054
692.982308	0.261403
693.184118	0.261587
