sample name	sample
index	930
start time	 04-12-2021  12:20:56 PM


Wavelength (nm)	Absorbance
494.344910	0.517678
494.563924	0.517678
494.782919	0.517678
495.001897	-0.183765
495.220856	-0.053404
495.439797	-0.115740
495.658719	-0.052168
495.877624	-0.096761
496.096510	-0.129730
496.315378	-0.122879
496.534227	-0.076689
496.753059	-0.032321
496.971872	-0.037012
497.190667	0.088325
497.409444	0.098302
497.628203	0.098415
497.846943	0.101355
498.065665	0.103005
498.284369	0.103440
498.503055	0.102417
498.721723	0.101301
498.940372	0.101660
499.159003	0.102813
499.377616	0.103047
499.596210	0.103052
499.814787	0.103079
500.033345	0.102739
500.251885	0.103109
500.470406	0.103766
500.688910	0.105302
500.907395	0.105937
501.125862	0.106283
501.344311	0.106291
501.562742	0.106229
501.781154	0.107707
501.999548	0.107962
502.217924	0.107927
502.436282	0.108437
502.654621	0.108598
502.872942	0.109322
503.091245	0.108338
503.309530	0.108993
503.527797	0.109682
503.746045	0.108579
503.964275	0.108592
504.182487	0.109122
504.400681	0.109026
504.618856	0.108475
504.837013	0.108684
505.055152	0.109921
505.273273	0.110711
505.491376	0.111297
505.709460	0.110842
505.927526	0.110979
506.145574	0.111310
506.363604	0.112297
506.581615	0.112880
506.799608	0.112573
507.017583	0.112939
507.235540	0.112187
507.453478	0.111996
507.671399	0.112503
507.889301	0.112352
508.107185	0.112181
508.325050	0.110812
508.542898	0.111638
508.760727	0.111231
508.978538	0.110608
509.196330	0.110949
509.414105	0.110640
509.631861	0.110452
509.849599	0.110555
510.067319	0.110080
510.285021	0.110945
510.502704	0.110443
510.720369	0.111353
510.938016	0.111083
511.155645	0.111225
511.373255	0.112356
511.590848	0.112703
511.808422	0.114146
512.025977	0.114838
512.243515	0.115654
512.461034	0.116686
512.678536	0.116763
512.896018	0.118082
513.113483	0.117835
513.330930	0.116971
513.548358	0.118239
513.765768	0.117923
513.983160	0.117821
514.200533	0.117867
514.417889	0.116952
514.635226	0.117051
514.852545	0.117058
515.069845	0.117295
515.287128	0.118225
515.504392	0.117796
515.721638	0.118110
515.938866	0.118320
516.156075	0.118080
516.373267	0.119017
516.590440	0.119076
516.807594	0.119050
517.024731	0.119722
517.241850	0.119276
517.458950	0.118842
517.676032	0.119197
517.893095	0.119628
518.110141	0.119681
518.327168	0.119184
518.544177	0.119238
518.761168	0.119199
518.978141	0.119377
519.195095	0.120026
519.412031	0.120549
519.628949	0.121011
519.845849	0.121146
520.062731	0.122263
520.279594	0.122848
520.496439	0.124117
520.713266	0.124071
520.930074	0.124007
521.146865	0.124213
521.363637	0.125007
521.580391	0.124548
521.797127	0.124881
522.013844	0.124319
522.230543	0.124749
522.447224	0.124635
522.663887	0.125241
522.880532	0.126130
523.097158	0.126907
523.313766	0.126665
523.530356	0.127133
523.746928	0.127943
523.963481	0.128892
524.180017	0.128966
524.396534	0.128826
524.613032	0.129883
524.829513	0.130009
525.045975	0.129882
525.262420	0.130325
525.478845	0.130359
525.695253	0.129681
525.911643	0.129273
526.128014	0.130217
526.344367	0.130289
526.560702	0.129980
526.777018	0.130074
526.993316	0.130622
527.209597	0.131193
527.425858	0.132161
527.642102	0.133430
527.858328	0.134013
528.074535	0.134016
528.290724	0.134309
528.506894	0.135094
528.723047	0.135659
528.939181	0.136046
529.155297	0.136838
529.371395	0.136785
529.587475	0.136603
529.803536	0.136803
530.019579	0.137171
530.235604	0.137811
530.451611	0.137692
530.667600	0.137745
530.883570	0.137897
531.099522	0.137279
531.315456	0.137696
531.531372	0.138862
531.747269	0.139342
531.963148	0.139784
532.179009	0.140354
532.394852	0.140860
532.610676	0.141207
532.826482	0.141457
533.042271	0.141971
533.258040	0.142367
533.473792	0.142025
533.689525	0.143048
533.905240	0.143219
534.120937	0.143217
534.336616	0.143493
534.552277	0.144306
534.767919	0.144907
534.983543	0.145545
535.199149	0.146114
535.414736	0.147015
535.630306	0.146940
535.845857	0.146965
536.061390	0.147927
536.276904	0.147857
536.492401	0.148287
536.707879	0.148157
536.923339	0.148710
537.138781	0.149137
537.354204	0.148584
537.569610	0.148843
537.784997	0.149544
538.000366	0.149497
538.215716	0.150069
538.431049	0.149925
538.646363	0.150555
538.861659	0.150429
539.076937	0.150211
539.292196	0.151202
539.507438	0.151873
539.722661	0.152013
539.937866	0.152268
540.153052	0.152306
540.368221	0.152211
540.583371	0.152359
540.798503	0.152835
541.013617	0.153245
541.228712	0.153251
541.443789	0.153493
541.658848	0.153965
541.873889	0.153933
542.088912	0.154396
542.303916	0.155162
542.518902	0.155390
542.733870	0.155565
542.948820	0.156111
543.163752	0.156585
543.378665	0.156558
543.593560	0.156869
543.808437	0.157460
544.023295	0.157893
544.238136	0.158420
544.452958	0.158974
544.667762	0.159623
544.882548	0.159717
545.097315	0.159644
545.312064	0.159251
545.526795	0.159706
545.741508	0.160199
545.956203	0.160801
546.170879	0.160679
546.385537	0.160950
546.600177	0.161170
546.814799	0.161401
547.029402	0.162010
547.243988	0.163219
547.458555	0.163582
547.673103	0.163667
547.887634	0.163850
548.102146	0.164490
548.316640	0.164492
548.531116	0.164069
548.745574	0.164672
548.960013	0.164589
549.174435	0.164150
549.388838	0.163991
549.603222	0.163638
549.817589	0.163738
550.031937	0.163583
550.246267	0.163996
550.460579	0.164903
550.674873	0.164562
550.889148	0.165009
551.103405	0.165577
551.317644	0.165529
551.531865	0.166265
551.746068	0.166321
551.960252	0.166690
552.174418	0.166949
552.388566	0.166732
552.602696	0.167178
552.816807	0.167522
553.030900	0.167935
553.244975	0.168599
553.459032	0.168950
553.673070	0.169363
553.887091	0.169553
554.101093	0.169767
554.315077	0.170425
554.529042	0.170776
554.742990	0.170861
554.956919	0.170853
555.170830	0.170613
555.384722	0.170831
555.598597	0.170933
555.812453	0.170988
556.026291	0.171207
556.240111	0.171133
556.453913	0.171543
556.667696	0.171788
556.881461	0.172227
557.095208	0.172733
557.308937	0.172870
557.522647	0.173014
557.736339	0.173110
557.950013	0.173076
558.163669	0.173248
558.377307	0.173608
558.590926	0.173571
558.804527	0.173741
559.018110	0.173879
559.231675	0.174289
559.445221	0.174047
559.658749	0.174229
559.872259	0.174645
560.085751	0.175057
560.299225	0.174640
560.512680	0.174846
560.726117	0.174476
560.939536	0.174544
561.152937	0.174419
561.366319	0.175028
561.579683	0.175226
561.793029	0.175048
562.006357	0.174860
562.219667	0.175189
562.432958	0.175689
562.646231	0.176321
562.859486	0.176463
563.072723	0.176703
563.285941	0.176717
563.499141	0.177320
563.712323	0.177459
563.925487	0.178148
564.138632	0.178625
564.351760	0.178746
564.564869	0.179057
564.777960	0.179310
564.991032	0.179840
565.204087	0.180224
565.417123	0.180379
565.630141	0.181166
565.843140	0.181223
566.056122	0.181378
566.269085	0.181421
566.482030	0.181095
566.694957	0.181522
566.907866	0.181620
567.120756	0.181739
567.333628	0.181603
567.546482	0.181758
567.759318	0.181872
567.972135	0.181917
568.184935	0.182093
568.397716	0.182662
568.610478	0.182638
568.823223	0.182046
569.035949	0.182212
569.248657	0.182298
569.461347	0.182382
569.674019	0.182518
569.886672	0.182329
570.099308	0.182075
570.311925	0.182298
570.524523	0.182296
570.737104	0.182965
570.949666	0.183358
571.162210	0.183711
571.374736	0.183493
571.587244	0.183635
571.799733	0.184165
572.012205	0.184607
572.224658	0.184420
572.437092	0.184900
572.649509	0.184861
572.861907	0.185056
573.074287	0.185419
573.286649	0.185662
573.498993	0.185795
573.711318	0.185893
573.923625	0.186420
574.135914	0.186807
574.348185	0.186825
574.560438	0.187176
574.772672	0.186534
574.984888	0.186611
575.197086	0.187042
575.409266	0.187037
575.621427	0.187036
575.833570	0.187332
576.045695	0.187335
576.257802	0.187655
576.469890	0.187727
576.681961	0.188331
576.894013	0.188506
577.106046	0.188604
577.318062	0.188846
577.530059	0.188934
577.742039	0.188962
577.954000	0.189470
578.165942	0.189592
578.377867	0.189844
578.589773	0.189840
578.801661	0.190239
579.013531	0.190093
579.225382	0.190159
579.437216	0.190308
579.649031	0.190751
579.860828	0.190738
580.072606	0.190742
580.284367	0.190903
580.496109	0.191405
580.707833	0.191148
580.919539	0.191465
581.131227	0.191661
581.342896	0.191965
581.554547	0.191494
581.766180	0.191848
581.977795	0.192132
582.189391	0.192181
582.400969	0.192013
582.612529	0.192014
582.824071	0.191972
583.035595	0.192207
583.247100	0.192640
583.458587	0.193031
583.670056	0.192710
583.881506	0.193013
584.092939	0.192876
584.304353	0.193205
584.515749	0.193908
584.727127	0.194299
584.938486	0.194663
585.149828	0.194621
585.361151	0.195102
585.572456	0.195465
585.783742	0.195321
585.995011	0.195748
586.206261	0.196154
586.417493	0.196519
586.628706	0.196705
586.839902	0.196634
587.051079	0.197083
587.262238	0.197034
587.473379	0.197258
587.684502	0.197727
587.895606	0.198108
588.106692	0.198142
588.317760	0.197572
588.528810	0.197672
588.739841	0.198160
588.950855	0.197994
589.161850	0.198116
589.372827	0.198518
589.583785	0.198677
589.794726	0.198816
590.005648	0.199066
590.216552	0.199432
590.427437	0.199755
590.638305	0.199769
590.849154	0.200009
591.059985	0.199983
591.270798	0.199642
591.481592	0.199761
591.692369	0.199959
591.903127	0.199867
592.113867	0.200391
592.324588	0.200816
592.535292	0.201012
592.745977	0.201411
592.956644	0.201553
593.167293	0.202114
593.377923	0.202586
593.588536	0.202756
593.799130	0.203310
594.009706	0.203453
594.220263	0.203255
594.430803	0.203343
594.641324	0.203235
594.851827	0.203737
595.062312	0.203584
595.272778	0.203360
595.483227	0.203433
595.693657	0.203330
595.904069	0.203045
596.114462	0.203292
596.324838	0.203516
596.535195	0.203589
596.745534	0.203527
596.955855	0.204277
597.166157	0.204610
597.376441	0.204779
597.586707	0.204862
597.796955	0.205350
598.007185	0.205502
598.217396	0.205616
598.427589	0.205928
598.637764	0.206170
598.847921	0.205723
599.058060	0.205562
599.268180	0.205825
599.478282	0.206472
599.688366	0.206693
599.898431	0.206597
600.108479	0.206729
600.318508	0.206912
600.528519	0.206872
600.738511	0.207342
600.948486	0.207980
601.158442	0.208165
601.368380	0.208028
601.578300	0.208047
601.788202	0.208396
601.998085	0.208174
602.207950	0.208391
602.417797	0.208832
602.627626	0.209035
602.837436	0.208902
603.047228	0.209140
603.257002	0.208997
603.466758	0.208998
603.676496	0.209357
603.886215	0.209936
604.095916	0.209754
604.305599	0.209801
604.515264	0.209670
604.724910	0.210082
604.934538	0.210040
605.144148	0.210444
605.353740	0.210784
605.563314	0.210845
605.772869	0.211088
605.982406	0.211358
606.191925	0.211620
606.401425	0.211778
606.610908	0.211612
606.820372	0.212049
607.029818	0.212405
607.239246	0.212451
607.448655	0.212495
607.658047	0.212539
607.867420	0.212960
608.076775	0.213247
608.286111	0.213397
608.495430	0.213597
608.704730	0.213464
608.914012	0.213432
609.123275	0.213614
609.332521	0.213934
609.541748	0.213936
609.750957	0.214168
609.960148	0.214132
610.169321	0.214542
610.378475	0.214756
610.587611	0.214932
610.796729	0.215322
611.005829	0.215174
611.214910	0.215116
611.423974	0.215284
611.633019	0.215126
611.842045	0.215389
612.051054	0.215411
612.260044	0.215392
612.469017	0.215545
612.677970	0.215327
612.886906	0.215658
613.095824	0.215975
613.304723	0.216119
613.513604	0.216388
613.722467	0.216351
613.931311	0.216487
614.140138	0.216817
614.348946	0.216946
614.557736	0.217150
614.766507	0.217353
614.975261	0.217548
615.183996	0.217953
615.392713	0.218104
615.601412	0.218112
615.810092	0.218210
616.018754	0.218425
616.227399	0.218695
616.436024	0.218987
616.644632	0.219229
616.853222	0.219387
617.061793	0.219500
617.270346	0.219428
617.478880	0.219669
617.687397	0.220123
617.895895	0.220027
618.104375	0.220190
618.312837	0.220169
618.521281	0.220356
618.729706	0.220432
618.938113	0.220360
619.146502	0.220589
619.354873	0.220672
619.563226	0.220871
619.771560	0.221158
619.979876	0.221497
620.188174	0.221623
620.396453	0.221566
620.604715	0.221592
620.812958	0.221874
621.021183	0.222033
621.229390	0.222258
621.437578	0.222089
621.645748	0.222182
621.853900	0.222042
622.062034	0.222377
622.270150	0.222418
622.478247	0.222671
622.686326	0.222715
622.894387	0.223007
623.102430	0.223089
623.310454	0.223466
623.518461	0.223976
623.726449	0.224047
623.934418	0.223904
624.142370	0.224338
624.350303	0.224431
624.558218	0.224529
624.766115	0.224458
624.973994	0.224897
625.181855	0.225174
625.389697	0.225246
625.597521	0.225351
625.805327	0.225954
626.013114	0.226077
626.220883	0.226288
626.428634	0.226499
626.636367	0.226768
626.844082	0.226768
627.051778	0.226650
627.259457	0.226589
627.467117	0.226901
627.674758	0.226738
627.882382	0.226911
628.089987	0.226945
628.297574	0.227185
628.505143	0.227263
628.712694	0.227642
628.920226	0.227671
629.127740	0.227872
629.335236	0.227972
629.542714	0.228320
629.750174	0.228715
629.957615	0.228799
630.165038	0.229057
630.372443	0.229400
630.579829	0.229137
630.787198	0.229230
630.994548	0.229161
631.201880	0.229275
631.409194	0.229203
631.616489	0.229102
631.823766	0.229458
632.031025	0.229242
632.238266	0.229531
632.445489	0.229539
632.652693	0.229943
632.859879	0.230120
633.067047	0.230220
633.274197	0.230400
633.481329	0.230535
633.688442	0.230466
633.895537	0.230864
634.102614	0.230704
634.309672	0.230974
634.516713	0.230922
634.723735	0.231408
634.930739	0.231906
635.137724	0.232347
635.344692	0.232446
635.551641	0.232719
635.758572	0.232912
635.965485	0.233239
636.172379	0.233816
636.379256	0.234185
636.586114	0.234298
636.792954	0.233951
636.999775	0.233856
637.206579	0.234122
637.413364	0.234199
637.620131	0.234116
637.826880	0.234080
638.033610	0.233890
638.240323	0.233904
638.447017	0.233950
638.653692	0.234426
638.860350	0.234783
639.066990	0.234904
639.273611	0.235406
639.480214	0.236015
639.686798	0.236378
639.893365	0.236660
640.099913	0.236745
640.306443	0.236840
640.512955	0.237034
640.719449	0.236937
640.925924	0.237097
641.132381	0.236979
641.338820	0.237014
641.545241	0.237076
641.751644	0.237147
641.958028	0.237594
642.164394	0.237798
642.370742	0.237873
642.577071	0.238283
642.783383	0.238201
642.989676	0.238347
643.195951	0.238365
643.402207	0.238630
643.608446	0.238793
643.814666	0.238843
644.020868	0.239112
644.227052	0.239240
644.433218	0.239358
644.639365	0.239717
644.845494	0.240312
645.051605	0.240521
645.257698	0.240452
645.463772	0.240605
645.669828	0.240839
645.875866	0.240952
646.081886	0.241304
646.287888	0.241508
646.493871	0.241763
646.699836	0.241718
646.905783	0.242120
647.111712	0.242569
647.317622	0.242943
647.523514	0.243252
647.729388	0.243476
647.935244	0.243520
648.141082	0.243798
648.346901	0.243902
648.552702	0.243963
648.758485	0.243934
648.964250	0.244074
649.169996	0.244297
649.375724	0.244483
649.581434	0.244568
649.787126	0.244743
649.992800	0.244721
650.198455	0.245046
650.404092	0.245420
650.609711	0.245485
650.815311	0.245656
651.020894	0.245783
651.226458	0.245741
651.432004	0.245969
651.637532	0.246211
651.843041	0.246500
652.048532	0.246785
652.254006	0.246923
652.459460	0.247231
652.664897	0.247587
652.870315	0.247901
653.075716	0.247852
653.281097	0.248062
653.486461	0.248294
653.691807	0.248510
653.897134	0.248540
654.102443	0.248580
654.307734	0.248907
654.513006	0.248899
654.718261	0.248773
654.923497	0.249128
655.128715	0.249323
655.333915	0.249519
655.539096	0.249466
655.744259	0.249816
655.949404	0.250051
656.154531	0.250311
656.359640	0.250602
656.564730	0.251075
656.769802	0.251570
656.974856	0.251580
657.179892	0.251863
657.384909	0.252145
657.589908	0.252066
657.794889	0.252089
657.999852	0.252191
658.204797	0.252246
658.409723	0.252469
658.614631	0.252648
658.819521	0.253367
659.024393	0.253588
659.229246	0.253963
659.434081	0.254299
659.638898	0.254981
659.843697	0.255133
660.048478	0.255480
660.253240	0.255699
660.457984	0.256045
660.662710	0.256005
660.867417	0.256137
661.072107	0.256323
661.276778	0.256767
661.481431	0.256585
661.686066	0.256949
661.890682	0.257078
662.095281	0.257354
662.299861	0.257512
662.504422	0.257861
662.708966	0.257820
662.913491	0.257781
663.117999	0.257802
663.322488	0.258156
663.526958	0.258278
663.731411	0.258757
663.935845	0.259033
664.140261	0.259078
664.344659	0.259274
664.549038	0.259758
664.753400	0.260284
664.957743	0.260696
665.162068	0.261289
665.366375	0.261823
665.570663	0.261926
665.774933	0.262086
665.979185	0.262341
666.183419	0.262629
666.387635	0.262812
666.591832	0.262996
666.796011	0.263066
667.000172	0.262915
667.204315	0.262944
667.408439	0.263324
667.612545	0.263698
667.816634	0.263939
668.020703	0.263852
668.224755	0.264103
668.428788	0.264330
668.632803	0.264538
668.836800	0.264881
669.040779	0.264983
669.244739	0.264980
669.448681	0.265101
669.652605	0.265286
669.856511	0.265637
670.060399	0.266097
670.264268	0.266569
670.468119	0.266715
670.671952	0.266941
670.875767	0.267175
671.079563	0.267363
671.283341	0.267661
671.487101	0.267965
671.690843	0.268355
671.894567	0.268306
672.098272	0.268216
672.301959	0.268571
672.505628	0.268792
672.709278	0.269097
672.912911	0.269617
673.116525	0.269859
673.320121	0.269967
673.523699	0.270120
673.727258	0.270304
673.930799	0.270719
674.134322	0.270948
674.337827	0.271442
674.541314	0.271521
674.744782	0.271588
674.948232	0.271579
675.151664	0.271853
675.355078	0.271908
675.558474	0.272262
675.761851	0.272526
675.965210	0.273003
676.168551	0.272933
676.371873	0.273418
676.575178	0.273617
676.778464	0.273952
676.981732	0.274366
677.184981	0.274955
677.388213	0.275312
677.591426	0.275496
677.794621	0.275376
677.997798	0.275910
678.200956	0.275865
678.404097	0.276168
678.607219	0.276250
678.810323	0.276328
679.013408	0.276334
679.216476	0.276423
679.419525	0.276647
679.622556	0.277152
679.825569	0.277187
680.028563	0.277331
680.231540	0.277357
680.434498	0.277849
680.637438	0.278152
680.840359	0.278212
681.043263	0.278363
681.246148	0.278402
681.449015	0.278101
681.651864	0.278135
681.854694	0.278567
682.057506	0.278932
682.260301	0.279010
682.463076	0.279124
682.665834	0.279337
682.868573	0.279465
683.071295	0.279783
683.273998	0.280286
683.476682	0.280328
683.679349	0.280688
683.881997	0.280621
684.084627	0.280702
684.287239	0.280874
684.489833	0.281060
684.692408	0.281573
684.894965	0.281809
685.097504	0.281849
685.300025	0.282120
685.502527	0.282036
685.705012	0.282376
685.907478	0.282639
686.109925	0.282770
686.312355	0.283080
686.514766	0.283169
686.717159	0.283175
686.919534	0.283560
687.121891	0.284076
687.324230	0.284219
687.526550	0.284273
687.728852	0.284374
687.931136	0.284465
688.133401	0.284726
688.335649	0.284992
688.537878	0.285399
688.740089	0.285540
688.942281	0.285687
689.144456	0.285972
689.346612	0.286304
689.548750	0.286721
689.750870	0.287585
689.952971	0.287870
690.155055	0.288131
690.357120	0.288340
690.559167	0.288701
690.761195	0.288982
690.963206	0.289335
691.165198	0.289770
691.367172	0.289640
691.569128	0.289380
691.771065	0.289610
691.972984	0.289728
692.174885	0.289864
692.376768	0.290121
692.578633	0.290121
692.780479	0.290228
692.982308	0.290019
693.184118	0.290329
693.385909	0.290458
