sample name	sample
index	712
start time	 03-25-2021  11:12:04 AM
880	0.254441
Peak Time (s)	182.536
Peak Height 	0.2544
calc peak height	180,183
Baseline Time (s)	10.035
Baseline Value 	-0.001474
subtract baseline	10,4
Abs	0.174203
Peak Time (s)	181.039
Peak Height 	0.1742
calc peak height	180,183
Baseline Time (s)	10.035
Baseline Value 	0.002858
subtract baseline	10,3
PK_550	0.081368
Peak Time (s)	182.037
Peak Height 	0.08137
calc peak height	180,183
Baseline Time (s)	10.035
Baseline Value 	0.001175
subtract baseline	10,2
PK_880	0.160969
Peak Time (s)	182.037
Peak Height 	0.161
calc peak height	180,183
Baseline Time (s)	8.537
Baseline Value 	0.00213
subtract baseline	10,1


Time (s)	A880-A510	A880-A775	A880-A975	A880	I510	I775	I975	I880	
0.035000	-0.001593	-0.000792	0.004759	-0.000772	7168.304162	44204.672173	3924.126417	23476.989815
0.535000	-0.004062	-0.000991	-0.003588	0.002458	7110.590100	43878.828688	3892.245414	23323.288245
1.035500	-0.002819	-0.001003	-0.001216	0.002287	7124.831542	43893.908795	3899.173991	23331.375061
1.536000	-0.000988	-0.000222	0.003084	0.001975	7146.529116	43997.528851	3911.851106	23346.221326
2.037000	0.000695	-0.000167	0.000115	-0.000972	7193.737607	44283.490634	3911.788000	23486.562433
2.536500	-0.000105	-0.001389	-0.002381	-0.002041	7196.489312	44268.852840	3907.852932	23537.692614
3.037000	0.000095	-0.001623	-0.002204	-0.000151	7179.189288	44066.340875	3903.142642	23447.339160
3.537500	0.000807	-0.000427	0.000914	-0.000580	7190.872114	44221.208272	3912.914762	23467.851953
4.034500	0.000998	-0.000632	-0.001719	-0.000608	7193.114319	44204.378506	3905.732540	23469.193847
4.535000	-0.000007	-0.000898	-0.001999	-0.001233	7189.215993	44238.567234	3906.681088	23499.044363
5.035000	0.000833	-0.000072	-0.001287	-0.000075	7185.961112	44206.880770	3905.452971	23443.743714
5.535500	0.001865	-0.000366	-0.001012	-0.000681	7202.760727	44236.663052	3907.878478	23472.677035
6.035500	0.001678	-0.000346	-0.000029	-0.000728	7201.323880	44243.003436	3910.717131	23474.893315
6.536000	0.001059	-0.000111	0.001143	-0.000540	7193.039120	44247.547157	3913.436184	23465.932235
7.036500	-0.000966	-0.000065	0.002292	-0.000277	7169.650394	44226.857556	3915.889336	23453.366023
7.537000	0.000124	-0.000329	-0.000604	-0.000387	7181.905617	44212.185667	3908.191407	23458.632599
8.037500	-0.000792	-0.000507	-0.000820	-0.000351	7172.175660	44191.747581	3907.498759	23456.913161
8.537000	0.000000	-0.001103	-0.000946	-0.000651	7183.334905	44163.471224	3907.976751	23471.230216
9.037500	0.002383	0.000084	-0.001045	0.000311	7197.893154	44184.997386	3905.058759	23425.343544
9.535000	0.000464	-0.000790	0.000599	-0.000769	7189.291687	44204.581114	3912.565546	23476.859173
10.035000	-0.000162	0.000000	0.000000	0.000000	7175.026923	44206.596424	3908.789000	23440.159847
10.536000	-0.000303	-0.000402	-0.003967	-0.000444	7178.121671	44210.590422	3899.122005	23461.357484
11.035500	-0.000516	0.000071	0.003826	0.000292	7168.438059	44185.577578	3918.566076	23426.249993
11.539000	0.000868	0.000212	0.002246	0.000248	7183.020469	44203.199097	3914.307872	23428.343483
12.036500	0.000464	-0.000103	0.001633	-0.000045	7181.878541	44201.041880	3913.420554	23442.293977
12.537000	0.000390	-0.000272	0.005027	0.000198	7178.645647	44161.808193	3922.171553	23430.734895
13.037000	0.002367	0.000411	0.002229	-0.001746	7218.886411	44412.850798	3919.790527	23523.564041
13.537500	0.000438	-0.001141	0.003513	-0.000704	7188.366019	44164.965339	3920.466563	23473.776121
14.035000	0.001472	-0.000817	0.003740	-0.000887	7200.829696	44213.250359	3921.606097	23482.480462
14.535000	-0.000973	-0.001117	0.002552	0.002049	7145.917341	43905.629589	3910.174226	23342.683965
15.035500	-0.000970	-0.001166	0.000612	0.004877	7117.361380	43634.077650	3897.093500	23208.919806
15.562500	0.001596	0.000145	0.001768	0.000812	7184.699467	44143.051668	3911.426770	23401.492464
16.039000	0.002123	0.000194	0.003995	-0.000259	7201.078814	44249.857947	3920.569123	23452.523463
16.536500	0.001690	-0.000007	0.000912	-0.000130	7195.305683	44218.278252	3911.663132	23446.339761
17.037000	0.002426	0.000092	-0.000104	-0.000222	7203.804974	44236.551979	3909.111620	23450.725098
17.537000	0.002704	0.000546	0.001874	0.000250	7201.817124	44234.877486	3913.272843	23428.257270
18.037500	0.001713	-0.000487	0.004724	0.000573	7188.333064	44105.565773	3920.282857	23412.851150
18.534500	0.001040	0.000676	0.001121	0.002467	7162.128253	44036.099746	3905.084442	23322.853220
19.035000	0.001949	0.001006	-0.000732	0.004475	7150.955125	43876.878180	3894.524259	23227.858446
19.535500	0.001892	0.000092	0.003407	0.002910	7166.288742	43938.602378	3910.159578	23301.851764
20.036000	-0.000633	-0.000793	0.001688	0.001576	7154.170479	43981.203746	3909.096679	23365.144477
20.538500	0.000544	-0.000235	0.005257	0.002317	7158.612200	43963.859359	3916.917376	23329.968285
21.036500	0.002372	0.000386	0.003203	0.003204	7168.194821	43938.678349	3908.787210	23287.959660
21.536500	-0.000034	0.000229	0.000566	0.002918	7146.632725	43950.872492	3902.323697	23301.483370
22.036500	0.002464	-0.000488	0.003734	0.002521	7176.102100	43920.484035	3912.136166	23320.305993
22.537000	0.001903	0.000388	0.008644	0.003481	7160.598173	43912.571533	3923.102284	23274.862014
23.037000	0.000168	0.000101	0.000586	0.002681	7151.086552	43961.178511	3903.029341	23312.721222
23.535000	0.002206	0.000069	0.000517	0.003159	7166.953236	43912.797231	3901.528645	23290.061032
24.035000	0.002520	-0.000128	0.002185	0.003283	7168.892122	43882.451841	3905.768827	23284.218113
24.535500	0.001551	0.000234	-0.000557	0.002999	7161.912339	43943.626847	3899.027932	23297.636058
25.036000	0.001232	0.000337	0.003788	0.003484	7153.737117	43907.435059	3909.627035	23274.694284
25.536000	0.002415	0.000677	-0.000333	0.003434	7166.286172	43944.372751	3898.453095	23277.057147
26.036500	0.002103	0.000099	-0.002177	0.003113	7166.383903	43920.079589	3894.300446	23292.274425
26.536500	0.002706	0.000403	0.002987	0.003547	7168.098030	43907.660481	3907.245786	23271.704900
27.036500	0.001831	0.000467	0.006751	0.003817	7156.441588	43888.198116	3916.900473	23258.934260
27.537000	0.002151	-0.000062	0.001329	0.003342	7164.531728	43883.125344	3903.255272	23281.413575
28.037000	0.003514	0.000806	0.008567	0.000577	7206.774571	44228.457872	3931.008792	23412.653519
28.537500	0.003233	0.000722	0.007966	0.001767	7191.676237	44107.023156	3925.991512	23356.063195
29.035000	0.004003	0.001215	0.002987	0.002539	7191.660476	44080.454362	3910.023434	23319.444843
29.535500	0.002187	0.000216	0.005521	0.002035	7178.230567	44033.410622	3918.434374	23343.348714
30.036000	0.003949	0.000970	0.001115	0.002044	7196.180213	44104.312168	3906.231946	23342.941568
30.536500	0.004155	0.000764	0.004952	0.002317	7195.491212	44058.759540	3916.071836	23329.980765
31.036500	0.000813	0.000684	0.006050	0.007996	7103.922231	43514.880975	3903.440389	23062.395710
31.550000	0.003364	0.000677	0.002016	0.002327	7187.282047	44049.473280	3907.932271	23329.500557
32.037000	0.001728	0.000684	0.001737	0.006008	7133.185079	43701.768163	3897.079746	23155.677393
32.564000	0.004273	0.001450	0.006963	0.002896	7190.772458	44068.900745	3920.048750	23302.548462
33.065000	-0.000122	0.000471	0.005166	0.008439	7090.104021	43453.359384	3899.802552	23041.654215
33.537500	0.003421	0.000185	0.011378	0.002628	7184.787019	43974.253526	3933.146243	23315.252539
34.035500	0.005274	0.000941	0.003539	0.002597	7204.110072	44048.918118	3911.387694	23316.715444
34.538000	0.003944	0.001072	0.005326	0.002505	7191.401131	44070.076034	3916.587836	23321.043537
35.036000	-0.001268	0.000229	-0.000333	0.007797	7085.050821	43490.831382	3886.594323	23071.685453
35.536000	0.002655	0.001097	0.005427	0.005466	7148.062952	43791.921558	3908.682774	23181.181372
36.036500	0.002535	0.000342	0.005639	0.004715	7154.477157	43791.504459	3911.337206	23216.565757
36.536500	-0.000770	0.000024	0.005189	0.004723	7120.926694	43760.699306	3910.071598	23216.160871
37.037000	0.000911	0.000228	0.002733	0.006897	7115.972558	43575.255932	3897.371640	23113.916578
37.540000	0.001383	0.000791	0.006999	0.005388	7135.964304	43770.377580	3913.237606	23184.845556
38.035000	0.002054	0.000680	0.006421	0.005051	7146.176735	43791.682731	3912.571554	23200.729631
38.535500	0.001952	0.000175	0.007473	0.004937	7146.298872	43754.747658	3915.798051	23206.089186
39.038000	0.001403	0.001563	0.006643	0.006053	7129.442735	43780.378762	3910.414272	23153.525215
39.535500	0.000671	0.001086	0.004733	0.006011	7122.471301	43739.346363	3905.271607	23155.507617
40.036000	0.003611	0.001208	0.012224	0.006106	7151.273513	43741.958308	3925.766562	23151.045337
40.536500	0.004713	0.001256	0.005933	0.006336	7160.130966	43724.733380	3907.677197	23140.228312
41.036500	0.005590	0.000382	0.004805	0.005472	7177.878976	43723.746562	3906.950139	23180.857162
41.537000	0.003782	0.000619	0.004441	0.005845	7155.665085	43711.043309	3904.928623	23163.343651
42.037000	0.003228	0.000826	0.003937	0.005828	7150.199324	43732.102659	3903.589908	23164.111248
42.535000	0.002687	0.000683	0.009262	0.006057	7142.399261	43697.058345	3917.653902	23153.362809
43.035000	0.001555	0.000871	0.007306	0.006046	7131.047570	43715.835654	3912.265166	23153.871986
43.535500	0.001597	0.000009	0.006373	0.005649	7135.483955	43671.948803	3910.784076	23172.530187
44.035500	0.003574	0.001790	0.008400	0.006808	7143.772767	43730.657799	3913.184416	23118.088100
44.536000	0.003376	0.000962	0.004694	0.006532	7144.568786	43678.568259	3903.735588	23131.035582
45.036500	0.002025	0.000666	0.007392	0.005869	7137.592016	43713.166488	3912.992603	23162.200740
45.536500	0.004670	0.001309	0.008241	0.005614	7167.054029	43797.897559	3916.051025	23174.207511
46.037500	0.004834	0.001373	0.004689	0.004229	7182.864882	43935.051810	3910.058223	23239.487558
46.550500	0.003333	0.001515	0.006090	0.004408	7165.712441	43931.510433	3913.431829	23231.027499
47.037500	0.003319	0.001449	0.005953	0.010074	7108.233069	43391.863447	3897.489296	22965.358464
47.534500	0.003244	0.001320	0.005813	0.006837	7140.137095	43683.586355	3905.970331	23116.709805
48.038000	0.004594	0.001770	0.008318	0.005009	7172.441131	43898.651975	3917.939857	23202.671995
48.535500	0.003877	0.001199	0.007115	0.004071	7174.692230	43933.489488	3917.205208	23246.937686
49.036000	0.003128	0.001147	0.003097	0.008838	7118.746002	43479.261542	3893.072777	23022.996794
49.536000	0.002800	0.001164	0.008544	0.008018	7123.711008	43557.928922	3910.240121	23061.374565
50.036500	0.004722	0.001054	0.007176	0.004446	7179.499524	43884.232279	3916.334346	23229.232922
50.536500	0.006527	0.002285	0.003463	0.005303	7189.199787	43919.647915	3903.728754	23188.825671
51.037000	0.001481	0.000920	0.002052	0.010019	7090.335599	43347.550671	3887.035426	22967.898954
51.537500	0.004982	0.002470	0.008501	0.005827	7168.057465	43887.518936	3916.178975	23164.164460
52.037500	0.004790	0.001196	0.005563	0.003866	7186.125494	43952.640150	3913.476155	23256.651441
52.535000	0.005326	0.002364	0.007145	0.006542	7164.281721	43809.966823	3910.451540	23130.567921
53.038000	0.001597	-0.001569	0.010216	0.008972	7101.996191	43213.040757	3912.222269	23016.742582
53.535500	-0.018406	-0.001959	0.021799	0.172371	5599.851875	30507.798512	3558.160744	16656.209530
54.036000	-0.029062	-0.012826	0.017615	-0.005373	6941.219754	43501.641402	3973.841195	23697.958286
54.535500	-0.010796	-0.013705	0.020031	-0.060282	7712.004501	48897.185199	4151.883542	26523.581910
55.036000	-0.049594	-0.017268	-0.003569	-0.041313	7092.902615	46565.190315	4017.449492	25506.779836
55.537000	-0.031378	-0.020757	-0.019074	-0.130937	8319.488583	56171.782863	4260.373704	30726.860721
56.037000	0.015430	-0.023341	-0.001895	-0.172049	9571.207939	61125.356047	4482.783337	33506.431562
56.537500	0.037504	-0.015640	0.007562	-0.156491	9674.462118	60079.317051	4458.082903	32423.518131
57.034500	0.042558	-0.007781	0.019158	-0.116389	9136.901816	55978.767622	4347.156339	29804.596852
57.537500	0.041262	-0.003482	0.031685	-0.067601	8440.273621	50798.369059	4216.178917	26927.919484
58.035500	0.042733	0.000182	0.040961	-0.025773	7934.542492	46758.259133	4107.562010	24706.279427
58.536000	0.052413	0.007485	0.058172	0.004223	7697.193873	44519.010472	4067.077428	23239.780240
59.036000	0.061517	0.013485	0.070408	0.029880	7511.853679	42671.656234	4025.844957	22063.333143
59.536500	0.071161	0.019252	0.084304	0.048266	7416.786579	41529.001163	4012.331460	21262.018821
60.036500	0.081496	0.025616	0.093416	0.091511	7075.567314	38373.717839	3914.049562	19505.774960
60.537000	0.089784	0.031792	0.101126	0.109822	6976.679607	37392.785736	3885.067100	18813.264099
61.037000	0.093653	0.036597	0.102250	0.139890	6728.720524	35436.393624	3809.438196	17737.556093
61.535000	0.107283	0.044159	0.117858	0.153171	6731.929306	35009.089480	3815.332414	17285.617672
62.037500	0.116780	0.051988	0.128778	0.167264	6689.921746	34547.461310	3807.300677	16820.930988
62.535500	0.118117	0.057238	0.137040	0.201912	6398.365584	32467.811965	3742.738351	15740.578294
63.035500	0.119175	0.060115	0.136162	0.218387	6270.813416	31552.519360	3702.368859	15256.344467
63.535500	0.119249	0.060857	0.134492	0.218167	6273.210467	31616.392225	3699.067688	15262.706912
64.036000	0.129751	0.064552	0.144078	0.218443	6357.362794	31844.294546	3720.455453	15254.732926
64.536000	0.130995	0.066574	0.140649	0.213725	6407.353624	32298.978080	3723.452267	15391.530477
65.036500	0.131697	0.067832	0.139797	0.215148	6401.266206	32287.732027	3718.168190	15350.100639
65.545500	0.130218	0.067044	0.145932	0.209744	6434.493390	32603.132145	3745.258446	15508.089784
66.035500	0.131977	0.069194	0.146364	0.210535	6442.738623	32696.643461	3744.404041	15484.846782
66.535000	0.136219	0.071073	0.145932	0.212168	6465.040363	32713.582724	3739.506740	15436.978939
67.038000	0.134677	0.070598	0.146512	0.212519	6448.840566	32656.709227	3740.049353	15426.726106
67.535000	0.134424	0.070411	0.149512	0.211208	6457.881177	32734.092332	3750.303217	15465.097438
68.035500	0.138329	0.072001	0.144087	0.212469	6480.583372	32756.823318	3734.443482	15428.184114
68.535500	0.136172	0.072037	0.149639	0.213262	6455.263567	32704.566711	3745.707812	15405.013578
69.036500	0.134783	0.073093	0.141805	0.216185	6418.573492	32576.189959	3720.419166	15320.002777
69.537000	0.136426	0.073903	0.145391	0.215543	6437.976488	32676.029555	3730.284825	15338.636942
70.036500	0.138103	0.074479	0.148955	0.216443	6444.589266	32653.744471	3736.549449	15312.529698
70.537000	0.139590	0.075231	0.142759	0.216830	6453.984085	32678.798844	3721.135259	15301.317983
71.034500	0.136781	0.073847	0.152460	0.218137	6418.963177	32494.058711	3740.829980	15263.548418
71.538000	0.137266	0.075746	0.150961	0.219223	6413.882604	32549.845690	3734.726580	15232.278701
72.035000	0.139094	0.075591	0.149474	0.218907	6432.055132	32560.812175	3731.971327	15241.354208
72.535500	0.138458	0.076137	0.145145	0.219515	6421.503414	32556.653710	3720.443283	15223.874716
73.036000	0.139075	0.076232	0.151068	0.221335	6411.313711	32438.550402	3730.013674	15171.616060
73.536000	0.140723	0.077192	0.149781	0.221677	6422.373200	32480.772098	3726.204972	15161.836217
74.036500	0.139328	0.077667	0.153610	0.221792	6409.589060	32505.430778	3734.914864	15158.541609
74.536500	0.141682	0.078062	0.153357	0.223265	6417.042572	32431.726049	3730.857785	15116.471234
75.037000	0.142645	0.078439	0.149674	0.225959	6402.420684	32273.927790	3716.007380	15039.881954
75.537000	0.142423	0.079278	0.155600	0.225362	6405.577439	32371.573273	3731.199186	15056.800470
76.037500	0.140230	0.079185	0.154503	0.224997	6390.190017	32390.145483	3729.484057	15067.178919
76.535000	0.144028	0.079376	0.155709	0.225128	6421.137297	32394.276811	3732.004687	15063.455902
77.035500	0.142874	0.079435	0.156542	0.227639	6390.200541	32227.465249	3728.070514	14992.347463
77.536000	0.145254	0.080596	0.158008	0.227637	6410.282606	32306.494045	3731.511513	14992.424649
78.036000	0.146552	0.079885	0.155927	0.226999	6426.663682	32301.491440	3728.128749	15010.428174
78.536500	0.144924	0.079349	0.155601	0.226733	6415.122312	32283.103967	3727.987492	15017.953296
79.036000	0.144770	0.080112	0.157523	0.227580	6406.671243	32277.474770	3730.507141	14994.038625
79.536500	0.147700	0.080451	0.159759	0.228394	6424.572321	32245.173891	3733.845132	14971.052423
80.034500	0.145207	0.082331	0.152809	0.229888	6390.910046	32271.416810	3714.173322	14929.033426
80.540000	0.148984	0.082777	0.157654	0.230986	6413.500381	32227.178192	3722.855190	14898.241663
81.035000	0.143760	0.080137	0.156438	0.230465	6373.938391	32083.750355	3721.238937	14912.834948
81.535000	0.147984	0.082528	0.160917	0.231435	6401.263389	32179.805886	3729.425376	14885.658756
82.035500	0.148380	0.082961	0.156364	0.232075	6399.215360	32165.841778	3717.333994	14867.778678
82.536000	0.147819	0.083815	0.164263	0.232626	6389.856411	32186.355762	3734.486086	14852.373757
83.036000	0.148043	0.083308	0.161257	0.233245	6386.538534	32110.204598	3725.988061	14835.115268
83.536000	0.147442	0.083485	0.159120	0.233576	6378.727108	32099.778791	3720.244325	14825.907919
84.036500	0.146795	0.082475	0.157688	0.232597	6381.505691	32097.679527	3719.190826	14853.184278
84.537000	0.149191	0.083750	0.159494	0.234626	6384.581218	32046.868419	3718.675411	14796.702248
85.037500	0.148076	0.084316	0.164547	0.235933	6364.321085	31996.932947	3727.395528	14760.450847
85.534500	0.149567	0.084176	0.164929	0.234820	6386.112238	32062.465639	3730.896929	14791.314265
86.035000	0.150241	0.083687	0.159708	0.234637	6393.305862	32041.832635	3719.146122	14796.378251
86.535000	0.150881	0.085990	0.164883	0.237182	6377.323907	32025.521006	3725.261916	14725.895396
87.036000	0.152526	0.086057	0.161964	0.238586	6379.341057	31935.593896	3715.227200	14687.173205
87.536000	0.149591	0.084840	0.161033	0.237102	6367.205452	31953.550647	3716.506115	14728.099013
88.036000	0.151368	0.085070	0.161853	0.237401	6379.569818	31948.876791	3717.710339	14719.838029
88.536500	0.150795	0.084636	0.160613	0.237173	6376.677348	31935.043934	3715.370178	14726.144284
89.036500	0.152043	0.084991	0.168942	0.238277	6377.887905	31884.797144	3732.201750	14695.689150
89.537000	0.150964	0.085281	0.161943	0.238482	6367.153227	31890.565447	3715.419237	14690.056404
90.037000	0.153294	0.084781	0.162544	0.237751	6392.799326	31905.999958	3718.500726	14710.197190
90.535000	0.148161	0.083943	0.161729	0.237589	6351.229920	31860.691704	3716.988909	14714.649395
91.035000	0.150316	0.085880	0.164557	0.240112	6348.179640	31821.441043	3717.693727	14645.237954
91.535000	0.153414	0.085657	0.166988	0.240242	6372.910942	31797.859013	3723.037759	14641.681399
92.035500	0.154052	0.085585	0.167442	0.239840	6381.626198	31819.946068	3725.032525	14652.727126
92.536000	0.154589	0.087193	0.167064	0.241148	6375.167031	31840.036727	3721.107906	14616.869964
93.036000	0.150848	0.085564	0.164915	0.240354	6350.587957	31784.183665	3717.962933	14638.611010
93.536000	0.152650	0.086235	0.164213	0.241351	6357.289571	31762.445539	3714.036886	14611.318978
94.036500	0.155057	0.086707	0.167301	0.241648	6374.899385	31774.066887	3720.495647	14603.189597
94.539500	0.153092	0.085936	0.165627	0.241186	6362.340004	31753.419491	3717.685017	14615.815428
95.034500	0.152652	0.085168	0.159065	0.241235	6358.270279	31699.001565	3702.494261	14614.494621
95.535000	0.153530	0.087102	0.160766	0.242965	6351.176065	31712.583694	3702.427919	14567.247909
96.035000	0.153821	0.086776	0.163191	0.242484	6357.604945	31722.939316	3709.077530	14580.370614
96.535500	0.154759	0.087476	0.164176	0.243608	6356.053964	31694.668709	3708.757009	14549.734185
97.036000	0.153570	0.086718	0.161721	0.242997	6351.247708	31684.869548	3704.535694	14566.378189
97.536000	0.154233	0.086441	0.167098	0.242807	6358.344589	31679.109668	3717.337833	14571.552899
98.036500	0.153541	0.086723	0.166009	0.242703	6353.450386	31704.790889	3715.060038	14574.384207
