sample name	sample
index	225
start time	 02-22-2021  10:40:58 AM


Wavelength (nm)	Absorbance
494.344910	-0.043241
494.563924	-0.043241
494.782919	-0.043241
495.001897	0.217043
495.220856	0.040011
495.439797	0.057657
495.658719	0.051478
495.877624	0.045385
496.096510	-0.014433
496.315378	-0.015594
496.534227	-0.039711
496.753059	-0.031410
496.971872	-0.035028
497.190667	0.082716
497.409444	0.121784
497.628203	0.136278
497.846943	0.143315
498.065665	0.149118
498.284369	0.151326
498.503055	0.152537
498.721723	0.152008
498.940372	0.152739
499.159003	0.154996
499.377616	0.154837
499.596210	0.154111
499.814787	0.154810
500.033345	0.155971
500.251885	0.155956
500.470406	0.156783
500.688910	0.158018
500.907395	0.158652
501.125862	0.157666
501.344311	0.158365
501.562742	0.158909
501.781154	0.158204
501.999548	0.156938
502.217924	0.156868
502.436282	0.157261
502.654621	0.156629
502.872942	0.156222
503.091245	0.155703
503.309530	0.154261
503.527797	0.155025
503.746045	0.154985
503.964275	0.155031
504.182487	0.155533
504.400681	0.155562
504.618856	0.156217
504.837013	0.156744
505.055152	0.156038
505.273273	0.158031
505.491376	0.157695
505.709460	0.157908
505.927526	0.159438
506.145574	0.158999
506.363604	0.158402
506.581615	0.158730
506.799608	0.159550
507.017583	0.161269
507.235540	0.161068
507.453478	0.161038
507.671399	0.161668
507.889301	0.161730
508.107185	0.162218
508.325050	0.162789
508.542898	0.162687
508.760727	0.161594
508.978538	0.160621
509.196330	0.160745
509.414105	0.160553
509.631861	0.160892
509.849599	0.160706
510.067319	0.161185
510.285021	0.162087
510.502704	0.162591
510.720369	0.162996
510.938016	0.163697
511.155645	0.164361
511.373255	0.165518
511.590848	0.165645
511.808422	0.165811
512.025977	0.166256
512.243515	0.165590
512.461034	0.165713
512.678536	0.165999
512.896018	0.166051
513.113483	0.165842
513.330930	0.165212
513.548358	0.164564
513.765768	0.164193
513.983160	0.164187
514.200533	0.164482
514.417889	0.164739
514.635226	0.164796
514.852545	0.165499
515.069845	0.164825
515.287128	0.165518
515.504392	0.165818
515.721638	0.167151
515.938866	0.166953
516.156075	0.168151
516.373267	0.168208
516.590440	0.168498
516.807594	0.168155
517.024731	0.168644
517.241850	0.168629
517.458950	0.170544
517.676032	0.170330
517.893095	0.171632
518.110141	0.171808
518.327168	0.172811
518.544177	0.173699
518.761168	0.174395
518.978141	0.175579
519.195095	0.176141
519.412031	0.175330
519.628949	0.175368
519.845849	0.174517
520.062731	0.174936
520.279594	0.174027
520.496439	0.174553
520.713266	0.175469
520.930074	0.174526
521.146865	0.174639
521.363637	0.175339
521.580391	0.175758
521.797127	0.176268
522.013844	0.176028
522.230543	0.176197
522.447224	0.175786
522.663887	0.175520
522.880532	0.176593
523.097158	0.177040
523.313766	0.176920
523.530356	0.176897
523.746928	0.178082
523.963481	0.178745
524.180017	0.180143
524.396534	0.180787
524.613032	0.181001
524.829513	0.181823
525.045975	0.181948
525.262420	0.182110
525.478845	0.182560
525.695253	0.182059
525.911643	0.181887
526.128014	0.182076
526.344367	0.182424
526.560702	0.182260
526.777018	0.181511
526.993316	0.182089
527.209597	0.182431
527.425858	0.183139
527.642102	0.183240
527.858328	0.183949
528.074535	0.184188
528.290724	0.184568
528.506894	0.185899
528.723047	0.186378
528.939181	0.186386
529.155297	0.187005
529.371395	0.186679
529.587475	0.187444
529.803536	0.188054
530.019579	0.187925
530.235604	0.188219
530.451611	0.187994
530.667600	0.188724
530.883570	0.189039
531.099522	0.189402
531.315456	0.190019
531.531372	0.190732
531.747269	0.190331
531.963148	0.191312
532.179009	0.191770
532.394852	0.192733
532.610676	0.193564
532.826482	0.194804
533.042271	0.195199
533.258040	0.195563
533.473792	0.195088
533.689525	0.195913
533.905240	0.196512
534.120937	0.196535
534.336616	0.196702
534.552277	0.197492
534.767919	0.197653
534.983543	0.197663
535.199149	0.197848
535.414736	0.198545
535.630306	0.198515
535.845857	0.197867
536.061390	0.198613
536.276904	0.198772
536.492401	0.198515
536.707879	0.198128
536.923339	0.198640
537.138781	0.199591
537.354204	0.200111
537.569610	0.200868
537.784997	0.201703
538.000366	0.201973
538.215716	0.202072
538.431049	0.202383
538.646363	0.202860
538.861659	0.203345
539.076937	0.203514
539.292196	0.203704
539.507438	0.203370
539.722661	0.204075
539.937866	0.204398
540.153052	0.204757
540.368221	0.205007
540.583371	0.205713
540.798503	0.205392
541.013617	0.205190
541.228712	0.205419
541.443789	0.205784
541.658848	0.205776
541.873889	0.205054
542.088912	0.205661
542.303916	0.205709
542.518902	0.205715
542.733870	0.205755
542.948820	0.206347
543.163752	0.206636
543.378665	0.207495
543.593560	0.207289
543.808437	0.208611
544.023295	0.208625
544.238136	0.209353
544.452958	0.210130
544.667762	0.210858
544.882548	0.210872
545.097315	0.211254
545.312064	0.211744
545.526795	0.212368
545.741508	0.212977
545.956203	0.213918
546.170879	0.214045
546.385537	0.214504
546.600177	0.214909
546.814799	0.215365
547.029402	0.215487
547.243988	0.215415
547.458555	0.215866
547.673103	0.215216
547.887634	0.215212
548.102146	0.215453
548.316640	0.215585
548.531116	0.216098
548.745574	0.216516
548.960013	0.216916
549.174435	0.217310
549.388838	0.217888
549.603222	0.218520
549.817589	0.218513
550.031937	0.218734
550.246267	0.218940
550.460579	0.219220
550.674873	0.219524
550.889148	0.219912
551.103405	0.219928
551.317644	0.219887
551.531865	0.220578
551.746068	0.220948
551.960252	0.221050
552.174418	0.221193
552.388566	0.221246
552.602696	0.221598
552.816807	0.221895
553.030900	0.222167
553.244975	0.222261
553.459032	0.222272
553.673070	0.222398
553.887091	0.223015
554.101093	0.223123
554.315077	0.223830
554.529042	0.224006
554.742990	0.223883
554.956919	0.223915
555.170830	0.224069
555.384722	0.224503
555.598597	0.224627
555.812453	0.224439
556.026291	0.224633
556.240111	0.224682
556.453913	0.224440
556.667696	0.224967
556.881461	0.225626
557.095208	0.226089
557.308937	0.225906
557.522647	0.226259
557.736339	0.226610
557.950013	0.227033
558.163669	0.227088
558.377307	0.227858
558.590926	0.228220
558.804527	0.228346
559.018110	0.228403
559.231675	0.228461
559.445221	0.228930
559.658749	0.229067
559.872259	0.229255
560.085751	0.229863
560.299225	0.230061
560.512680	0.230733
560.726117	0.230662
560.939536	0.231139
561.152937	0.231701
561.366319	0.231704
561.579683	0.232069
561.793029	0.232268
562.006357	0.232352
562.219667	0.232375
562.432958	0.232052
562.646231	0.232491
562.859486	0.232495
563.072723	0.232684
563.285941	0.233112
563.499141	0.233021
563.712323	0.232848
563.925487	0.232760
564.138632	0.233025
564.351760	0.233271
564.564869	0.233646
564.777960	0.233996
564.991032	0.234350
565.204087	0.234622
565.417123	0.234923
565.630141	0.235299
565.843140	0.235455
566.056122	0.236105
566.269085	0.236079
566.482030	0.236245
566.694957	0.236411
566.907866	0.236117
567.120756	0.235887
567.333628	0.236112
567.546482	0.236503
567.759318	0.236811
567.972135	0.236639
568.184935	0.236842
568.397716	0.236913
568.610478	0.236803
568.823223	0.237304
569.035949	0.237493
569.248657	0.237987
569.461347	0.238453
569.674019	0.238732
569.886672	0.238294
570.099308	0.238517
570.311925	0.238485
570.524523	0.238964
570.737104	0.239023
570.949666	0.239405
571.162210	0.239384
571.374736	0.239420
571.587244	0.239490
571.799733	0.239995
572.012205	0.240455
572.224658	0.240734
572.437092	0.241226
572.649509	0.241533
572.861907	0.242099
573.074287	0.241972
573.286649	0.241901
573.498993	0.242119
573.711318	0.242818
573.923625	0.242643
574.135914	0.242759
574.348185	0.242883
574.560438	0.242805
574.772672	0.242468
574.984888	0.242525
575.197086	0.242539
575.409266	0.242770
575.621427	0.242499
575.833570	0.242682
576.045695	0.242880
576.257802	0.242796
576.469890	0.243352
576.681961	0.243971
576.894013	0.244335
577.106046	0.244663
577.318062	0.244833
577.530059	0.245206
577.742039	0.245462
577.954000	0.245713
578.165942	0.246080
578.377867	0.245752
578.589773	0.245493
578.801661	0.245785
579.013531	0.245922
579.225382	0.245794
579.437216	0.246148
579.649031	0.246146
579.860828	0.245798
580.072606	0.245785
580.284367	0.246402
580.496109	0.246395
580.707833	0.246484
580.919539	0.247236
581.131227	0.248046
581.342896	0.248163
581.554547	0.248306
581.766180	0.249104
581.977795	0.249541
582.189391	0.249591
582.400969	0.250093
582.612529	0.250718
582.824071	0.250446
583.035595	0.250154
583.247100	0.250525
583.458587	0.250798
583.670056	0.250840
583.881506	0.250887
584.092939	0.251210
584.304353	0.251331
584.515749	0.251267
584.727127	0.251734
584.938486	0.252287
585.149828	0.252158
585.361151	0.252723
585.572456	0.253069
585.783742	0.253024
585.995011	0.253044
586.206261	0.253595
586.417493	0.254187
586.628706	0.254041
586.839902	0.254060
587.051079	0.254321
587.262238	0.254516
587.473379	0.254690
587.684502	0.254963
587.895606	0.255147
588.106692	0.255480
588.317760	0.255513
588.528810	0.255699
588.739841	0.255980
588.950855	0.256106
589.161850	0.256222
589.372827	0.256560
589.583785	0.256784
589.794726	0.257353
590.005648	0.257215
590.216552	0.257260
590.427437	0.257335
590.638305	0.257342
590.849154	0.257870
591.059985	0.257881
591.270798	0.257743
591.481592	0.258046
591.692369	0.257968
591.903127	0.258235
592.113867	0.258253
592.324588	0.258538
592.535292	0.258530
592.745977	0.258331
592.956644	0.258791
593.167293	0.259115
593.377923	0.259254
593.588536	0.259507
593.799130	0.259397
594.009706	0.259400
594.220263	0.259728
594.430803	0.260044
594.641324	0.260202
594.851827	0.260532
595.062312	0.260601
595.272778	0.260802
595.483227	0.261105
595.693657	0.261810
595.904069	0.262079
596.114462	0.261930
596.324838	0.262377
596.535195	0.262398
596.745534	0.262329
596.955855	0.262785
597.166157	0.263072
597.376441	0.263278
597.586707	0.263110
597.796955	0.263784
598.007185	0.264372
598.217396	0.264566
598.427589	0.265140
598.637764	0.265217
598.847921	0.265252
599.058060	0.265209
599.268180	0.265340
599.478282	0.265329
599.688366	0.265024
599.898431	0.265198
600.108479	0.265347
600.318508	0.265356
600.528519	0.265785
600.738511	0.265814
600.948486	0.266131
601.158442	0.266196
601.368380	0.266617
601.578300	0.266871
601.788202	0.267367
601.998085	0.267285
602.207950	0.267651
602.417797	0.267574
602.627626	0.267642
602.837436	0.267766
603.047228	0.267743
603.257002	0.268126
603.466758	0.268303
603.676496	0.268143
603.886215	0.268468
604.095916	0.268691
604.305599	0.268843
604.515264	0.269417
604.724910	0.269366
604.934538	0.269527
605.144148	0.269591
605.353740	0.269982
605.563314	0.270017
605.772869	0.270369
605.982406	0.270194
606.191925	0.270557
606.401425	0.270473
606.610908	0.270634
606.820372	0.270666
607.029818	0.270740
607.239246	0.270738
607.448655	0.270852
607.658047	0.270760
607.867420	0.271210
608.076775	0.271358
608.286111	0.271687
608.495430	0.272299
608.704730	0.272628
608.914012	0.272657
609.123275	0.272868
609.332521	0.273117
609.541748	0.273369
609.750957	0.273360
609.960148	0.273207
610.169321	0.273346
610.378475	0.273007
610.587611	0.273143
610.796729	0.273379
611.005829	0.273457
611.214910	0.273352
611.423974	0.273531
611.633019	0.273614
611.842045	0.274038
612.051054	0.273947
612.260044	0.274001
612.469017	0.274394
612.677970	0.274655
612.886906	0.274863
613.095824	0.274879
613.304723	0.274772
613.513604	0.274814
613.722467	0.275025
613.931311	0.275424
614.140138	0.275847
614.348946	0.275900
614.557736	0.275966
614.766507	0.276207
614.975261	0.276566
615.183996	0.276861
615.392713	0.277473
615.601412	0.277249
615.810092	0.277659
616.018754	0.277672
616.227399	0.277905
616.436024	0.277982
616.644632	0.278364
616.853222	0.278715
617.061793	0.278841
617.270346	0.278902
617.478880	0.279486
617.687397	0.279280
617.895895	0.279516
618.104375	0.279506
618.312837	0.279692
618.521281	0.279476
618.729706	0.279430
618.938113	0.279876
619.146502	0.279927
619.354873	0.279990
619.563226	0.280260
619.771560	0.280584
619.979876	0.281049
620.188174	0.281043
620.396453	0.281297
620.604715	0.281521
620.812958	0.281435
621.021183	0.281582
621.229390	0.281483
621.437578	0.281738
621.645748	0.281721
621.853900	0.281605
622.062034	0.281865
622.270150	0.282121
622.478247	0.282110
622.686326	0.282010
622.894387	0.281983
623.102430	0.282128
623.310454	0.282064
623.518461	0.282409
623.726449	0.282780
623.934418	0.282848
624.142370	0.282709
624.350303	0.282981
624.558218	0.283339
624.766115	0.283427
624.973994	0.283743
625.181855	0.283917
625.389697	0.283990
625.597521	0.283752
625.805327	0.284248
626.013114	0.284447
626.220883	0.284638
626.428634	0.284894
626.636367	0.285189
626.844082	0.285180
627.051778	0.285318
627.259457	0.285442
627.467117	0.285699
627.674758	0.285630
627.882382	0.286142
628.089987	0.286382
628.297574	0.286444
628.505143	0.286584
628.712694	0.286772
628.920226	0.286850
629.127740	0.287109
629.335236	0.287398
629.542714	0.287575
629.750174	0.287424
629.957615	0.287440
630.165038	0.287685
630.372443	0.287828
630.579829	0.288199
630.787198	0.288255
630.994548	0.288241
631.201880	0.288325
631.409194	0.288800
631.616489	0.289175
631.823766	0.289326
632.031025	0.289432
632.238266	0.289499
632.445489	0.289579
632.652693	0.289965
632.859879	0.290357
633.067047	0.290568
633.274197	0.290364
633.481329	0.290413
633.688442	0.290565
633.895537	0.290742
634.102614	0.291064
634.309672	0.291104
634.516713	0.291357
634.723735	0.291500
634.930739	0.291701
635.137724	0.291994
635.344692	0.292011
635.551641	0.292323
635.758572	0.292450
635.965485	0.292661
636.172379	0.292980
636.379256	0.293117
636.586114	0.293341
636.792954	0.293440
636.999775	0.293485
637.206579	0.293992
637.413364	0.294223
637.620131	0.294411
637.826880	0.294541
638.033610	0.294782
638.240323	0.294960
638.447017	0.295022
638.653692	0.295216
638.860350	0.295354
639.066990	0.295467
639.273611	0.295808
639.480214	0.296288
639.686798	0.296477
639.893365	0.296702
640.099913	0.296752
640.306443	0.296961
640.512955	0.297156
640.719449	0.297573
640.925924	0.297506
641.132381	0.297482
641.338820	0.297248
641.545241	0.297411
641.751644	0.297297
641.958028	0.297526
642.164394	0.297643
642.370742	0.298006
642.577071	0.297883
642.783383	0.298157
642.989676	0.298382
643.195951	0.298482
643.402207	0.298809
643.608446	0.299023
643.814666	0.299073
644.020868	0.299244
644.227052	0.299492
644.433218	0.299811
644.639365	0.300001
644.845494	0.300032
645.051605	0.300581
645.257698	0.300806
645.463772	0.301085
645.669828	0.301554
645.875866	0.301855
646.081886	0.301713
646.287888	0.301811
646.493871	0.302183
646.699836	0.302555
646.905783	0.302892
647.111712	0.303149
647.317622	0.303548
647.523514	0.303668
647.729388	0.303767
647.935244	0.304073
648.141082	0.304498
648.346901	0.304687
648.552702	0.304709
648.758485	0.304842
648.964250	0.304987
649.169996	0.305265
649.375724	0.305263
649.581434	0.305517
649.787126	0.305516
649.992800	0.305585
650.198455	0.305805
650.404092	0.306396
650.609711	0.306286
650.815311	0.306245
651.020894	0.306075
651.226458	0.306446
651.432004	0.306407
651.637532	0.306845
651.843041	0.307305
652.048532	0.307227
652.254006	0.307200
652.459460	0.307394
652.664897	0.307792
652.870315	0.308050
653.075716	0.308340
653.281097	0.308570
653.486461	0.308691
653.691807	0.308633
653.897134	0.309151
654.102443	0.309205
654.307734	0.309681
654.513006	0.309481
654.718261	0.309599
654.923497	0.309722
655.128715	0.310148
655.333915	0.310230
655.539096	0.310490
655.744259	0.310447
655.949404	0.310644
656.154531	0.310687
656.359640	0.311153
656.564730	0.311485
656.769802	0.311593
656.974856	0.311746
657.179892	0.312078
657.384909	0.312407
657.589908	0.312728
657.794889	0.313175
657.999852	0.313259
658.204797	0.313554
658.409723	0.313896
658.614631	0.314498
658.819521	0.314374
659.024393	0.314435
659.229246	0.314596
659.434081	0.314609
659.638898	0.314703
659.843697	0.315119
660.048478	0.315219
660.253240	0.315114
660.457984	0.315137
660.662710	0.315704
660.867417	0.316179
661.072107	0.316340
661.276778	0.316639
661.481431	0.316793
661.686066	0.317202
661.890682	0.317428
662.095281	0.317869
662.299861	0.318001
662.504422	0.318122
662.708966	0.318075
662.913491	0.318194
663.117999	0.318337
663.322488	0.318376
663.526958	0.318284
663.731411	0.318359
663.935845	0.318571
664.140261	0.318755
664.344659	0.318940
664.549038	0.319305
664.753400	0.319518
664.957743	0.319836
665.162068	0.320416
665.366375	0.320559
665.570663	0.320832
665.774933	0.321046
665.979185	0.321132
666.183419	0.321567
666.387635	0.321769
666.591832	0.322050
666.796011	0.322371
667.000172	0.322495
667.204315	0.322771
667.408439	0.323210
667.612545	0.323240
667.816634	0.323924
668.020703	0.323837
668.224755	0.324194
668.428788	0.324535
668.632803	0.324957
668.836800	0.325115
669.040779	0.325368
669.244739	0.325405
669.448681	0.325829
669.652605	0.325534
669.856511	0.325772
670.060399	0.325599
670.264268	0.325682
670.468119	0.325573
670.671952	0.325884
670.875767	0.326145
671.079563	0.326586
671.283341	0.326803
671.487101	0.327234
671.690843	0.327664
671.894567	0.328374
672.098272	0.328729
672.301959	0.328963
672.505628	0.329140
672.709278	0.329379
672.912911	0.329443
673.116525	0.329575
673.320121	0.329863
673.523699	0.329942
673.727258	0.329757
673.930799	0.329918
674.134322	0.330365
674.337827	0.330368
674.541314	0.330595
674.744782	0.330863
674.948232	0.331174
675.151664	0.331220
675.355078	0.331459
675.558474	0.331804
675.761851	0.331927
675.965210	0.331842
676.168551	0.332404
676.371873	0.332644
676.575178	0.332798
676.778464	0.333013
676.981732	0.333201
677.184981	0.333362
677.388213	0.333705
677.591426	0.334056
677.794621	0.334537
677.997798	0.334630
678.200956	0.334617
678.404097	0.334833
678.607219	0.334918
678.810323	0.335250
679.013408	0.335544
679.216476	0.335606
679.419525	0.335643
679.622556	0.335757
679.825569	0.335989
680.028563	0.336355
680.231540	0.336683
680.434498	0.336936
680.637438	0.337016
680.840359	0.337266
681.043263	0.337592
681.246148	0.337756
681.449015	0.337904
681.651864	0.338000
681.854694	0.338208
682.057506	0.338180
682.260301	0.338490
682.463076	0.338936
682.665834	0.339153
682.868573	0.339215
683.071295	0.339576
683.273998	0.339887
683.476682	0.339863
683.679349	0.340202
683.881997	0.340376
684.084627	0.340804
684.287239	0.340823
684.489833	0.340953
684.692408	0.341154
684.894965	0.341381
685.097504	0.341607
685.300025	0.342082
685.502527	0.342331
685.705012	0.342558
685.907478	0.342501
686.109925	0.342698
686.312355	0.343070
686.514766	0.343597
686.717159	0.343655
686.919534	0.343587
687.121891	0.343724
687.324230	0.343724
687.526550	0.344149
687.728852	0.344456
687.931136	0.344469
688.133401	0.344515
688.335649	0.344476
688.537878	0.344569
688.740089	0.344966
688.942281	0.345304
689.144456	0.345541
689.346612	0.345641
689.548750	0.345654
689.750870	0.346060
689.952971	0.346267
690.155055	0.346483
690.357120	0.346698
690.559167	0.346927
690.761195	0.346987
690.963206	0.347107
691.165198	0.347137
691.367172	0.347409
691.569128	0.347587
691.771065	0.347838
691.972984	0.347924
692.174885	0.348344
692.376768	0.348372
692.578633	0.348602
692.780479	0.348696
692.982308	0.348981
693.184118	0.349003
693.385909	0.349248
