sample name	sample
index	1520
start time	 05-18-2021  03:27:05 PM


Wavelength (nm)	Absorbance
494.344910	-0.302345
494.563924	-0.302345
494.782919	-0.302345
495.001897	0.686555
495.220856	0.006985
495.439797	0.055654
495.658719	0.128828
495.877624	0.297429
496.096510	0.240253
496.315378	0.260616
496.534227	0.231807
496.753059	0.223269
496.971872	0.156031
497.190667	0.183808
497.409444	0.183864
497.628203	0.189837
497.846943	0.190037
498.065665	0.192904
498.284369	0.193953
498.503055	0.193948
498.721723	0.194358
498.940372	0.193404
499.159003	0.195570
499.377616	0.197457
499.596210	0.198197
499.814787	0.199590
500.033345	0.198869
500.251885	0.198626
500.470406	0.198502
500.688910	0.196250
500.907395	0.197437
501.125862	0.196977
501.344311	0.197139
501.562742	0.196390
501.781154	0.195489
501.999548	0.194787
502.217924	0.195736
502.436282	0.196444
502.654621	0.198320
502.872942	0.198258
503.091245	0.197826
503.309530	0.198007
503.527797	0.197622
503.746045	0.198339
503.964275	0.198290
504.182487	0.197639
504.400681	0.197423
504.618856	0.196539
504.837013	0.197382
505.055152	0.197814
505.273273	0.197765
505.491376	0.198566
505.709460	0.199066
505.927526	0.200049
506.145574	0.201288
506.363604	0.202402
506.581615	0.202806
506.799608	0.201695
507.017583	0.200759
507.235540	0.200024
507.453478	0.200598
507.671399	0.199842
507.889301	0.199845
508.107185	0.199242
508.325050	0.200111
508.542898	0.200316
508.760727	0.201894
508.978538	0.203203
509.196330	0.204308
509.414105	0.202859
509.631861	0.203248
509.849599	0.204371
510.067319	0.205433
510.285021	0.204646
510.502704	0.205329
510.720369	0.204881
510.938016	0.203808
511.155645	0.203163
511.373255	0.204157
511.590848	0.204295
511.808422	0.203085
512.025977	0.202837
512.243515	0.203141
512.461034	0.202660
512.678536	0.203047
512.896018	0.203301
513.113483	0.204067
513.330930	0.203897
513.548358	0.204508
513.765768	0.205601
513.983160	0.204588
514.200533	0.204573
514.417889	0.204734
514.635226	0.205575
514.852545	0.206872
515.069845	0.207163
515.287128	0.207312
515.504392	0.206702
515.721638	0.206964
515.938866	0.208033
516.156075	0.208226
516.373267	0.207974
516.590440	0.208355
516.807594	0.207718
517.024731	0.208004
517.241850	0.208621
517.458950	0.209248
517.676032	0.208541
517.893095	0.208666
518.110141	0.208284
518.327168	0.208525
518.544177	0.208094
518.761168	0.208314
518.978141	0.208740
519.195095	0.208699
519.412031	0.209579
519.628949	0.210148
519.845849	0.209723
520.062731	0.210561
520.279594	0.210831
520.496439	0.211063
520.713266	0.211129
520.930074	0.210968
521.146865	0.211265
521.363637	0.210905
521.580391	0.211318
521.797127	0.211877
522.013844	0.212762
522.230543	0.213095
522.447224	0.213567
522.663887	0.214243
522.880532	0.214634
523.097158	0.214317
523.313766	0.213820
523.530356	0.213621
523.746928	0.213441
523.963481	0.213318
524.180017	0.213608
524.396534	0.213631
524.613032	0.213664
524.829513	0.213369
525.045975	0.213598
525.262420	0.213933
525.478845	0.213415
525.695253	0.214278
525.911643	0.213865
526.128014	0.214497
526.344367	0.214263
526.560702	0.214647
526.777018	0.214645
526.993316	0.215705
527.209597	0.216261
527.425858	0.217453
527.642102	0.216896
527.858328	0.217463
528.074535	0.217486
528.290724	0.217930
528.506894	0.217598
528.723047	0.218246
528.939181	0.218259
529.155297	0.218721
529.371395	0.218797
529.587475	0.219188
529.803536	0.219573
530.019579	0.219303
530.235604	0.219365
530.451611	0.219221
530.667600	0.219074
530.883570	0.219575
531.099522	0.219475
531.315456	0.219977
531.531372	0.220460
531.747269	0.219939
531.963148	0.220071
532.179009	0.220242
532.394852	0.221181
532.610676	0.222247
532.826482	0.222503
533.042271	0.222800
533.258040	0.223313
533.473792	0.223246
533.689525	0.224149
533.905240	0.224731
534.120937	0.225236
534.336616	0.225844
534.552277	0.225609
534.767919	0.225837
534.983543	0.226858
535.199149	0.226915
535.414736	0.227610
535.630306	0.227969
535.845857	0.228947
536.061390	0.229160
536.276904	0.228994
536.492401	0.229892
536.707879	0.230005
536.923339	0.229007
537.138781	0.228942
537.354204	0.229180
537.569610	0.229251
537.784997	0.229277
538.000366	0.229402
538.215716	0.229516
538.431049	0.229954
538.646363	0.229902
538.861659	0.230856
539.076937	0.231285
539.292196	0.231472
539.507438	0.231413
539.722661	0.231462
539.937866	0.231938
540.153052	0.233008
540.368221	0.232616
540.583371	0.233284
540.798503	0.232471
541.013617	0.232450
541.228712	0.232530
541.443789	0.233114
541.658848	0.233586
541.873889	0.233649
542.088912	0.233065
542.303916	0.232897
542.518902	0.233109
542.733870	0.234098
542.948820	0.234245
543.163752	0.234061
543.378665	0.233501
543.593560	0.233442
543.808437	0.233731
544.023295	0.233838
544.238136	0.233642
544.452958	0.233250
544.667762	0.233386
544.882548	0.233638
545.097315	0.233747
545.312064	0.234599
545.526795	0.235334
545.741508	0.235385
545.956203	0.236221
546.170879	0.237351
546.385537	0.237441
546.600177	0.237413
546.814799	0.238253
547.029402	0.239067
547.243988	0.239091
547.458555	0.238423
547.673103	0.238709
547.887634	0.238906
548.102146	0.238927
548.316640	0.239967
548.531116	0.241010
548.745574	0.241172
548.960013	0.241461
549.174435	0.241782
549.388838	0.242399
549.603222	0.242501
549.817589	0.242400
550.031937	0.242595
550.246267	0.242092
550.460579	0.241892
550.674873	0.241665
550.889148	0.241989
551.103405	0.242180
551.317644	0.242577
551.531865	0.242931
551.746068	0.242890
551.960252	0.242465
552.174418	0.242259
552.388566	0.242400
552.602696	0.242442
552.816807	0.242555
553.030900	0.242618
553.244975	0.242805
553.459032	0.243094
553.673070	0.243397
553.887091	0.243750
554.101093	0.244136
554.315077	0.244266
554.529042	0.245020
554.742990	0.244829
554.956919	0.244466
555.170830	0.244446
555.384722	0.244341
555.598597	0.244158
555.812453	0.244311
556.026291	0.244686
556.240111	0.244897
556.453913	0.244653
556.667696	0.244987
556.881461	0.245832
557.095208	0.245985
557.308937	0.246011
557.522647	0.246361
557.736339	0.246965
557.950013	0.247376
558.163669	0.247124
558.377307	0.247246
558.590926	0.247472
558.804527	0.247591
559.018110	0.247766
559.231675	0.247927
559.445221	0.248303
559.658749	0.248379
559.872259	0.248426
560.085751	0.248639
560.299225	0.249255
560.512680	0.249451
560.726117	0.249329
560.939536	0.249133
561.152937	0.249354
561.366319	0.249089
561.579683	0.249139
561.793029	0.249510
562.006357	0.249855
562.219667	0.249366
562.432958	0.249271
562.646231	0.249269
562.859486	0.249294
563.072723	0.249655
563.285941	0.250245
563.499141	0.250079
563.712323	0.249872
563.925487	0.249793
564.138632	0.249726
564.351760	0.249984
564.564869	0.250506
564.777960	0.251141
564.991032	0.250864
565.204087	0.251167
565.417123	0.251354
565.630141	0.251829
565.843140	0.251791
566.056122	0.251834
566.269085	0.252129
566.482030	0.251758
566.694957	0.251217
566.907866	0.251802
567.120756	0.251429
567.333628	0.251435
567.546482	0.251417
567.759318	0.251725
567.972135	0.252358
568.184935	0.252042
568.397716	0.252636
568.610478	0.253122
568.823223	0.253194
569.035949	0.253427
569.248657	0.253781
569.461347	0.253766
569.674019	0.253613
569.886672	0.253376
570.099308	0.253835
570.311925	0.253616
570.524523	0.253869
570.737104	0.253756
570.949666	0.254071
571.162210	0.254321
571.374736	0.254613
571.587244	0.255181
571.799733	0.255634
572.012205	0.255444
572.224658	0.255615
572.437092	0.255920
572.649509	0.255831
572.861907	0.255955
573.074287	0.256139
573.286649	0.256105
573.498993	0.256414
573.711318	0.256861
573.923625	0.256972
574.135914	0.257239
574.348185	0.257385
574.560438	0.257920
574.772672	0.258220
574.984888	0.258142
575.197086	0.258639
575.409266	0.258444
575.621427	0.258523
575.833570	0.259170
576.045695	0.259513
576.257802	0.259184
576.469890	0.259039
576.681961	0.259425
576.894013	0.259768
577.106046	0.259885
577.318062	0.260209
577.530059	0.260374
577.742039	0.260594
577.954000	0.260691
578.165942	0.260956
578.377867	0.261140
578.589773	0.260631
578.801661	0.260819
579.013531	0.260616
579.225382	0.260578
579.437216	0.260415
579.649031	0.259817
579.860828	0.259978
580.072606	0.260521
580.284367	0.260831
580.496109	0.261503
580.707833	0.261407
580.919539	0.261605
581.131227	0.262258
581.342896	0.262503
581.554547	0.262831
581.766180	0.262886
581.977795	0.262674
582.189391	0.262663
582.400969	0.262655
582.612529	0.262856
582.824071	0.263140
583.035595	0.263000
583.247100	0.262717
583.458587	0.262637
583.670056	0.262601
583.881506	0.262424
584.092939	0.262670
584.304353	0.262289
584.515749	0.262103
584.727127	0.261825
584.938486	0.261815
585.149828	0.262107
585.361151	0.262562
585.572456	0.262892
585.783742	0.263404
585.995011	0.263479
586.206261	0.263897
586.417493	0.264530
586.628706	0.264753
586.839902	0.264967
587.051079	0.265193
587.262238	0.265265
587.473379	0.264822
587.684502	0.264974
587.895606	0.264933
588.106692	0.264480
588.317760	0.264070
588.528810	0.264360
588.739841	0.264874
588.950855	0.264849
589.161850	0.264920
589.372827	0.265560
589.583785	0.265781
589.794726	0.266163
590.005648	0.266852
590.216552	0.267236
590.427437	0.266951
590.638305	0.266407
590.849154	0.266627
591.059985	0.266900
591.270798	0.266790
591.481592	0.266695
591.692369	0.266855
591.903127	0.266839
592.113867	0.267100
592.324588	0.267970
592.535292	0.268369
592.745977	0.268231
592.956644	0.267977
593.167293	0.268150
593.377923	0.268309
593.588536	0.268483
593.799130	0.268374
594.009706	0.268641
594.220263	0.268172
594.430803	0.268159
594.641324	0.268563
594.851827	0.269089
595.062312	0.269397
595.272778	0.269350
595.483227	0.269593
595.693657	0.269941
595.904069	0.269714
596.114462	0.270126
596.324838	0.270544
596.535195	0.270975
596.745534	0.271034
596.955855	0.271156
597.166157	0.271556
597.376441	0.271545
597.586707	0.271670
597.796955	0.272060
598.007185	0.272205
598.217396	0.272229
598.427589	0.272252
598.637764	0.272176
598.847921	0.272170
599.058060	0.272114
599.268180	0.272212
599.478282	0.272583
599.688366	0.272601
599.898431	0.272670
600.108479	0.272672
600.318508	0.272962
600.528519	0.273100
600.738511	0.272985
600.948486	0.273247
601.158442	0.273151
601.368380	0.273488
601.578300	0.273679
601.788202	0.273734
601.998085	0.273914
602.207950	0.273644
602.417797	0.274072
602.627626	0.274284
602.837436	0.274509
603.047228	0.274829
603.257002	0.274676
603.466758	0.274888
603.676496	0.275289
603.886215	0.275300
604.095916	0.275410
604.305599	0.275685
604.515264	0.276063
604.724910	0.275707
604.934538	0.275700
605.144148	0.275552
605.353740	0.275726
605.563314	0.275706
605.772869	0.275804
605.982406	0.276048
606.191925	0.275732
606.401425	0.275722
606.610908	0.276058
606.820372	0.276012
607.029818	0.276272
607.239246	0.276118
607.448655	0.276144
607.658047	0.276332
607.867420	0.276079
608.076775	0.276577
608.286111	0.276719
608.495430	0.276862
608.704730	0.277318
608.914012	0.277799
609.123275	0.277922
609.332521	0.278245
609.541748	0.278947
609.750957	0.279398
609.960148	0.279317
610.169321	0.279648
610.378475	0.279967
610.587611	0.279945
610.796729	0.279901
611.005829	0.280240
611.214910	0.280195
611.423974	0.279794
611.633019	0.279951
611.842045	0.279976
612.051054	0.279681
612.260044	0.279909
612.469017	0.280087
612.677970	0.280012
612.886906	0.279939
613.095824	0.280051
613.304723	0.280038
613.513604	0.279796
613.722467	0.279905
613.931311	0.280450
614.140138	0.280325
614.348946	0.280320
614.557736	0.280441
614.766507	0.280561
614.975261	0.280338
615.183996	0.280717
615.392713	0.280982
615.601412	0.280980
615.810092	0.280632
616.018754	0.280550
616.227399	0.280855
616.436024	0.281203
616.644632	0.281212
616.853222	0.281863
617.061793	0.281781
617.270346	0.282189
617.478880	0.282443
617.687397	0.283046
617.895895	0.283246
618.104375	0.283088
618.312837	0.283023
618.521281	0.283462
618.729706	0.283296
618.938113	0.283274
619.146502	0.283063
619.354873	0.283432
619.563226	0.283434
619.771560	0.283483
619.979876	0.283858
620.188174	0.284131
620.396453	0.283882
620.604715	0.284174
620.812958	0.284208
621.021183	0.284591
621.229390	0.284250
621.437578	0.284240
621.645748	0.284677
621.853900	0.284867
622.062034	0.284861
622.270150	0.285251
622.478247	0.285366
622.686326	0.285674
622.894387	0.285858
623.102430	0.286271
623.310454	0.286355
623.518461	0.286317
623.726449	0.286141
623.934418	0.286041
624.142370	0.285847
624.350303	0.285948
624.558218	0.285906
624.766115	0.285788
624.973994	0.286075
625.181855	0.286021
625.389697	0.286155
625.597521	0.286275
625.805327	0.286097
626.013114	0.286243
626.220883	0.286035
626.428634	0.286034
626.636367	0.286143
626.844082	0.286113
627.051778	0.286408
627.259457	0.286381
627.467117	0.286362
627.674758	0.286757
627.882382	0.286994
628.089987	0.287126
628.297574	0.287697
628.505143	0.287570
628.712694	0.287683
628.920226	0.287852
629.127740	0.288130
629.335236	0.288358
629.542714	0.288442
629.750174	0.288518
629.957615	0.288632
630.165038	0.288500
630.372443	0.288601
630.579829	0.288606
630.787198	0.288655
630.994548	0.288590
631.201880	0.288958
631.409194	0.289309
631.616489	0.289770
631.823766	0.289861
632.031025	0.290242
632.238266	0.290862
632.445489	0.290994
632.652693	0.291089
632.859879	0.291340
633.067047	0.291286
633.274197	0.291658
633.481329	0.291493
633.688442	0.291908
633.895537	0.291925
634.102614	0.291822
634.309672	0.292005
634.516713	0.292161
634.723735	0.292765
634.930739	0.293246
635.137724	0.293089
635.344692	0.293279
635.551641	0.293309
635.758572	0.293276
635.965485	0.293414
636.172379	0.293540
636.379256	0.293511
636.586114	0.293139
636.792954	0.293004
636.999775	0.292932
637.206579	0.293055
637.413364	0.293160
637.620131	0.293270
637.826880	0.293450
638.033610	0.293401
638.240323	0.293465
638.447017	0.293412
638.653692	0.293407
638.860350	0.293687
639.066990	0.293729
639.273611	0.293563
639.480214	0.293811
639.686798	0.293881
639.893365	0.294066
640.099913	0.294284
640.306443	0.294722
640.512955	0.294773
640.719449	0.295043
640.925924	0.295046
641.132381	0.295459
641.338820	0.295694
641.545241	0.295669
641.751644	0.295803
641.958028	0.295859
642.164394	0.295894
642.370742	0.296407
642.577071	0.296473
642.783383	0.296966
642.989676	0.296916
643.195951	0.296867
643.402207	0.297006
643.608446	0.296992
643.814666	0.297399
644.020868	0.297599
644.227052	0.297501
644.433218	0.297752
644.639365	0.297922
644.845494	0.298324
645.051605	0.298506
645.257698	0.298770
645.463772	0.299015
645.669828	0.299110
645.875866	0.299249
646.081886	0.299274
646.287888	0.299342
646.493871	0.299037
646.699836	0.299137
646.905783	0.299239
647.111712	0.299345
647.317622	0.299646
647.523514	0.299848
647.729388	0.300165
647.935244	0.300466
648.141082	0.300494
648.346901	0.300865
648.552702	0.301062
648.758485	0.301224
648.964250	0.301467
649.169996	0.301511
649.375724	0.301421
649.581434	0.301183
649.787126	0.301183
649.992800	0.301258
650.198455	0.301396
650.404092	0.301354
650.609711	0.301584
650.815311	0.301469
651.020894	0.301514
651.226458	0.301795
651.432004	0.302190
651.637532	0.302579
651.843041	0.302746
652.048532	0.303012
652.254006	0.303118
652.459460	0.303247
652.664897	0.303627
652.870315	0.303818
653.075716	0.304185
653.281097	0.304269
653.486461	0.304224
653.691807	0.304363
653.897134	0.304364
654.102443	0.304642
654.307734	0.304954
654.513006	0.305105
654.718261	0.305106
654.923497	0.305026
655.128715	0.304944
655.333915	0.304942
655.539096	0.305360
655.744259	0.305765
655.949404	0.305949
656.154531	0.306139
656.359640	0.306170
656.564730	0.306607
656.769802	0.307182
656.974856	0.307783
657.179892	0.308419
657.384909	0.308470
657.589908	0.308564
657.794889	0.308727
657.999852	0.309070
658.204797	0.309292
658.409723	0.309360
658.614631	0.309179
658.819521	0.309146
659.024393	0.308874
659.229246	0.309154
659.434081	0.309031
659.638898	0.309469
659.843697	0.309079
660.048478	0.309469
660.253240	0.309694
660.457984	0.309827
660.662710	0.309905
660.867417	0.310468
661.072107	0.310521
661.276778	0.310696
661.481431	0.310337
661.686066	0.310687
661.890682	0.310696
662.095281	0.311089
662.299861	0.311376
662.504422	0.311626
662.708966	0.311404
662.913491	0.311515
663.117999	0.311929
663.322488	0.312416
663.526958	0.312724
663.731411	0.312876
663.935845	0.312779
664.140261	0.312884
664.344659	0.312955
664.549038	0.313355
664.753400	0.313224
664.957743	0.313159
665.162068	0.312848
665.366375	0.312668
665.570663	0.312552
665.774933	0.312660
665.979185	0.312773
666.183419	0.312904
666.387635	0.312746
666.591832	0.313168
666.796011	0.313423
667.000172	0.313927
667.204315	0.314019
667.408439	0.314423
667.612545	0.314546
667.816634	0.314689
668.020703	0.314791
668.224755	0.315170
668.428788	0.315163
668.632803	0.315383
668.836800	0.315336
669.040779	0.315540
669.244739	0.315469
669.448681	0.315714
669.652605	0.315668
669.856511	0.316064
670.060399	0.316170
670.264268	0.316452
670.468119	0.316432
670.671952	0.316815
670.875767	0.317115
671.079563	0.317378
671.283341	0.317456
671.487101	0.317855
671.690843	0.317874
671.894567	0.318080
672.098272	0.318454
672.301959	0.318563
672.505628	0.318472
672.709278	0.318657
672.912911	0.319154
673.116525	0.319373
673.320121	0.319381
673.523699	0.319299
673.727258	0.319532
673.930799	0.319493
674.134322	0.319879
674.337827	0.320186
674.541314	0.320356
674.744782	0.320143
674.948232	0.320110
675.151664	0.320076
675.355078	0.320159
675.558474	0.320189
675.761851	0.320143
675.965210	0.320032
676.168551	0.320422
676.371873	0.320315
676.575178	0.320438
676.778464	0.320748
676.981732	0.321111
677.184981	0.321188
677.388213	0.321426
677.591426	0.321748
677.794621	0.322356
677.997798	0.322396
678.200956	0.322939
678.404097	0.323421
678.607219	0.323501
678.810323	0.323821
679.013408	0.324230
679.216476	0.324292
679.419525	0.324420
679.622556	0.324371
679.825569	0.324429
680.028563	0.324454
680.231540	0.324372
680.434498	0.324468
680.637438	0.324575
680.840359	0.324639
681.043263	0.325228
681.246148	0.325318
681.449015	0.325379
681.651864	0.325727
681.854694	0.325894
682.057506	0.326015
682.260301	0.326213
682.463076	0.326234
682.665834	0.326597
682.868573	0.326458
683.071295	0.326677
683.273998	0.326705
683.476682	0.326714
683.679349	0.326870
683.881997	0.327099
684.084627	0.327510
684.287239	0.327800
684.489833	0.328039
684.692408	0.327684
684.894965	0.327941
685.097504	0.328280
685.300025	0.328409
685.502527	0.328583
685.705012	0.328700
685.907478	0.328408
686.109925	0.328292
686.312355	0.328097
686.514766	0.328384
686.717159	0.328182
686.919534	0.327983
687.121891	0.327976
687.324230	0.327790
687.526550	0.327677
687.728852	0.328046
687.931136	0.328368
688.133401	0.328649
688.335649	0.328655
688.537878	0.329096
688.740089	0.329509
688.942281	0.329750
689.144456	0.329967
689.346612	0.330363
689.548750	0.330588
689.750870	0.330704
689.952971	0.330658
690.155055	0.331188
690.357120	0.331241
690.559167	0.331236
690.761195	0.331425
690.963206	0.331694
691.165198	0.331753
691.367172	0.331720
691.569128	0.331638
691.771065	0.331937
691.972984	0.331928
692.174885	0.332003
692.376768	0.332158
692.578633	0.332298
692.780479	0.332302
692.982308	0.332355
693.184118	0.332365
693.385909	0.332501
