sample name	sample
index	145
start time	 02-15-2021  02:06:53 PM
880	0.485036
Peak Time (s)	91.038
Peak Height 	0.485
calc peak height	90,93
Baseline Time (s)	10.035
Baseline Value 	-0.00258
subtract baseline	10,4
Abs	0.344953
Peak Time (s)	91.038
Peak Height 	0.345
calc peak height	90,93
Baseline Time (s)	10.035
Baseline Value 	-0.003704
subtract baseline	10,3
PK_550	0.152186
Peak Time (s)	91.535
Peak Height 	0.1522
calc peak height	90,93
Baseline Time (s)	11.536
Baseline Value 	5.3474E-4
subtract baseline	10,2
PK_880	0.310486
Peak Time (s)	91.038
Peak Height 	0.3105
calc peak height	90,93
Baseline Time (s)	8.537
Baseline Value 	-1.9363E-4
subtract baseline	10,1


Time (s)	A880-A510	A880-A775	A880-A975	A880	I510	I775	I975	I880	
0.034500	0.001327	0.000131	0.006381	0.001166	4101.763942	13888.552112	3240.731688	8078.315578
0.537500	0.005829	0.001429	-0.011634	0.004046	4105.778033	13849.190032	3228.892832	8044.842518
1.035500	0.006202	-0.000208	0.003473	0.003387	4108.343271	13824.934682	3237.772297	8052.480800
1.535500	-0.003768	-0.001976	-0.007117	0.005261	4079.279589	13735.117471	3230.726287	8030.794171
2.038500	-0.001048	-0.000042	-0.000894	0.000242	4098.181632	13907.287342	3237.073263	8089.097318
2.536000	0.001917	0.000037	-0.004259	-0.000212	4106.640112	13920.584484	3235.414113	8094.404563
3.039000	0.006725	0.001915	0.004577	-0.001118	4120.923354	13990.368420	3241.010740	8105.009851
3.536500	0.002805	0.000319	0.012082	0.000253	4107.690338	13916.011740	3244.599519	8088.968662
4.037000	-0.003988	-0.000539	-0.001698	0.001058	4088.966313	13874.544425	3236.148384	8079.569700
4.537000	0.002875	0.001190	0.020016	0.001887	4103.806982	13896.960871	3248.338039	8069.906629
5.037500	0.000259	0.000876	0.003978	-0.000063	4102.160890	13937.838489	3240.051520	8092.658203
5.535000	0.002477	0.001070	0.008007	0.001235	4104.438175	13910.250047	3241.637270	8077.511794
6.035000	-0.000752	0.000452	0.016747	0.000602	4098.023920	13910.625416	3247.154851	8084.892106
6.535000	0.002667	0.000385	0.007952	-0.000337	4108.813293	13932.399467	3242.521507	8095.859112
7.036000	-0.005575	-0.000962	0.008703	-0.001581	4091.539357	13929.821342	3243.690270	8110.434861
7.536500	-0.000961	-0.000720	0.003513	-0.000722	4100.775724	13914.427243	3240.163616	8100.372258
8.036500	0.006433	0.002451	0.002068	0.002867	4110.214171	13903.970216	3237.265678	8058.522495
8.536500	0.000000	0.002152	-0.008586	0.000828	4099.318718	13947.467434	3232.383715	8082.247026
9.037000	0.005987	0.002261	0.010132	0.001480	4112.560183	13933.888217	3242.734355	8074.652089
9.537000	0.002294	-0.000752	-0.010468	-0.000443	4108.149590	13906.629440	3232.041110	8097.097531
10.035000	-0.002103	-0.001788	0.000000	0.000000	4096.179997	13869.798078	3237.723461	8091.921348
10.535000	-0.002132	0.000201	-0.006836	-0.000797	4098.069228	13939.309515	3234.285028	8101.247485
11.035000	-0.001666	-0.000709	0.015127	0.000153	4096.877891	13892.848292	3246.458898	8090.132301
11.535500	0.001163	0.000000	0.021348	-0.000735	4106.067023	13932.737849	3250.713437	8100.523926
12.036000	-0.001273	0.000179	-0.008592	0.001774	4093.860023	13874.618529	3231.850278	8071.230208
12.539000	-0.001841	0.001177	0.012443	0.000576	4095.406507	13929.369398	3244.621156	8085.188431
13.036500	-0.002851	0.000841	-0.009376	-0.000545	4095.681564	13949.038582	3232.711138	8098.299672
13.536500	0.000979	-0.000564	0.005819	-0.001209	4106.784039	13930.472580	3241.785808	8106.067694
14.037500	0.001202	0.000806	0.015134	0.002605	4097.903018	13869.541673	3245.012374	8061.567496
14.537000	-0.001818	-0.000199	0.005675	0.000578	4095.458732	13894.986522	3240.663177	8085.172217
15.037000	-0.002532	-0.001329	-0.000267	-0.002226	4100.607043	13936.780187	3238.848949	8118.004350
15.538000	0.000048	-0.000720	0.002116	-0.001390	4104.923564	13931.100508	3239.741827	8108.190695
16.035500	-0.003079	0.000571	0.004208	0.002852	4086.807164	13857.563835	3238.502212	8058.697114
16.536000	0.002275	-0.000436	0.012575	-0.001081	4109.690639	13930.479885	3245.678271	8104.575575
17.039000	0.004091	0.000345	-0.000828	-0.003149	4119.405724	14001.962778	3239.057442	8128.860869
17.536500	0.000481	-0.000768	-0.002497	0.000630	4100.997123	13879.499039	3235.937257	8084.564047
18.037000	0.004976	0.000301	0.005093	0.001611	4109.712873	13881.707489	3239.728229	8073.127213
18.537500	-0.002977	-0.000712	0.006260	0.000608	4092.540817	13881.437535	3240.985419	8084.820847
19.037000	0.001587	0.000297	-0.011163	0.000729	4103.486864	13903.565459	3230.996923	8083.403807
19.537500	-0.000664	0.000431	0.015231	0.001052	4097.131752	13898.860695	3245.987895	8079.640058
20.035000	0.002020	0.001496	0.006349	0.001970	4101.488737	13902.529935	3240.247017	8068.950787
20.535500	0.001005	0.001047	0.000506	0.000829	4101.798380	13919.808953	3237.538413	8082.239084
21.035500	-0.001225	0.001857	-0.012226	0.000831	4096.295958	13940.003489	3230.348377	8082.218989
21.535500	-0.003675	0.000453	0.000467	0.000216	4091.791736	13920.293344	3237.867420	8089.401884
22.036500	-0.004201	-0.000745	0.003544	0.000342	4090.196534	13887.249766	3239.566763	8087.931121
22.536500	-0.003712	0.000068	-0.006428	0.000079	4092.034677	13914.071504	3234.019953	8090.995376
23.036500	0.000432	0.000848	-0.001621	0.001403	4098.966139	13900.495289	3235.995268	8075.545363
23.537000	-0.000751	-0.000074	-0.010705	0.000394	4098.537719	13902.671403	3231.440281	8087.319552
24.036500	0.002084	-0.000454	-0.016911	-0.000451	4107.647847	13914.293978	3228.462470	8097.198631
24.534500	0.007855	0.001870	-0.008158	0.001438	4117.339809	13925.129542	3232.281087	8075.135245
25.035000	-0.006241	0.000740	-0.010511	0.000106	4085.792512	13930.203706	3231.709624	8090.678445
25.535500	-0.000526	0.000334	0.007328	0.000166	4099.654498	13918.564321	3241.863941	8089.981236
26.036000	-0.001470	-0.000206	0.012822	-0.000536	4099.059719	13922.599592	3245.501709	8098.191714
26.539000	-0.002226	0.001557	0.016067	0.001615	4091.914615	13912.925145	3246.149653	8073.084465
27.036500	0.004719	0.002353	0.000425	-0.000316	4113.878500	13981.216102	3238.148710	8095.615762
27.539000	-0.000041	-0.000267	0.002709	-0.002185	4106.674994	13962.374469	3240.545521	8117.526639
28.037000	-0.004712	0.000357	-0.001707	0.002735	4083.116995	13855.144591	3235.189766	8060.054894
28.537000	-0.001127	0.001932	0.021760	-0.000327	4099.387692	13970.909607	3250.715313	8095.744052
29.034500	-0.001295	0.001279	-0.011993	-0.000589	4099.621345	13961.117697	3231.269726	8098.810263
29.534500	-0.001716	0.001705	0.011144	-0.000375	4098.056036	13966.425542	3244.416949	8096.309358
30.035500	0.001521	0.001871	0.000936	-0.000330	4105.949777	13969.473171	3238.450674	8095.782377
30.535000	0.002452	-0.001478	0.011475	-0.000168	4107.859018	13881.707105	3244.489522	8093.886755
31.035500	0.000639	0.000796	0.009931	0.001296	4099.741753	13901.866649	3242.723838	8076.793078
31.536000	0.002163	0.001038	0.019875	-0.000682	4108.417383	13957.373951	3249.793429	8099.893676
32.036000	-0.002074	-0.000236	0.011521	-0.001871	4100.862683	13955.262785	3245.522005	8113.837220
32.536500	0.003443	-0.000282	-0.007566	-0.001488	4113.620933	13944.521539	3234.262857	8109.347415
33.037000	0.003002	-0.000071	-0.006642	-0.002089	4114.020104	13964.865893	3235.126730	8116.400241
33.536500	0.006266	-0.000317	0.010323	0.000593	4115.475233	13891.654198	3243.365240	8084.992877
34.035000	0.000135	0.000915	0.003279	0.001565	4097.836415	13898.142697	3238.708227	8073.662916
34.535000	-0.000414	-0.000074	0.009247	0.000541	4099.006654	13899.022708	3242.766131	8085.604835
35.035500	-0.002409	0.000418	0.009818	-0.000192	4095.899801	13929.622250	3243.530234	8094.171860
35.535500	-0.002344	0.000127	-0.008166	0.000203	4095.089058	13912.472908	3232.970653	8089.550993
36.039000	-0.001305	0.001429	0.019642	0.001786	4093.751028	13905.440564	3248.174853	8071.082000
36.536500	-0.004052	0.001851	-0.011244	0.001534	4087.648046	13922.272087	3230.503524	8074.020365
37.036500	0.000376	0.000464	-0.001569	0.000819	4100.268942	13905.500403	3236.357927	8082.355076
37.537000	-0.001764	0.000028	0.006385	0.000584	4095.576769	13900.498274	3241.072348	8085.102852
38.034500	-0.004901	-0.000240	-0.004974	-0.001611	4093.265886	13948.655834	3235.802852	8110.792279
38.535000	-0.000786	0.002089	0.017030	0.001602	4095.478940	13926.535582	3246.728707	8073.230779
39.037500	0.002169	0.001053	0.005571	0.001604	4102.762191	13900.598763	3240.008537	8073.205812
39.535000	-0.001440	0.000518	0.017626	0.001394	4094.382171	13892.506285	3247.206699	8075.653955
40.038000	0.003285	0.002411	-0.017639	0.002273	4103.866420	13917.788718	3226.563878	8065.419139
40.536000	0.000858	-0.000832	0.017753	-0.000357	4104.370288	13902.504245	3248.327074	8096.096177
41.036000	0.004895	0.000105	0.008443	0.001010	4111.008758	13891.793212	3242.022101	8080.131937
41.536000	-0.000915	0.001733	0.009685	0.002302	4093.443065	13900.178679	3241.993096	8065.089216
42.037000	-0.000376	0.002265	0.011756	0.002438	4094.433507	13910.034237	3243.123920	8063.505561
42.534000	-0.000431	0.000392	-0.008026	0.000113	4100.020417	13921.337071	3233.100256	8090.599816
43.037000	-0.000533	0.000446	-0.015866	0.000645	4098.456689	13909.393199	3228.434378	8084.391505
43.535000	-0.004655	-0.001447	0.016309	-0.005825	4104.261046	14024.258318	3250.743784	8160.472181
44.035000	0.000142	-0.000175	-0.008219	0.000354	4100.839560	13901.158868	3232.856079	8087.785111
44.537000	-0.001151	-0.000839	0.008605	-0.001925	4103.277027	13941.510184	3243.834745	8114.469364
45.035500	-0.004935	-0.001231	0.020780	0.000350	4088.381910	13874.940266	3249.717551	8087.826951
45.539000	-0.002710	-0.000894	-0.002236	-0.003060	4102.231149	13968.595138	3238.196495	8127.818394
46.036500	-0.006866	-0.000388	0.000622	0.002877	4077.554987	13833.125982	3236.433960	8058.406204
46.536500	0.002666	-0.000033	-0.005431	-0.002203	4113.462826	13968.679989	3235.878954	8117.732992
47.037000	-0.004667	0.000435	0.010218	0.002571	4083.625754	13861.146246	3242.147417	8061.961674
47.537000	-0.003884	-0.001403	-0.002745	-0.000745	4093.634819	13897.946370	3236.579417	8100.636787
48.034500	-0.003832	0.000598	-0.006225	0.002262	4086.409179	13872.877165	3232.904312	8065.549842
48.535000	0.001443	0.001297	0.004828	-0.001013	4107.450658	13972.195658	3241.095260	8103.772302
49.035500	-0.003800	-0.000815	0.003902	0.000035	4091.929684	13893.151480	3239.950768	8091.515980
49.535500	0.001446	-0.001565	-0.004551	-0.006322	4120.733873	14033.803583	3238.740761	8166.353845
50.038000	-0.002735	-0.001148	0.008390	-0.001312	4097.852127	13918.444258	3243.349162	8107.277387
50.536000	0.000008	-0.000559	0.012018	0.001617	4097.396136	13860.178801	3243.759383	8073.061033
51.036500	-0.043552	-0.031006	0.010485	0.294063	3521.367155	8199.740480	3118.319993	5594.748880
51.536500	-0.002637	-0.011990	-0.017033	0.040604	3999.650704	12677.391611	3206.774325	7638.818684
52.037000	0.001352	-0.004529	0.014783	-0.039627	4207.568832	14827.216687	3270.959859	8576.906978
52.534500	0.010135	-0.006476	0.028599	-0.007806	4146.632252	13947.642649	3259.497554	8183.995201
53.038000	0.000787	-0.008530	0.024282	0.055035	3975.333643	12437.701095	3220.699921	7487.708081
53.535000	0.008061	-0.003285	0.040454	0.021156	4069.486340	13320.886529	3249.038502	7850.557940
54.035000	0.036068	0.009169	0.050874	0.012210	4161.975355	13838.692117	3260.909755	7951.189791
54.535500	0.056512	0.017996	0.083262	0.047536	4123.776544	13201.211762	3259.074181	7565.605474
55.036000	0.083970	0.032354	0.110058	0.093274	4078.614254	12494.926671	3247.535103	7110.772726
55.536000	0.114933	0.044340	0.135526	0.121861	4084.378096	12141.433055	3245.683005	6849.887049
56.036500	0.140769	0.059920	0.164088	0.165667	4041.564339	11570.552977	3236.819997	6481.989601
56.536500	0.164644	0.070690	0.194328	0.209930	3995.085116	10939.567200	3228.936262	6146.092587
57.036000	0.182519	0.082208	0.209695	0.250891	3945.024324	10423.680645	3215.188123	5864.324036
57.537500	0.199672	0.096414	0.202795	0.282224	3915.568784	10139.279536	3196.102270	5666.026493
58.035000	0.207064	0.097720	0.220877	0.320097	3855.417057	9568.353370	3186.863141	5444.676117
58.538000	0.226858	0.108889	0.234441	0.348989	3838.264270	9308.455959	3179.991370	5288.327511
59.036000	0.240327	0.115336	0.272308	0.378057	3809.678961	8991.778745	3183.906073	5141.178434
59.535500	0.251595	0.120382	0.274251	0.387095	3813.703181	8937.592119	3180.743370	5097.399810
60.041500	0.249035	0.126141	0.288949	0.399750	3786.656648	8845.140954	3181.648866	5037.608065
60.536000	0.260713	0.130044	0.283189	0.400246	3806.440583	8890.638907	3178.889172	5035.299408
61.036500	0.259163	0.131926	0.269029	0.406134	3793.225008	8837.184690	3170.309485	5008.102610
61.536500	0.277442	0.144890	0.277803	0.398608	3840.066987	9115.851572	3177.254966	5042.934351
62.034000	0.284188	0.142331	0.316255	0.398597	3852.799002	9080.473620	3194.715770	5042.985279
62.537500	0.281940	0.140842	0.293179	0.400761	3844.460881	9030.114347	3183.084271	5032.906072
63.075000	0.283449	0.143100	0.307824	0.409818	3830.396567	8937.529130	3185.601664	4991.271415
63.534500	0.289347	0.143340	0.309815	0.405517	3849.461362	8999.225826	3188.475038	5010.937317
64.036000	0.284731	0.143993	0.296471	0.405826	3840.198661	9003.907042	3182.292076	5009.516007
64.536000	0.291295	0.146481	0.322300	0.409727	3845.193608	8984.625275	3192.317461	4991.683549
65.036000	0.285851	0.142938	0.302401	0.415379	3824.581785	8860.704573	3180.683862	4966.131049
65.536500	0.286057	0.145747	0.305868	0.414312	3826.918558	8912.627376	3182.698769	4970.929781
66.037000	0.287451	0.147011	0.296764	0.417684	3823.289112	8884.319269	3177.204925	4955.805391
66.537500	0.294581	0.148920	0.292364	0.421035	3830.240239	8865.052151	3173.871065	4940.893823
67.037500	0.297411	0.150771	0.312824	0.432274	3814.856670	8741.104825	3177.844227	4891.704930
67.534500	0.291581	0.143333	0.301888	0.423901	3819.476361	8753.327477	3176.731065	4928.227292
68.035500	0.295401	0.149875	0.320670	0.430811	3813.867217	8748.512171	3181.942258	4898.035396
68.535000	0.291200	0.147725	0.287212	0.433046	3802.309098	8691.472321	3166.696280	4888.374792
69.038500	0.293773	0.148203	0.323888	0.434181	3804.874285	8682.958954	3181.874487	4883.482690
69.535500	0.291648	0.146470	0.309834	0.434644	3800.259586	8654.642643	3175.524207	4881.493065
70.036000	0.295765	0.153899	0.316214	0.445039	3789.177072	8616.631927	3173.805102	4837.359550
70.536500	0.290463	0.149462	0.299794	0.438469	3791.404208	8643.949189	3169.654553	4865.132814
71.037000	0.289160	0.149663	0.332659	0.448136	3772.364809	8523.751743	3179.582714	4824.415857
71.539500	0.297242	0.150294	0.295249	0.443125	3795.144180	8595.073154	3165.860879	4845.406781
72.035000	0.296615	0.152025	0.312516	0.448485	3784.642908	8549.094693	3170.785446	4822.961399
72.534000	0.301977	0.153565	0.312917	0.446428	3797.677796	8594.668635	3171.818668	4831.541928
73.035500	0.299539	0.149297	0.289801	0.446041	3794.051117	8545.512959	3162.481867	4833.162672
73.536000	0.292357	0.149846	0.302120	0.445753	3781.988686	8556.072032	3167.600347	4834.368424
74.035500	0.294191	0.155099	0.307832	0.452702	3773.161569	8534.689700	3167.091250	4805.495533
74.535000	0.298053	0.151561	0.312658	0.447977	3788.039393	8549.654487	3171.058026	4825.077871
75.036500	0.295415	0.150160	0.310907	0.453528	3773.844691	8462.624382	3168.017712	4802.095580
75.536500	0.288413	0.151606	0.304210	0.450365	3767.279938	8520.152761	3166.564199	4815.152708
76.036000	0.298441	0.154113	0.306934	0.453735	3778.699565	8509.334172	3166.299726	4801.241410
76.534500	0.296902	0.149217	0.306493	0.450539	3781.570394	8488.085398	3167.430103	4814.432548
77.035000	0.303679	0.152634	0.288811	0.459540	3777.722019	8418.860725	3156.780288	4777.534597
77.535000	0.293000	0.149073	0.322954	0.452376	3771.677735	8463.421610	3173.550700	4806.839054
78.035500	0.298830	0.151942	0.330348	0.455436	3776.436460	8461.051549	3175.404898	4794.262104
78.539000	0.298363	0.152205	0.330298	0.458113	3771.039625	8431.165775	3174.236359	4783.332637
79.036000	0.300024	0.152613	0.327657	0.465441	3761.405965	8346.398998	3170.025853	4753.751920
79.536000	0.294634	0.151533	0.328201	0.458408	3764.185931	8419.238163	3173.216891	4782.130978
80.037000	0.298001	0.151300	0.326570	0.459952	3767.283001	8397.387628	3171.872839	4775.860910
80.536500	0.303757	0.148757	0.306185	0.459185	3778.467839	8375.646114	3163.783022	4778.971969
81.037500	0.295178	0.149238	0.314007	0.465758	3752.739821	8301.728322	3164.287230	4752.482668
81.537500	0.295033	0.148545	0.323075	0.462036	3758.733412	8338.360372	3169.535468	4767.435899
82.035000	0.303095	0.156616	0.329730	0.470890	3757.403534	8328.867513	3168.622002	4732.079880
82.535000	0.302561	0.148474	0.328130	0.465297	3765.948133	8298.075031	3170.283785	4754.328836
83.038500	0.295298	0.148528	0.315974	0.465037	3754.145195	8301.857980	3165.377482	4755.370709
83.536000	0.301706	0.151219	0.323114	0.469910	3756.716263	8275.632932	3166.301913	4735.956192
84.036000	0.299939	0.149217	0.329007	0.468716	3755.755911	8265.956727	3169.224191	4740.693708
84.536000	0.307316	0.151991	0.308095	0.471569	3763.374299	8265.006989	3159.611127	4729.396718
85.037500	0.306341	0.150119	0.326074	0.471946	3761.089849	8238.170895	3166.680358	4727.909412
85.537000	0.301768	0.151759	0.319765	0.474048	3749.909359	8232.684229	3163.266626	4719.643195
86.034500	0.309275	0.153720	0.320903	0.476681	3758.055676	8224.697404	3162.666623	4709.340671
86.535000	0.308695	0.150323	0.306244	0.473951	3761.679687	8216.784646	3157.953699	4720.023625
87.035500	0.307317	0.154693	0.295491	0.481194	3747.261313	8182.843881	3151.083959	4691.832271
87.538000	0.308146	0.146175	0.323439	0.471866	3764.277090	8192.387846	3165.636084	4728.224327
88.035500	0.310741	0.149972	0.313048	0.477811	3758.621650	8167.112078	3159.104732	4704.939906
88.535500	0.304025	0.148467	0.341759	0.474083	3753.611534	8193.271830	3172.319950	4719.504855
89.036000	0.304466	0.150955	0.344983	0.482346	3740.661233	8125.582544	3170.201744	4687.389002
89.536500	0.300918	0.148127	0.315176	0.476117	3745.073457	8165.336492	3160.611075	4711.542180
90.037000	0.310483	0.150972	0.304584	0.482562	3750.243607	8123.270876	3153.998044	4686.559318
90.537000	0.307488	0.150170	0.335175	0.477726	3753.312267	8170.435814	3168.046786	4705.271364
91.037500	0.310486	0.150546	0.344953	0.485036	3746.146757	8089.634507	3169.068665	4677.067766
91.534500	0.309607	0.152186	0.319171	0.480727	3751.840538	8158.875001	3160.367638	4693.633590
92.035500	0.305841	0.150831	0.293550	0.482153	3743.240058	8126.400042	3150.003107	4688.134641
92.537500	0.307335	0.149507	0.304613	0.479004	3750.925691	8147.687854	3155.368622	4700.304268
93.044000	0.313729	0.150511	0.331789	0.482995	3754.936965	8112.888648	3164.508117	4684.894986
93.536000	0.311315	0.149077	0.318032	0.481197	3753.906849	8117.107501	3159.733001	4691.819096
94.036000	0.311118	0.150029	0.327600	0.484757	3747.654604	8086.878109	3162.115300	4678.133284
94.537000	0.318457	0.154152	0.343259	0.487362	3755.541083	8104.451545	3167.407037	4668.191905
95.037000	0.305964	0.148550	0.307463	0.480570	3746.054215	8118.270046	3155.862244	4694.242180
95.537500	0.316475	0.149416	0.348164	0.484315	3757.328384	8084.919544	3170.709189	4679.828807
96.035000	0.313626	0.151685	0.331532	0.486950	3748.176160	8080.681886	3162.810874	4669.757902
