sample name	sample
index	1218
start time	 04-29-2021  10:09:50 AM


Wavelength (nm)	Absorbance
494.344910	0.049082
494.563924	0.049082
494.782919	0.049082
495.001897	0.024022
495.220856	0.013039
495.439797	0.010999
495.658719	-0.011654
495.877624	-0.003191
496.096510	0.004519
496.315378	-0.000382
496.534227	0.020211
496.753059	-0.007484
496.971872	0.016433
497.190667	0.077720
497.409444	0.085596
497.628203	0.094797
497.846943	0.092452
498.065665	0.092457
498.284369	0.095933
498.503055	0.095754
498.721723	0.096803
498.940372	0.096400
499.159003	0.095804
499.377616	0.096917
499.596210	0.095986
499.814787	0.097276
500.033345	0.099038
500.251885	0.098046
500.470406	0.097877
500.688910	0.097421
500.907395	0.097992
501.125862	0.097290
501.344311	0.097030
501.562742	0.098094
501.781154	0.098311
501.999548	0.097215
502.217924	0.098182
502.436282	0.098739
502.654621	0.099773
502.872942	0.100137
503.091245	0.101465
503.309530	0.101397
503.527797	0.100463
503.746045	0.100636
503.964275	0.100730
504.182487	0.100503
504.400681	0.098692
504.618856	0.098069
504.837013	0.097510
505.055152	0.097483
505.273273	0.097766
505.491376	0.098579
505.709460	0.098023
505.927526	0.099027
506.145574	0.097890
506.363604	0.098950
506.581615	0.099210
506.799608	0.098643
507.017583	0.098164
507.235540	0.098350
507.453478	0.098228
507.671399	0.098849
507.889301	0.097968
508.107185	0.098548
508.325050	0.098602
508.542898	0.098396
508.760727	0.099343
508.978538	0.100284
509.196330	0.100802
509.414105	0.100438
509.631861	0.099788
509.849599	0.100322
510.067319	0.100680
510.285021	0.101381
510.502704	0.101935
510.720369	0.102331
510.938016	0.102242
511.155645	0.102016
511.373255	0.102686
511.590848	0.103794
511.808422	0.103549
512.025977	0.104319
512.243515	0.104330
512.461034	0.104258
512.678536	0.104849
512.896018	0.105872
513.113483	0.105423
513.330930	0.105072
513.548358	0.104961
513.765768	0.104439
513.983160	0.104364
514.200533	0.105244
514.417889	0.105888
514.635226	0.105691
514.852545	0.105632
515.069845	0.107526
515.287128	0.107910
515.504392	0.108674
515.721638	0.109578
515.938866	0.109009
516.156075	0.108119
516.373267	0.108323
516.590440	0.107971
516.807594	0.107603
517.024731	0.106553
517.241850	0.107655
517.458950	0.107236
517.676032	0.107967
517.893095	0.108561
518.110141	0.109488
518.327168	0.109002
518.544177	0.110117
518.761168	0.110536
518.978141	0.110866
519.195095	0.110040
519.412031	0.110407
519.628949	0.109592
519.845849	0.109741
520.062731	0.109542
520.279594	0.109813
520.496439	0.109482
520.713266	0.109610
520.930074	0.109566
521.146865	0.110417
521.363637	0.109865
521.580391	0.110336
521.797127	0.111034
522.013844	0.111245
522.230543	0.111982
522.447224	0.112248
522.663887	0.112210
522.880532	0.112695
523.097158	0.112756
523.313766	0.113416
523.530356	0.113808
523.746928	0.113907
523.963481	0.114507
524.180017	0.114684
524.396534	0.115181
524.613032	0.115556
524.829513	0.115840
525.045975	0.116390
525.262420	0.116560
525.478845	0.117268
525.695253	0.117058
525.911643	0.117312
526.128014	0.117021
526.344367	0.116438
526.560702	0.116955
526.777018	0.117380
526.993316	0.117378
527.209597	0.117781
527.425858	0.118213
527.642102	0.118796
527.858328	0.119196
528.074535	0.119879
528.290724	0.121043
528.506894	0.120894
528.723047	0.120971
528.939181	0.121176
529.155297	0.121642
529.371395	0.121765
529.587475	0.122470
529.803536	0.122353
530.019579	0.122518
530.235604	0.122226
530.451611	0.122546
530.667600	0.122665
530.883570	0.123311
531.099522	0.123559
531.315456	0.123859
531.531372	0.123976
531.747269	0.124514
531.963148	0.125247
532.179009	0.125802
532.394852	0.126541
532.610676	0.126513
532.826482	0.126358
533.042271	0.126261
533.258040	0.126455
533.473792	0.126689
533.689525	0.126451
533.905240	0.126368
534.120937	0.126755
534.336616	0.127563
534.552277	0.128320
534.767919	0.128548
534.983543	0.129083
535.199149	0.129354
535.414736	0.129023
535.630306	0.129496
535.845857	0.129718
536.061390	0.129458
536.276904	0.129280
536.492401	0.129313
536.707879	0.129868
536.923339	0.130324
537.138781	0.130396
537.354204	0.131245
537.569610	0.132042
537.784997	0.132464
538.000366	0.133217
538.215716	0.133045
538.431049	0.133480
538.646363	0.134259
538.861659	0.134618
539.076937	0.134989
539.292196	0.135289
539.507438	0.135162
539.722661	0.134852
539.937866	0.135042
540.153052	0.136219
540.368221	0.136873
540.583371	0.136289
540.798503	0.136761
541.013617	0.136654
541.228712	0.136844
541.443789	0.137255
541.658848	0.138318
541.873889	0.138759
542.088912	0.138321
542.303916	0.138505
542.518902	0.138655
542.733870	0.138346
542.948820	0.138895
543.163752	0.138928
543.378665	0.138893
543.593560	0.139358
543.808437	0.139488
544.023295	0.139913
544.238136	0.139721
544.452958	0.139668
544.667762	0.140205
544.882548	0.140692
545.097315	0.141182
545.312064	0.141526
545.526795	0.141416
545.741508	0.142017
545.956203	0.142566
546.170879	0.143186
546.385537	0.144127
546.600177	0.144105
546.814799	0.144601
547.029402	0.145073
547.243988	0.145053
547.458555	0.144939
547.673103	0.145057
547.887634	0.144857
548.102146	0.144995
548.316640	0.144799
548.531116	0.145101
548.745574	0.144985
548.960013	0.144669
549.174435	0.145151
549.388838	0.145767
549.603222	0.145506
549.817589	0.145385
550.031937	0.145581
550.246267	0.146303
550.460579	0.146034
550.674873	0.146285
550.889148	0.146985
551.103405	0.147225
551.317644	0.147422
551.531865	0.147862
551.746068	0.148703
551.960252	0.148690
552.174418	0.149064
552.388566	0.150205
552.602696	0.150562
552.816807	0.150738
553.030900	0.150743
553.244975	0.150748
553.459032	0.151177
553.673070	0.150706
553.887091	0.151099
554.101093	0.151209
554.315077	0.151233
554.529042	0.151467
554.742990	0.151217
554.956919	0.151811
555.170830	0.151751
555.384722	0.152062
555.598597	0.152228
555.812453	0.152531
556.026291	0.152503
556.240111	0.152110
556.453913	0.151757
556.667696	0.152358
556.881461	0.152563
557.095208	0.153446
557.308937	0.153543
557.522647	0.153948
557.736339	0.154269
557.950013	0.154627
558.163669	0.155036
558.377307	0.155454
558.590926	0.155699
558.804527	0.155659
559.018110	0.155127
559.231675	0.155334
559.445221	0.156038
559.658749	0.155748
559.872259	0.155542
560.085751	0.156115
560.299225	0.156160
560.512680	0.156375
560.726117	0.156272
560.939536	0.156898
561.152937	0.156797
561.366319	0.156609
561.579683	0.156582
561.793029	0.156811
562.006357	0.156446
562.219667	0.156303
562.432958	0.156338
562.646231	0.156504
562.859486	0.156748
563.072723	0.156957
563.285941	0.157048
563.499141	0.157316
563.712323	0.157420
563.925487	0.158229
564.138632	0.158822
564.351760	0.158832
564.564869	0.159192
564.777960	0.158924
564.991032	0.159155
565.204087	0.159357
565.417123	0.159964
565.630141	0.160152
565.843140	0.160034
566.056122	0.159992
566.269085	0.160154
566.482030	0.160266
566.694957	0.160742
566.907866	0.160906
567.120756	0.161217
567.333628	0.161278
567.546482	0.161439
567.759318	0.161369
567.972135	0.161479
568.184935	0.161477
568.397716	0.161537
568.610478	0.161377
568.823223	0.161342
569.035949	0.160930
569.248657	0.160857
569.461347	0.161145
569.674019	0.160847
569.886672	0.160824
570.099308	0.160844
570.311925	0.160935
570.524523	0.160993
570.737104	0.161222
570.949666	0.161493
571.162210	0.161601
571.374736	0.161566
571.587244	0.162142
571.799733	0.162572
572.012205	0.162793
572.224658	0.162999
572.437092	0.163249
572.649509	0.163184
572.861907	0.163453
573.074287	0.163771
573.286649	0.163855
573.498993	0.163703
573.711318	0.163423
573.923625	0.163417
574.135914	0.163606
574.348185	0.163640
574.560438	0.163258
574.772672	0.163149
574.984888	0.162629
575.197086	0.162507
575.409266	0.162484
575.621427	0.162612
575.833570	0.162438
576.045695	0.162511
576.257802	0.162633
576.469890	0.163087
576.681961	0.163224
576.894013	0.163627
577.106046	0.164242
577.318062	0.164398
577.530059	0.164438
577.742039	0.164763
577.954000	0.164848
578.165942	0.164881
578.377867	0.165045
578.589773	0.165307
578.801661	0.165780
579.013531	0.165612
579.225382	0.166377
579.437216	0.167006
579.649031	0.166973
579.860828	0.166821
580.072606	0.166859
580.284367	0.167039
580.496109	0.167014
580.707833	0.166936
580.919539	0.166839
581.131227	0.166509
581.342896	0.166547
581.554547	0.166904
581.766180	0.167250
581.977795	0.167485
582.189391	0.168076
582.400969	0.168450
582.612529	0.168646
582.824071	0.168978
583.035595	0.169257
583.247100	0.169137
583.458587	0.169477
583.670056	0.169667
583.881506	0.170009
584.092939	0.169958
584.304353	0.169978
584.515749	0.170023
584.727127	0.170062
584.938486	0.170260
585.149828	0.170593
585.361151	0.170875
585.572456	0.171124
585.783742	0.171187
585.995011	0.171044
586.206261	0.171237
586.417493	0.171412
586.628706	0.171409
586.839902	0.171407
587.051079	0.171745
587.262238	0.171508
587.473379	0.171244
587.684502	0.171443
587.895606	0.171683
588.106692	0.172069
588.317760	0.172346
588.528810	0.172899
588.739841	0.173094
588.950855	0.173395
589.161850	0.173663
589.372827	0.173791
589.583785	0.174065
589.794726	0.174225
590.005648	0.174122
590.216552	0.173895
590.427437	0.173765
590.638305	0.174197
590.849154	0.173640
591.059985	0.173946
591.270798	0.174679
591.481592	0.174643
591.692369	0.174818
591.903127	0.174825
592.113867	0.175173
592.324588	0.175475
592.535292	0.175343
592.745977	0.176063
592.956644	0.175683
593.167293	0.175496
593.377923	0.175484
593.588536	0.175769
593.799130	0.175744
594.009706	0.175894
594.220263	0.175845
594.430803	0.175969
594.641324	0.175789
594.851827	0.176309
595.062312	0.176488
595.272778	0.176787
595.483227	0.176613
595.693657	0.176885
595.904069	0.176840
596.114462	0.177038
596.324838	0.177283
596.535195	0.177705
596.745534	0.178420
596.955855	0.178461
597.166157	0.178733
597.376441	0.179123
597.586707	0.179402
597.796955	0.179719
598.007185	0.179914
598.217396	0.179718
598.427589	0.179888
598.637764	0.179856
598.847921	0.180025
599.058060	0.179912
599.268180	0.180179
599.478282	0.180612
599.688366	0.181036
599.898431	0.180900
600.108479	0.181038
600.318508	0.181321
600.528519	0.180898
600.738511	0.181124
600.948486	0.181421
601.158442	0.181484
601.368380	0.181248
601.578300	0.181116
601.788202	0.181810
601.998085	0.182245
602.207950	0.181893
602.417797	0.182260
602.627626	0.182477
602.837436	0.182497
603.047228	0.182443
603.257002	0.182746
603.466758	0.182541
603.676496	0.182205
603.886215	0.182332
604.095916	0.182633
604.305599	0.182700
604.515264	0.182587
604.724910	0.182601
604.934538	0.182865
605.144148	0.183006
605.353740	0.183423
605.563314	0.183813
605.772869	0.183834
605.982406	0.183839
606.191925	0.183995
606.401425	0.184071
606.610908	0.184420
606.820372	0.184289
607.029818	0.184040
607.239246	0.184205
607.448655	0.183949
607.658047	0.184252
607.867420	0.184301
608.076775	0.184513
608.286111	0.184971
608.495430	0.185173
608.704730	0.185484
608.914012	0.185781
609.123275	0.185565
609.332521	0.185982
609.541748	0.185923
609.750957	0.186413
609.960148	0.186630
610.169321	0.186803
610.378475	0.186773
610.587611	0.187010
610.796729	0.187318
611.005829	0.187641
611.214910	0.187683
611.423974	0.187769
611.633019	0.187465
611.842045	0.187356
612.051054	0.187088
612.260044	0.187305
612.469017	0.187221
612.677970	0.187036
612.886906	0.187234
613.095824	0.187524
613.304723	0.187699
613.513604	0.187844
613.722467	0.187962
613.931311	0.188420
614.140138	0.188536
614.348946	0.188775
614.557736	0.189157
614.766507	0.189334
614.975261	0.189543
615.183996	0.189384
615.392713	0.189743
615.601412	0.190071
615.810092	0.189851
616.018754	0.189774
616.227399	0.189680
616.436024	0.189773
616.644632	0.189795
616.853222	0.189604
617.061793	0.190040
617.270346	0.190079
617.478880	0.190039
617.687397	0.190396
617.895895	0.190638
618.104375	0.190616
618.312837	0.190557
618.521281	0.190640
618.729706	0.190733
618.938113	0.190594
619.146502	0.190924
619.354873	0.190785
619.563226	0.190545
619.771560	0.190611
619.979876	0.190814
620.188174	0.190717
620.396453	0.190782
620.604715	0.190906
620.812958	0.191332
621.021183	0.191376
621.229390	0.191786
621.437578	0.192158
621.645748	0.192397
621.853900	0.192709
622.062034	0.193118
622.270150	0.193488
622.478247	0.193676
622.686326	0.193592
622.894387	0.193688
623.102430	0.193882
623.310454	0.193892
623.518461	0.194121
623.726449	0.194240
623.934418	0.194502
624.142370	0.194392
624.350303	0.194508
624.558218	0.194582
624.766115	0.194554
624.973994	0.194457
625.181855	0.194651
625.389697	0.194847
625.597521	0.195218
625.805327	0.195462
626.013114	0.195635
626.220883	0.195995
626.428634	0.196422
626.636367	0.196588
626.844082	0.196970
627.051778	0.197202
627.259457	0.197320
627.467117	0.197498
627.674758	0.197433
627.882382	0.197803
628.089987	0.197782
628.297574	0.197984
628.505143	0.197869
628.712694	0.197985
628.920226	0.198241
629.127740	0.198405
629.335236	0.198196
629.542714	0.198398
629.750174	0.198333
629.957615	0.198384
630.165038	0.198040
630.372443	0.198366
630.579829	0.198455
630.787198	0.198415
630.994548	0.198204
631.201880	0.198518
631.409194	0.198567
631.616489	0.198776
631.823766	0.198973
632.031025	0.199465
632.238266	0.199719
632.445489	0.199881
632.652693	0.200197
632.859879	0.200360
633.067047	0.200423
633.274197	0.200506
633.481329	0.200814
633.688442	0.200957
633.895537	0.201121
634.102614	0.201214
634.309672	0.200998
634.516713	0.200820
634.723735	0.201040
634.930739	0.200934
635.137724	0.200977
635.344692	0.200921
635.551641	0.201013
635.758572	0.200789
635.965485	0.201021
636.172379	0.201173
636.379256	0.201274
636.586114	0.201527
636.792954	0.201785
636.999775	0.201936
637.206579	0.202132
637.413364	0.202303
637.620131	0.202826
637.826880	0.202831
638.033610	0.203185
638.240323	0.203311
638.447017	0.203242
638.653692	0.203521
638.860350	0.203908
639.066990	0.203937
639.273611	0.203983
639.480214	0.203963
639.686798	0.204254
639.893365	0.204506
640.099913	0.204736
640.306443	0.204881
640.512955	0.205114
640.719449	0.205159
640.925924	0.205316
641.132381	0.205434
641.338820	0.205663
641.545241	0.205899
641.751644	0.206026
641.958028	0.206273
642.164394	0.206382
642.370742	0.206511
642.577071	0.206804
642.783383	0.206863
642.989676	0.207320
643.195951	0.207304
643.402207	0.207401
643.608446	0.207304
643.814666	0.207541
644.020868	0.207787
644.227052	0.207815
644.433218	0.207741
644.639365	0.208105
644.845494	0.208016
645.051605	0.208281
645.257698	0.208105
645.463772	0.208207
645.669828	0.208175
645.875866	0.208281
646.081886	0.208320
646.287888	0.208403
646.493871	0.208391
646.699836	0.208839
646.905783	0.208881
647.111712	0.209012
647.317622	0.209249
647.523514	0.209343
647.729388	0.209666
647.935244	0.209845
648.141082	0.209907
648.346901	0.210056
648.552702	0.209979
648.758485	0.210174
648.964250	0.210366
649.169996	0.210589
649.375724	0.210677
649.581434	0.210526
649.787126	0.210545
649.992800	0.211060
650.198455	0.211283
650.404092	0.211379
650.609711	0.211608
650.815311	0.211746
651.020894	0.212076
651.226458	0.212443
651.432004	0.212771
651.637532	0.213087
651.843041	0.213067
652.048532	0.213129
652.254006	0.213230
652.459460	0.213317
652.664897	0.213568
652.870315	0.213696
653.075716	0.214092
653.281097	0.214086
653.486461	0.214346
653.691807	0.214696
653.897134	0.214915
654.102443	0.215268
654.307734	0.215520
654.513006	0.215761
654.718261	0.216176
654.923497	0.216273
655.128715	0.216724
655.333915	0.216870
655.539096	0.216849
655.744259	0.217233
655.949404	0.217459
656.154531	0.217660
656.359640	0.217699
656.564730	0.217521
656.769802	0.217553
656.974856	0.217806
657.179892	0.218004
657.384909	0.218310
657.589908	0.218314
657.794889	0.218447
657.999852	0.218447
658.204797	0.218887
658.409723	0.219132
658.614631	0.219498
658.819521	0.219558
659.024393	0.219735
659.229246	0.219795
659.434081	0.220057
659.638898	0.220225
659.843697	0.220559
660.048478	0.220712
660.253240	0.220682
660.457984	0.220634
660.662710	0.220967
660.867417	0.221145
661.072107	0.221287
661.276778	0.221293
661.481431	0.221245
661.686066	0.221498
661.890682	0.221467
662.095281	0.221642
662.299861	0.221946
662.504422	0.221863
662.708966	0.221994
662.913491	0.222262
663.117999	0.222276
663.322488	0.222770
663.526958	0.222905
663.731411	0.223376
663.935845	0.223568
664.140261	0.223609
664.344659	0.223939
664.549038	0.224090
664.753400	0.224242
664.957743	0.224921
665.162068	0.225002
665.366375	0.225210
665.570663	0.225080
665.774933	0.225489
665.979185	0.225780
666.183419	0.225820
666.387635	0.226160
666.591832	0.226315
666.796011	0.226392
667.000172	0.226513
667.204315	0.226566
667.408439	0.226869
667.612545	0.227172
667.816634	0.227256
668.020703	0.227537
668.224755	0.227648
668.428788	0.227892
668.632803	0.228132
668.836800	0.228301
669.040779	0.228661
669.244739	0.229038
669.448681	0.229242
669.652605	0.229434
669.856511	0.229595
670.060399	0.229987
670.264268	0.230173
670.468119	0.230316
670.671952	0.230586
670.875767	0.230455
671.079563	0.230524
671.283341	0.230391
671.487101	0.230720
671.690843	0.230711
671.894567	0.230846
672.098272	0.231072
672.301959	0.231178
672.505628	0.231225
672.709278	0.231727
672.912911	0.231608
673.116525	0.231821
673.320121	0.232105
673.523699	0.232493
673.727258	0.232558
673.930799	0.232632
674.134322	0.232829
674.337827	0.233027
674.541314	0.233365
674.744782	0.233858
674.948232	0.233980
675.151664	0.234044
675.355078	0.234262
675.558474	0.234417
675.761851	0.234692
675.965210	0.234960
676.168551	0.235134
676.371873	0.235108
676.575178	0.235342
676.778464	0.235474
676.981732	0.235658
677.184981	0.235813
677.388213	0.236077
677.591426	0.236235
677.794621	0.236510
677.997798	0.236946
678.200956	0.237149
678.404097	0.237308
678.607219	0.237847
678.810323	0.238136
679.013408	0.238576
679.216476	0.239000
679.419525	0.239299
679.622556	0.239326
679.825569	0.239265
680.028563	0.239221
680.231540	0.239404
680.434498	0.239406
680.637438	0.239501
680.840359	0.239280
681.043263	0.239026
681.246148	0.239093
681.449015	0.239106
681.651864	0.239487
681.854694	0.239721
682.057506	0.239769
682.260301	0.239989
682.463076	0.239976
682.665834	0.240202
682.868573	0.240608
683.071295	0.240716
683.273998	0.241110
683.476682	0.241383
683.679349	0.241767
683.881997	0.241903
684.084627	0.241984
684.287239	0.242228
684.489833	0.242312
684.692408	0.242289
684.894965	0.242556
685.097504	0.242689
685.300025	0.242759
685.502527	0.242814
685.705012	0.243151
685.907478	0.243518
686.109925	0.243669
686.312355	0.243756
686.514766	0.243950
686.717159	0.244106
686.919534	0.244282
687.121891	0.244429
687.324230	0.244507
687.526550	0.244554
687.728852	0.244406
687.931136	0.244351
688.133401	0.244829
688.335649	0.244917
688.537878	0.244985
688.740089	0.245042
688.942281	0.245223
689.144456	0.245509
689.346612	0.245695
689.548750	0.245928
689.750870	0.246208
689.952971	0.246114
690.155055	0.246487
690.357120	0.246431
690.559167	0.246496
690.761195	0.246401
690.963206	0.246512
691.165198	0.246669
691.367172	0.246888
691.569128	0.247089
691.771065	0.247428
691.972984	0.247355
692.174885	0.247823
692.376768	0.247935
692.578633	0.248157
692.780479	0.248132
692.982308	0.248222
693.184118	0.248152
693.385909	0.248466
