sample name	sample
index	1082
start time	 04-22-2021  11:20:50 AM


Wavelength (nm)	Absorbance
494.344910	0.010326
494.563924	0.010326
494.782919	0.010326
495.001897	-0.290255
495.220856	-0.012176
495.439797	0.026204
495.658719	0.023984
495.877624	0.004033
496.096510	-0.000278
496.315378	0.059294
496.534227	-0.059741
496.753059	-0.080559
496.971872	-0.084051
497.190667	0.064775
497.409444	0.079449
497.628203	0.085547
497.846943	0.088711
498.065665	0.091323
498.284369	0.092768
498.503055	0.094214
498.721723	0.094373
498.940372	0.094473
499.159003	0.095016
499.377616	0.095234
499.596210	0.096022
499.814787	0.096335
500.033345	0.095319
500.251885	0.094934
500.470406	0.095101
500.688910	0.094855
500.907395	0.094054
501.125862	0.094199
501.344311	0.093991
501.562742	0.094195
501.781154	0.093732
501.999548	0.096323
502.217924	0.096671
502.436282	0.096661
502.654621	0.097678
502.872942	0.097744
503.091245	0.097382
503.309530	0.097700
503.527797	0.097017
503.746045	0.096732
503.964275	0.095043
504.182487	0.095008
504.400681	0.095629
504.618856	0.094985
504.837013	0.095375
505.055152	0.096303
505.273273	0.096935
505.491376	0.096912
505.709460	0.097392
505.927526	0.097369
506.145574	0.096889
506.363604	0.096132
506.581615	0.096460
506.799608	0.097373
507.017583	0.097428
507.235540	0.096532
507.453478	0.097306
507.671399	0.097944
507.889301	0.097786
508.107185	0.098269
508.325050	0.098685
508.542898	0.098572
508.760727	0.099246
508.978538	0.098602
509.196330	0.098475
509.414105	0.097631
509.631861	0.097312
509.849599	0.098165
510.067319	0.099626
510.285021	0.099278
510.502704	0.099426
510.720369	0.098350
510.938016	0.098580
511.155645	0.099365
511.373255	0.099681
511.590848	0.099367
511.808422	0.099306
512.025977	0.098472
512.243515	0.098558
512.461034	0.099030
512.678536	0.099520
512.896018	0.099090
513.113483	0.098686
513.330930	0.099409
513.548358	0.099950
513.765768	0.099131
513.983160	0.098653
514.200533	0.098658
514.417889	0.097874
514.635226	0.097413
514.852545	0.098944
515.069845	0.099462
515.287128	0.099377
515.504392	0.099507
515.721638	0.100116
515.938866	0.099362
516.156075	0.099464
516.373267	0.099951
516.590440	0.100304
516.807594	0.100025
517.024731	0.099919
517.241850	0.099539
517.458950	0.099753
517.676032	0.099214
517.893095	0.100045
518.110141	0.100676
518.327168	0.101057
518.544177	0.101131
518.761168	0.100424
518.978141	0.101108
519.195095	0.101221
519.412031	0.100714
519.628949	0.101564
519.845849	0.102691
520.062731	0.102500
520.279594	0.103257
520.496439	0.103058
520.713266	0.102824
520.930074	0.102451
521.146865	0.103053
521.363637	0.103573
521.580391	0.103658
521.797127	0.103993
522.013844	0.103751
522.230543	0.102776
522.447224	0.102282
522.663887	0.102663
522.880532	0.102627
523.097158	0.102118
523.313766	0.101649
523.530356	0.101464
523.746928	0.100676
523.963481	0.101647
524.180017	0.101899
524.396534	0.102585
524.613032	0.103314
524.829513	0.103852
525.045975	0.104051
525.262420	0.104821
525.478845	0.105300
525.695253	0.104793
525.911643	0.104335
526.128014	0.104439
526.344367	0.104897
526.560702	0.104235
526.777018	0.104031
526.993316	0.103998
527.209597	0.103403
527.425858	0.103433
527.642102	0.104331
527.858328	0.104528
528.074535	0.104767
528.290724	0.104912
528.506894	0.105935
528.723047	0.106730
528.939181	0.106730
529.155297	0.107326
529.371395	0.107689
529.587475	0.107666
529.803536	0.108389
530.019579	0.108625
530.235604	0.108857
530.451611	0.108653
530.667600	0.107784
530.883570	0.108144
531.099522	0.108595
531.315456	0.108625
531.531372	0.108263
531.747269	0.108518
531.963148	0.107987
532.179009	0.107551
532.394852	0.107641
532.610676	0.108115
532.826482	0.108120
533.042271	0.107263
533.258040	0.106870
533.473792	0.107699
533.689525	0.107202
533.905240	0.107782
534.120937	0.108030
534.336616	0.107813
534.552277	0.107979
534.767919	0.108413
534.983543	0.109441
535.199149	0.109846
535.414736	0.110009
535.630306	0.110649
535.845857	0.110354
536.061390	0.110702
536.276904	0.110985
536.492401	0.111001
536.707879	0.111063
536.923339	0.110813
537.138781	0.111155
537.354204	0.111385
537.569610	0.110935
537.784997	0.111441
538.000366	0.111516
538.215716	0.111835
538.431049	0.111839
538.646363	0.111318
538.861659	0.111828
539.076937	0.111816
539.292196	0.111570
539.507438	0.112024
539.722661	0.111746
539.937866	0.111476
540.153052	0.111704
540.368221	0.111809
540.583371	0.112693
540.798503	0.112728
541.013617	0.112770
541.228712	0.112721
541.443789	0.112292
541.658848	0.113073
541.873889	0.114119
542.088912	0.114592
542.303916	0.114666
542.518902	0.114297
542.733870	0.114243
542.948820	0.114747
543.163752	0.115183
543.378665	0.115092
543.593560	0.114373
543.808437	0.113783
544.023295	0.113176
544.238136	0.113127
544.452958	0.113283
544.667762	0.113402
544.882548	0.112861
545.097315	0.112834
545.312064	0.113486
545.526795	0.114299
545.741508	0.114283
545.956203	0.114164
546.170879	0.114453
546.385537	0.115054
546.600177	0.114893
546.814799	0.115516
547.029402	0.115296
547.243988	0.115354
547.458555	0.115300
547.673103	0.115402
547.887634	0.116032
548.102146	0.116294
548.316640	0.116240
548.531116	0.116567
548.745574	0.116596
548.960013	0.117004
549.174435	0.116748
549.388838	0.116902
549.603222	0.116852
549.817589	0.116735
550.031937	0.117122
550.246267	0.117123
550.460579	0.117046
550.674873	0.117284
550.889148	0.117122
551.103405	0.117622
551.317644	0.117746
551.531865	0.117847
551.746068	0.118053
551.960252	0.118407
552.174418	0.118403
552.388566	0.118566
552.602696	0.118655
552.816807	0.118964
553.030900	0.118867
553.244975	0.118698
553.459032	0.118803
553.673070	0.119069
553.887091	0.118564
554.101093	0.118826
554.315077	0.119018
554.529042	0.118618
554.742990	0.118532
554.956919	0.118247
555.170830	0.118424
555.384722	0.118844
555.598597	0.118893
555.812453	0.118884
556.026291	0.118788
556.240111	0.118703
556.453913	0.118881
556.667696	0.119371
556.881461	0.119623
557.095208	0.119598
557.308937	0.119690
557.522647	0.119340
557.736339	0.119465
557.950013	0.119321
558.163669	0.119469
558.377307	0.119750
558.590926	0.119164
558.804527	0.119072
559.018110	0.119441
559.231675	0.119180
559.445221	0.119356
559.658749	0.119172
559.872259	0.119482
560.085751	0.119783
560.299225	0.119346
560.512680	0.119239
560.726117	0.119601
560.939536	0.119316
561.152937	0.119346
561.366319	0.119183
561.579683	0.119371
561.793029	0.119056
562.006357	0.118981
562.219667	0.119430
562.432958	0.119788
562.646231	0.119544
562.859486	0.119509
563.072723	0.119810
563.285941	0.120221
563.499141	0.120341
563.712323	0.120699
563.925487	0.120721
564.138632	0.120677
564.351760	0.121031
564.564869	0.121443
564.777960	0.121492
564.991032	0.121657
565.204087	0.121938
565.417123	0.121905
565.630141	0.122009
565.843140	0.122482
566.056122	0.122534
566.269085	0.122380
566.482030	0.122247
566.694957	0.122350
566.907866	0.122687
567.120756	0.122618
567.333628	0.122855
567.546482	0.122845
567.759318	0.122524
567.972135	0.122543
568.184935	0.122532
568.397716	0.122848
568.610478	0.123155
568.823223	0.122886
569.035949	0.122719
569.248657	0.122787
569.461347	0.123045
569.674019	0.123043
569.886672	0.123128
570.099308	0.123476
570.311925	0.123442
570.524523	0.123496
570.737104	0.123910
570.949666	0.124238
571.162210	0.124148
571.374736	0.123786
571.587244	0.123467
571.799733	0.123543
572.012205	0.123317
572.224658	0.123165
572.437092	0.123181
572.649509	0.122694
572.861907	0.122170
573.074287	0.122560
573.286649	0.122811
573.498993	0.123034
573.711318	0.122940
573.923625	0.123098
574.135914	0.123723
574.348185	0.123809
574.560438	0.124472
574.772672	0.124610
574.984888	0.124372
575.197086	0.124238
575.409266	0.124328
575.621427	0.124311
575.833570	0.124076
576.045695	0.123927
576.257802	0.123772
576.469890	0.123505
576.681961	0.123671
576.894013	0.123664
577.106046	0.124177
577.318062	0.124553
577.530059	0.124880
577.742039	0.124738
577.954000	0.124764
578.165942	0.124926
578.377867	0.125019
578.589773	0.125505
578.801661	0.125703
579.013531	0.125691
579.225382	0.125430
579.437216	0.125256
579.649031	0.125656
579.860828	0.125585
580.072606	0.125499
580.284367	0.125269
580.496109	0.125082
580.707833	0.125038
580.919539	0.125178
581.131227	0.125665
581.342896	0.125783
581.554547	0.125584
581.766180	0.125894
581.977795	0.126161
582.189391	0.126585
582.400969	0.126566
582.612529	0.126793
582.824071	0.126692
583.035595	0.126742
583.247100	0.126588
583.458587	0.127196
583.670056	0.126786
583.881506	0.126812
584.092939	0.126385
584.304353	0.126477
584.515749	0.126691
584.727127	0.126831
584.938486	0.126474
585.149828	0.126999
585.361151	0.126941
585.572456	0.127085
585.783742	0.127308
585.995011	0.127866
586.206261	0.127877
586.417493	0.127440
586.628706	0.127445
586.839902	0.128072
587.051079	0.127938
587.262238	0.127731
587.473379	0.127861
587.684502	0.128129
587.895606	0.128054
588.106692	0.128260
588.317760	0.128719
588.528810	0.128427
588.739841	0.128125
588.950855	0.128194
589.161850	0.128436
589.372827	0.128526
589.583785	0.128425
589.794726	0.128508
590.005648	0.128697
590.216552	0.128792
590.427437	0.128868
590.638305	0.128844
590.849154	0.128824
591.059985	0.128962
591.270798	0.129245
591.481592	0.129124
591.692369	0.129307
591.903127	0.129438
592.113867	0.129464
592.324588	0.130025
592.535292	0.130235
592.745977	0.130878
592.956644	0.131403
593.167293	0.131345
593.377923	0.131541
593.588536	0.131306
593.799130	0.131011
594.009706	0.130941
594.220263	0.130922
594.430803	0.130618
594.641324	0.130196
594.851827	0.129944
595.062312	0.129838
595.272778	0.129954
595.483227	0.130179
595.693657	0.130214
595.904069	0.130390
596.114462	0.130348
596.324838	0.130514
596.535195	0.130731
596.745534	0.130761
596.955855	0.130748
597.166157	0.130699
597.376441	0.130711
597.586707	0.131023
597.796955	0.130994
598.007185	0.130948
598.217396	0.131245
598.427589	0.131074
598.637764	0.130929
598.847921	0.131322
599.058060	0.131384
599.268180	0.131297
599.478282	0.131150
599.688366	0.131245
599.898431	0.131333
600.108479	0.131112
600.318508	0.131238
600.528519	0.131294
600.738511	0.131179
600.948486	0.131239
601.158442	0.131259
601.368380	0.131250
601.578300	0.131178
601.788202	0.131209
601.998085	0.131382
602.207950	0.131278
602.417797	0.131375
602.627626	0.131606
602.837436	0.131643
603.047228	0.131472
603.257002	0.131317
603.466758	0.131555
603.676496	0.131649
603.886215	0.131656
604.095916	0.131950
604.305599	0.132060
604.515264	0.132344
604.724910	0.132537
604.934538	0.133104
605.144148	0.133735
605.353740	0.133630
605.563314	0.133765
605.772869	0.133784
605.982406	0.133899
606.191925	0.133938
606.401425	0.133725
606.610908	0.133595
606.820372	0.133456
607.029818	0.133293
607.239246	0.133411
607.448655	0.133250
607.658047	0.133351
607.867420	0.133240
608.076775	0.133216
608.286111	0.132881
608.495430	0.132818
608.704730	0.132851
608.914012	0.132679
609.123275	0.133030
609.332521	0.133082
609.541748	0.133227
609.750957	0.133432
609.960148	0.133520
610.169321	0.133970
610.378475	0.133863
610.587611	0.133852
610.796729	0.134011
611.005829	0.133711
611.214910	0.133693
611.423974	0.133248
611.633019	0.133136
611.842045	0.133270
612.051054	0.133128
612.260044	0.133267
612.469017	0.133002
612.677970	0.132962
612.886906	0.132695
613.095824	0.132395
613.304723	0.132805
613.513604	0.132889
613.722467	0.132685
613.931311	0.132591
614.140138	0.132310
614.348946	0.132692
614.557736	0.132703
614.766507	0.132964
614.975261	0.133502
615.183996	0.133628
615.392713	0.133373
615.601412	0.133483
615.810092	0.133477
616.018754	0.133824
616.227399	0.133742
616.436024	0.134046
616.644632	0.134133
616.853222	0.134364
617.061793	0.134412
617.270346	0.134722
617.478880	0.134972
617.687397	0.135184
617.895895	0.135344
618.104375	0.135414
618.312837	0.135235
618.521281	0.135166
618.729706	0.135146
618.938113	0.135157
619.146502	0.134981
619.354873	0.134885
619.563226	0.134855
619.771560	0.134825
619.979876	0.134784
620.188174	0.134948
620.396453	0.135172
620.604715	0.135096
620.812958	0.135046
621.021183	0.135178
621.229390	0.135360
621.437578	0.135493
621.645748	0.135682
621.853900	0.136183
622.062034	0.136421
622.270150	0.136504
622.478247	0.136661
622.686326	0.136448
622.894387	0.136580
623.102430	0.136347
623.310454	0.136419
623.518461	0.136428
623.726449	0.136299
623.934418	0.136226
624.142370	0.136252
624.350303	0.136171
624.558218	0.136638
624.766115	0.136662
624.973994	0.136868
625.181855	0.136740
625.389697	0.136540
625.597521	0.136420
625.805327	0.136249
626.013114	0.136152
626.220883	0.136117
626.428634	0.136016
626.636367	0.135941
626.844082	0.135847
627.051778	0.135970
627.259457	0.136179
627.467117	0.136218
627.674758	0.136614
627.882382	0.136779
628.089987	0.136895
628.297574	0.136794
628.505143	0.137151
628.712694	0.137396
628.920226	0.137275
629.127740	0.137240
629.335236	0.137299
629.542714	0.137206
629.750174	0.137222
629.957615	0.137385
630.165038	0.137617
630.372443	0.137628
630.579829	0.137603
630.787198	0.137892
630.994548	0.138188
631.201880	0.138322
631.409194	0.138303
631.616489	0.138369
631.823766	0.138289
632.031025	0.138431
632.238266	0.138412
632.445489	0.138364
632.652693	0.138368
632.859879	0.138307
633.067047	0.138385
633.274197	0.138616
633.481329	0.138774
633.688442	0.138837
633.895537	0.138744
634.102614	0.138790
634.309672	0.138998
634.516713	0.139011
634.723735	0.139221
634.930739	0.139460
635.137724	0.139311
635.344692	0.139232
635.551641	0.139300
635.758572	0.139458
635.965485	0.139581
636.172379	0.139445
636.379256	0.139632
636.586114	0.139709
636.792954	0.139422
636.999775	0.139534
637.206579	0.139755
637.413364	0.139870
637.620131	0.139866
637.826880	0.139971
638.033610	0.140295
638.240323	0.140337
638.447017	0.140173
638.653692	0.140365
638.860350	0.140220
639.066990	0.139979
639.273611	0.140000
639.480214	0.140168
639.686798	0.140196
639.893365	0.140361
640.099913	0.140563
640.306443	0.140705
640.512955	0.140870
640.719449	0.141310
640.925924	0.141759
641.132381	0.141832
641.338820	0.141863
641.545241	0.142088
641.751644	0.142056
641.958028	0.142036
642.164394	0.142342
642.370742	0.142516
642.577071	0.142631
642.783383	0.142992
642.989676	0.143433
643.195951	0.143457
643.402207	0.143427
643.608446	0.143430
643.814666	0.143476
644.020868	0.143416
644.227052	0.143652
644.433218	0.143645
644.639365	0.143367
644.845494	0.143250
645.051605	0.143493
645.257698	0.143749
645.463772	0.143829
645.669828	0.144128
645.875866	0.144169
646.081886	0.143964
646.287888	0.144217
646.493871	0.144302
646.699836	0.144222
646.905783	0.144290
647.111712	0.144286
647.317622	0.144373
647.523514	0.144297
647.729388	0.144266
647.935244	0.144385
648.141082	0.144285
648.346901	0.144270
648.552702	0.144526
648.758485	0.144692
648.964250	0.144628
649.169996	0.144768
649.375724	0.144837
649.581434	0.145024
649.787126	0.145002
649.992800	0.145116
650.198455	0.145508
650.404092	0.145573
650.609711	0.145702
650.815311	0.145989
651.020894	0.146000
651.226458	0.146124
651.432004	0.146406
651.637532	0.146531
651.843041	0.146611
652.048532	0.146502
652.254006	0.146715
652.459460	0.147023
652.664897	0.146987
652.870315	0.147326
653.075716	0.147402
653.281097	0.147254
653.486461	0.147527
653.691807	0.147692
653.897134	0.147680
654.102443	0.147628
654.307734	0.147254
654.513006	0.147328
654.718261	0.147220
654.923497	0.147222
655.128715	0.147432
655.333915	0.147397
655.539096	0.147269
655.744259	0.147162
655.949404	0.147076
656.154531	0.147016
656.359640	0.147071
656.564730	0.146959
656.769802	0.147123
656.974856	0.146897
657.179892	0.146868
657.384909	0.147021
657.589908	0.147263
657.794889	0.147412
657.999852	0.147675
658.204797	0.147723
658.409723	0.147921
658.614631	0.148133
658.819521	0.148660
659.024393	0.148954
659.229246	0.148887
659.434081	0.148927
659.638898	0.148945
659.843697	0.149092
660.048478	0.149111
660.253240	0.149211
660.457984	0.148980
660.662710	0.148734
660.867417	0.148470
661.072107	0.148598
661.276778	0.148859
661.481431	0.149127
661.686066	0.149200
661.890682	0.149233
662.095281	0.149386
662.299861	0.149557
662.504422	0.149613
662.708966	0.149729
662.913491	0.150132
663.117999	0.149896
663.322488	0.149743
663.526958	0.149694
663.731411	0.149758
663.935845	0.149856
664.140261	0.149963
664.344659	0.149967
664.549038	0.150256
664.753400	0.150004
664.957743	0.150283
665.162068	0.150397
665.366375	0.150472
665.570663	0.150627
665.774933	0.150710
665.979185	0.150850
666.183419	0.151225
666.387635	0.151393
666.591832	0.151511
666.796011	0.151687
667.000172	0.151977
667.204315	0.152223
667.408439	0.152518
667.612545	0.152800
667.816634	0.152886
668.020703	0.152916
668.224755	0.152996
668.428788	0.153354
668.632803	0.153490
668.836800	0.153597
669.040779	0.153821
669.244739	0.153988
669.448681	0.153854
669.652605	0.153797
669.856511	0.153758
670.060399	0.153704
670.264268	0.153756
670.468119	0.153546
670.671952	0.153464
670.875767	0.153282
671.079563	0.153059
671.283341	0.153317
671.487101	0.153438
671.690843	0.153781
671.894567	0.153932
672.098272	0.153760
672.301959	0.154050
672.505628	0.154286
672.709278	0.154433
672.912911	0.154582
673.116525	0.154429
673.320121	0.154784
673.523699	0.154728
673.727258	0.154795
673.930799	0.155120
674.134322	0.155298
674.337827	0.155447
674.541314	0.155518
674.744782	0.155766
674.948232	0.155866
675.151664	0.155869
675.355078	0.156226
675.558474	0.156428
675.761851	0.156400
675.965210	0.156439
676.168551	0.156352
676.371873	0.156490
676.575178	0.156552
676.778464	0.156671
676.981732	0.156788
677.184981	0.156567
677.388213	0.156786
677.591426	0.156685
677.794621	0.156900
677.997798	0.156947
678.200956	0.157074
678.404097	0.157064
678.607219	0.157125
678.810323	0.157113
679.013408	0.157318
679.216476	0.157051
679.419525	0.157358
679.622556	0.157327
679.825569	0.157513
680.028563	0.157649
680.231540	0.157613
680.434498	0.157837
680.637438	0.158003
680.840359	0.157932
681.043263	0.158259
681.246148	0.158335
681.449015	0.158427
681.651864	0.158562
681.854694	0.158454
682.057506	0.158623
682.260301	0.158718
682.463076	0.158606
682.665834	0.158674
682.868573	0.158643
683.071295	0.158732
683.273998	0.158755
683.476682	0.158660
683.679349	0.158832
683.881997	0.158830
684.084627	0.158836
684.287239	0.158998
684.489833	0.159129
684.692408	0.159187
684.894965	0.159181
685.097504	0.159494
685.300025	0.159699
685.502527	0.159718
685.705012	0.159887
685.907478	0.159955
686.109925	0.160075
686.312355	0.160223
686.514766	0.160286
686.717159	0.160250
686.919534	0.160081
687.121891	0.160068
687.324230	0.160028
687.526550	0.159892
687.728852	0.159822
687.931136	0.159794
688.133401	0.159864
688.335649	0.159964
688.537878	0.160160
688.740089	0.160221
688.942281	0.160401
689.144456	0.160661
689.346612	0.160987
689.548750	0.161175
689.750870	0.161341
689.952971	0.161314
690.155055	0.161370
690.357120	0.161545
690.559167	0.161434
690.761195	0.161459
690.963206	0.161741
691.165198	0.161676
691.367172	0.161776
691.569128	0.161655
691.771065	0.161928
691.972984	0.162101
692.174885	0.162032
692.376768	0.162173
692.578633	0.162342
692.780479	0.162176
692.982308	0.162482
693.184118	0.162352
693.385909	0.162513
