sample name	sample
index	355
start time	 03-01-2021  12:15:54 PM


Wavelength (nm)	Absorbance
494.344910	0.112738
494.563924	0.112738
494.782919	0.112738
495.001897	-0.214805
495.220856	-0.151976
495.439797	-0.122682
495.658719	-0.160259
495.877624	-0.184567
496.096510	-0.104592
496.315378	0.045110
496.534227	0.029283
496.753059	-0.010667
496.971872	-0.001536
497.190667	0.075886
497.409444	0.066636
497.628203	0.068338
497.846943	0.070394
498.065665	0.068770
498.284369	0.069305
498.503055	0.071208
498.721723	0.072315
498.940372	0.071992
499.159003	0.071526
499.377616	0.071935
499.596210	0.071858
499.814787	0.072154
500.033345	0.073283
500.251885	0.074143
500.470406	0.073166
500.688910	0.072646
500.907395	0.073070
501.125862	0.072793
501.344311	0.073671
501.562742	0.074174
501.781154	0.073791
501.999548	0.074049
502.217924	0.074419
502.436282	0.074785
502.654621	0.074646
502.872942	0.075021
503.091245	0.074684
503.309530	0.075786
503.527797	0.075477
503.746045	0.075037
503.964275	0.074110
504.182487	0.073415
504.400681	0.073866
504.618856	0.074520
504.837013	0.074890
505.055152	0.075669
505.273273	0.074562
505.491376	0.075117
505.709460	0.075865
505.927526	0.076818
506.145574	0.076942
506.363604	0.076540
506.581615	0.076282
506.799608	0.075551
507.017583	0.075608
507.235540	0.075398
507.453478	0.075225
507.671399	0.075066
507.889301	0.074372
508.107185	0.074342
508.325050	0.074348
508.542898	0.074467
508.760727	0.074509
508.978538	0.074526
509.196330	0.075425
509.414105	0.076090
509.631861	0.076922
509.849599	0.077617
510.067319	0.078390
510.285021	0.078933
510.502704	0.078890
510.720369	0.078862
510.938016	0.079275
511.155645	0.079565
511.373255	0.079056
511.590848	0.079185
511.808422	0.079151
512.025977	0.078595
512.243515	0.078206
512.461034	0.078459
512.678536	0.078924
512.896018	0.078621
513.113483	0.078503
513.330930	0.079397
513.548358	0.079753
513.765768	0.079810
513.983160	0.079884
514.200533	0.080185
514.417889	0.080588
514.635226	0.081244
514.852545	0.081421
515.069845	0.082671
515.287128	0.082143
515.504392	0.082014
515.721638	0.082275
515.938866	0.082404
516.156075	0.082606
516.373267	0.082401
516.590440	0.082614
516.807594	0.082550
517.024731	0.081392
517.241850	0.081417
517.458950	0.081253
517.676032	0.081480
517.893095	0.081998
518.110141	0.082095
518.327168	0.082693
518.544177	0.083227
518.761168	0.083718
518.978141	0.083935
519.195095	0.084492
519.412031	0.084774
519.628949	0.085151
519.845849	0.085252
520.062731	0.085556
520.279594	0.086035
520.496439	0.084824
520.713266	0.084969
520.930074	0.085021
521.146865	0.085021
521.363637	0.084537
521.580391	0.084161
521.797127	0.084341
522.013844	0.084587
522.230543	0.083938
522.447224	0.085417
522.663887	0.085611
522.880532	0.086135
523.097158	0.086622
523.313766	0.087449
523.530356	0.087303
523.746928	0.086939
523.963481	0.087078
524.180017	0.087154
524.396534	0.086683
524.613032	0.087250
524.829513	0.087508
525.045975	0.087609
525.262420	0.087263
525.478845	0.087834
525.695253	0.088050
525.911643	0.088387
526.128014	0.088986
526.344367	0.089028
526.560702	0.088644
526.777018	0.088454
526.993316	0.088674
527.209597	0.089108
527.425858	0.089536
527.642102	0.089882
527.858328	0.090275
528.074535	0.090304
528.290724	0.090649
528.506894	0.091098
528.723047	0.091665
528.939181	0.092027
529.155297	0.091651
529.371395	0.092158
529.587475	0.093105
529.803536	0.093215
530.019579	0.093724
530.235604	0.094062
530.451611	0.094335
530.667600	0.094249
530.883570	0.094205
531.099522	0.094855
531.315456	0.095030
531.531372	0.094880
531.747269	0.095150
531.963148	0.095251
532.179009	0.095494
532.394852	0.095671
532.610676	0.095560
532.826482	0.095916
533.042271	0.096550
533.258040	0.095940
533.473792	0.096366
533.689525	0.096012
533.905240	0.096227
534.120937	0.096339
534.336616	0.096627
534.552277	0.097442
534.767919	0.097519
534.983543	0.097916
535.199149	0.098431
535.414736	0.098088
535.630306	0.098823
535.845857	0.098672
536.061390	0.099017
536.276904	0.099043
536.492401	0.098762
536.707879	0.098808
536.923339	0.098233
537.138781	0.098521
537.354204	0.098801
537.569610	0.098640
537.784997	0.098979
538.000366	0.099198
538.215716	0.099374
538.431049	0.100037
538.646363	0.100240
538.861659	0.101449
539.076937	0.101765
539.292196	0.102381
539.507438	0.103047
539.722661	0.103053
539.937866	0.103020
540.153052	0.103191
540.368221	0.102875
540.583371	0.103079
540.798503	0.102349
541.013617	0.102769
541.228712	0.102788
541.443789	0.102931
541.658848	0.103557
541.873889	0.103882
542.088912	0.104497
542.303916	0.104871
542.518902	0.105005
542.733870	0.105517
542.948820	0.105465
543.163752	0.105696
543.378665	0.105687
543.593560	0.105931
543.808437	0.105848
544.023295	0.105676
544.238136	0.105911
544.452958	0.106245
544.667762	0.106379
544.882548	0.106469
545.097315	0.106328
545.312064	0.106672
545.526795	0.106561
545.741508	0.106768
545.956203	0.106825
546.170879	0.107226
546.385537	0.107236
546.600177	0.107518
546.814799	0.107596
547.029402	0.107918
547.243988	0.108024
547.458555	0.108092
547.673103	0.108472
547.887634	0.108850
548.102146	0.108950
548.316640	0.109467
548.531116	0.109526
548.745574	0.109923
548.960013	0.110729
549.174435	0.111128
549.388838	0.111408
549.603222	0.111657
549.817589	0.112010
550.031937	0.112068
550.246267	0.112026
550.460579	0.111954
550.674873	0.112395
550.889148	0.111993
551.103405	0.111965
551.317644	0.112237
551.531865	0.112100
551.746068	0.112442
551.960252	0.112556
552.174418	0.112220
552.388566	0.112757
552.602696	0.112342
552.816807	0.112840
553.030900	0.112628
553.244975	0.112792
553.459032	0.113074
553.673070	0.112855
553.887091	0.113333
554.101093	0.113778
554.315077	0.113804
554.529042	0.113840
554.742990	0.113393
554.956919	0.113485
555.170830	0.113628
555.384722	0.113859
555.598597	0.113975
555.812453	0.113503
556.026291	0.113911
556.240111	0.113602
556.453913	0.114176
556.667696	0.114480
556.881461	0.114901
557.095208	0.114823
557.308937	0.114811
557.522647	0.114939
557.736339	0.115441
557.950013	0.114958
558.163669	0.115382
558.377307	0.115344
558.590926	0.115584
558.804527	0.115691
559.018110	0.115652
559.231675	0.115833
559.445221	0.115854
559.658749	0.115838
559.872259	0.116726
560.085751	0.116902
560.299225	0.117109
560.512680	0.117158
560.726117	0.117357
560.939536	0.117758
561.152937	0.117631
561.366319	0.117399
561.579683	0.117662
561.793029	0.117603
562.006357	0.117874
562.219667	0.117910
562.432958	0.118053
562.646231	0.118085
562.859486	0.118301
563.072723	0.118641
563.285941	0.119627
563.499141	0.119677
563.712323	0.119688
563.925487	0.119769
564.138632	0.119985
564.351760	0.120127
564.564869	0.120274
564.777960	0.120166
564.991032	0.120139
565.204087	0.119775
565.417123	0.119942
565.630141	0.119955
565.843140	0.119849
566.056122	0.119883
566.269085	0.119978
566.482030	0.119892
566.694957	0.120244
566.907866	0.120683
567.120756	0.120877
567.333628	0.120670
567.546482	0.120739
567.759318	0.120907
567.972135	0.121007
568.184935	0.121017
568.397716	0.120942
568.610478	0.120885
568.823223	0.120721
569.035949	0.120961
569.248657	0.121118
569.461347	0.121442
569.674019	0.121598
569.886672	0.121547
570.099308	0.121429
570.311925	0.121537
570.524523	0.121567
570.737104	0.121961
570.949666	0.121938
571.162210	0.122301
571.374736	0.122126
571.587244	0.122358
571.799733	0.122557
572.012205	0.122657
572.224658	0.122750
572.437092	0.122745
572.649509	0.122528
572.861907	0.122592
573.074287	0.122449
573.286649	0.123008
573.498993	0.123043
573.711318	0.123274
573.923625	0.123443
574.135914	0.123536
574.348185	0.123853
574.560438	0.123964
574.772672	0.124196
574.984888	0.124553
575.197086	0.124095
575.409266	0.124115
575.621427	0.124133
575.833570	0.124400
576.045695	0.124779
576.257802	0.124953
576.469890	0.124802
576.681961	0.124891
576.894013	0.124917
577.106046	0.124800
577.318062	0.124681
577.530059	0.124531
577.742039	0.124833
577.954000	0.124958
578.165942	0.124863
578.377867	0.125090
578.589773	0.124857
578.801661	0.125004
579.013531	0.125675
579.225382	0.125887
579.437216	0.126038
579.649031	0.125879
579.860828	0.125781
580.072606	0.125852
580.284367	0.126058
580.496109	0.126264
580.707833	0.126215
580.919539	0.126215
581.131227	0.126419
581.342896	0.126716
581.554547	0.126949
581.766180	0.127219
581.977795	0.127533
582.189391	0.127320
582.400969	0.127448
582.612529	0.127514
582.824071	0.127710
583.035595	0.127929
583.247100	0.128015
583.458587	0.127937
583.670056	0.128005
583.881506	0.128286
584.092939	0.128642
584.304353	0.128777
584.515749	0.128844
584.727127	0.128524
584.938486	0.128465
585.149828	0.128585
585.361151	0.128878
585.572456	0.129003
585.783742	0.128907
585.995011	0.129304
586.206261	0.129516
586.417493	0.129388
586.628706	0.129866
586.839902	0.130034
587.051079	0.130010
587.262238	0.130092
587.473379	0.130138
587.684502	0.130195
587.895606	0.130115
588.106692	0.129874
588.317760	0.130364
588.528810	0.130591
588.739841	0.130672
588.950855	0.130804
589.161850	0.130913
589.372827	0.131164
589.583785	0.131420
589.794726	0.131392
590.005648	0.131789
590.216552	0.131749
590.427437	0.131518
590.638305	0.131806
590.849154	0.132012
591.059985	0.132091
591.270798	0.131995
591.481592	0.131957
591.692369	0.132168
591.903127	0.132266
592.113867	0.132447
592.324588	0.132494
592.535292	0.132346
592.745977	0.132205
592.956644	0.132295
593.167293	0.132484
593.377923	0.132791
593.588536	0.132869
593.799130	0.132927
594.009706	0.133170
594.220263	0.133554
594.430803	0.134059
594.641324	0.134945
594.851827	0.135112
595.062312	0.135428
595.272778	0.135549
595.483227	0.135855
595.693657	0.136074
595.904069	0.135873
596.114462	0.135873
596.324838	0.135555
596.535195	0.135125
596.745534	0.135154
596.955855	0.135219
597.166157	0.135081
597.376441	0.135064
597.586707	0.135198
597.796955	0.135388
598.007185	0.135569
598.217396	0.135654
598.427589	0.135548
598.637764	0.135595
598.847921	0.135530
599.058060	0.135819
599.268180	0.135730
599.478282	0.135734
599.688366	0.136102
599.898431	0.136135
600.108479	0.136390
600.318508	0.136564
600.528519	0.136323
600.738511	0.136491
600.948486	0.136327
601.158442	0.136287
601.368380	0.136425
601.578300	0.136351
601.788202	0.136726
601.998085	0.136696
602.207950	0.136788
602.417797	0.137401
602.627626	0.137476
602.837436	0.137467
603.047228	0.138169
603.257002	0.138303
603.466758	0.138357
603.676496	0.138597
603.886215	0.138787
604.095916	0.139022
604.305599	0.139087
604.515264	0.139173
604.724910	0.139501
604.934538	0.139133
605.144148	0.139132
605.353740	0.139178
605.563314	0.139018
605.772869	0.139044
605.982406	0.138877
606.191925	0.138951
606.401425	0.138989
606.610908	0.139141
606.820372	0.139444
607.029818	0.139592
607.239246	0.139594
607.448655	0.139639
607.658047	0.139677
607.867420	0.140087
608.076775	0.140074
608.286111	0.140015
608.495430	0.140066
608.704730	0.140009
608.914012	0.139868
609.123275	0.140308
609.332521	0.140145
609.541748	0.140217
609.750957	0.140328
609.960148	0.140494
610.169321	0.140810
610.378475	0.140519
610.587611	0.140670
610.796729	0.140753
611.005829	0.140437
611.214910	0.140595
611.423974	0.140935
611.633019	0.141084
611.842045	0.141215
612.051054	0.141087
612.260044	0.141333
612.469017	0.141452
612.677970	0.141777
612.886906	0.141982
613.095824	0.141955
613.304723	0.141967
613.513604	0.141823
613.722467	0.141609
613.931311	0.141715
614.140138	0.141868
614.348946	0.142096
614.557736	0.142261
614.766507	0.142395
614.975261	0.142749
615.183996	0.142801
615.392713	0.142929
615.601412	0.143293
615.810092	0.143459
616.018754	0.143600
616.227399	0.143417
616.436024	0.143244
616.644632	0.143265
616.853222	0.143556
617.061793	0.143438
617.270346	0.143690
617.478880	0.143737
617.687397	0.143819
617.895895	0.144097
618.104375	0.144230
618.312837	0.144183
618.521281	0.144120
618.729706	0.143870
618.938113	0.144094
619.146502	0.143860
619.354873	0.143833
619.563226	0.143931
619.771560	0.143856
619.979876	0.144026
620.188174	0.144432
620.396453	0.144671
620.604715	0.144744
620.812958	0.144983
621.021183	0.145025
621.229390	0.145034
621.437578	0.145082
621.645748	0.144970
621.853900	0.144939
622.062034	0.144676
622.270150	0.144851
622.478247	0.144937
622.686326	0.144815
622.894387	0.145285
623.102430	0.145543
623.310454	0.145435
623.518461	0.145956
623.726449	0.146257
623.934418	0.146437
624.142370	0.146574
624.350303	0.146564
624.558218	0.146547
624.766115	0.146323
624.973994	0.146386
625.181855	0.146708
625.389697	0.146552
625.597521	0.146398
625.805327	0.146959
626.013114	0.146965
626.220883	0.147111
626.428634	0.147462
626.636367	0.147703
626.844082	0.147796
627.051778	0.148163
627.259457	0.148041
627.467117	0.148482
627.674758	0.148445
627.882382	0.148804
628.089987	0.149002
628.297574	0.148945
628.505143	0.149032
628.712694	0.149005
628.920226	0.148839
629.127740	0.149099
629.335236	0.149052
629.542714	0.148991
629.750174	0.148951
629.957615	0.149106
630.165038	0.149183
630.372443	0.148974
630.579829	0.149258
630.787198	0.149411
630.994548	0.149475
631.201880	0.149375
631.409194	0.149313
631.616489	0.149480
631.823766	0.149713
632.031025	0.149612
632.238266	0.149862
632.445489	0.149860
632.652693	0.149795
632.859879	0.149979
633.067047	0.150237
633.274197	0.150399
633.481329	0.150312
633.688442	0.150200
633.895537	0.150769
634.102614	0.151063
634.309672	0.150952
634.516713	0.151478
634.723735	0.151682
634.930739	0.151852
635.137724	0.152022
635.344692	0.152000
635.551641	0.152055
635.758572	0.152183
635.965485	0.152453
636.172379	0.152639
636.379256	0.152408
636.586114	0.152244
636.792954	0.152194
636.999775	0.152011
637.206579	0.152429
637.413364	0.152806
637.620131	0.152607
637.826880	0.152478
638.033610	0.152822
638.240323	0.152806
638.447017	0.153086
638.653692	0.153337
638.860350	0.153781
639.066990	0.153790
639.273611	0.153645
639.480214	0.153903
639.686798	0.153974
639.893365	0.153984
640.099913	0.154060
640.306443	0.154209
640.512955	0.154144
640.719449	0.154098
640.925924	0.154039
641.132381	0.154164
641.338820	0.154416
641.545241	0.154377
641.751644	0.154463
641.958028	0.154742
642.164394	0.154942
642.370742	0.155057
642.577071	0.155288
642.783383	0.155522
642.989676	0.155439
643.195951	0.155620
643.402207	0.156011
643.608446	0.155905
643.814666	0.155940
644.020868	0.155956
644.227052	0.156008
644.433218	0.155957
644.639365	0.156176
644.845494	0.156514
645.051605	0.156109
645.257698	0.156079
645.463772	0.156357
645.669828	0.156311
645.875866	0.156573
646.081886	0.156744
646.287888	0.157255
646.493871	0.157263
646.699836	0.157338
646.905783	0.157608
647.111712	0.157821
647.317622	0.158163
647.523514	0.158472
647.729388	0.158397
647.935244	0.158821
648.141082	0.158719
648.346901	0.158722
648.552702	0.158941
648.758485	0.159202
648.964250	0.159098
649.169996	0.158884
649.375724	0.159026
649.581434	0.159126
649.787126	0.158891
649.992800	0.159091
650.198455	0.159158
650.404092	0.159067
650.609711	0.159087
650.815311	0.159176
651.020894	0.159269
651.226458	0.159443
651.432004	0.159642
651.637532	0.159862
651.843041	0.159972
652.048532	0.160301
652.254006	0.160444
652.459460	0.160730
652.664897	0.161008
652.870315	0.161083
653.075716	0.161218
653.281097	0.161342
653.486461	0.161437
653.691807	0.161595
653.897134	0.161624
654.102443	0.161949
654.307734	0.161939
654.513006	0.162191
654.718261	0.162612
654.923497	0.163000
655.128715	0.163094
655.333915	0.163340
655.539096	0.163395
655.744259	0.163556
655.949404	0.163681
656.154531	0.163764
656.359640	0.163822
656.564730	0.163853
656.769802	0.163855
656.974856	0.163983
657.179892	0.164183
657.384909	0.164256
657.589908	0.164328
657.794889	0.164444
657.999852	0.164819
658.204797	0.165098
658.409723	0.165257
658.614631	0.165329
658.819521	0.165602
659.024393	0.165568
659.229246	0.165829
659.434081	0.166023
659.638898	0.166228
659.843697	0.166222
660.048478	0.166247
660.253240	0.166567
660.457984	0.166641
660.662710	0.166650
660.867417	0.166904
661.072107	0.167190
661.276778	0.167480
661.481431	0.167733
661.686066	0.167949
661.890682	0.168267
662.095281	0.168154
662.299861	0.168361
662.504422	0.168630
662.708966	0.168727
662.913491	0.168864
663.117999	0.168846
663.322488	0.168742
663.526958	0.168724
663.731411	0.168508
663.935845	0.168727
664.140261	0.168889
664.344659	0.168862
664.549038	0.169021
664.753400	0.168919
664.957743	0.169093
665.162068	0.169447
665.366375	0.169712
665.570663	0.170005
665.774933	0.170221
665.979185	0.170485
666.183419	0.170703
666.387635	0.170837
666.591832	0.171019
666.796011	0.171075
667.000172	0.171118
667.204315	0.171254
667.408439	0.171303
667.612545	0.171505
667.816634	0.171407
668.020703	0.171460
668.224755	0.171385
668.428788	0.171345
668.632803	0.171658
668.836800	0.171480
669.040779	0.171479
669.244739	0.171571
669.448681	0.171438
669.652605	0.171492
669.856511	0.171569
670.060399	0.171766
670.264268	0.172037
670.468119	0.171962
670.671952	0.172239
670.875767	0.172454
671.079563	0.172549
671.283341	0.172744
671.487101	0.172866
671.690843	0.172934
671.894567	0.172906
672.098272	0.172905
672.301959	0.173035
672.505628	0.173250
672.709278	0.173203
672.912911	0.173517
673.116525	0.173748
673.320121	0.173839
673.523699	0.174017
673.727258	0.174366
673.930799	0.174680
674.134322	0.174857
674.337827	0.174643
674.541314	0.175013
674.744782	0.175179
674.948232	0.175157
675.151664	0.175190
675.355078	0.175419
675.558474	0.175548
675.761851	0.175696
675.965210	0.175991
676.168551	0.176339
676.371873	0.176386
676.575178	0.176437
676.778464	0.176565
676.981732	0.177011
677.184981	0.177178
677.388213	0.177469
677.591426	0.177691
677.794621	0.177806
677.997798	0.178121
678.200956	0.178269
678.404097	0.178498
678.607219	0.178630
678.810323	0.178568
679.013408	0.178764
679.216476	0.178871
679.419525	0.178703
679.622556	0.178827
679.825569	0.179011
680.028563	0.179246
680.231540	0.179332
680.434498	0.179439
680.637438	0.179738
680.840359	0.179803
681.043263	0.179829
681.246148	0.180197
681.449015	0.180118
681.651864	0.179998
681.854694	0.179926
682.057506	0.180187
682.260301	0.180433
682.463076	0.180492
682.665834	0.180509
682.868573	0.180710
683.071295	0.180910
683.273998	0.181106
683.476682	0.181396
683.679349	0.181802
683.881997	0.181850
684.084627	0.182184
684.287239	0.182265
684.489833	0.182481
684.692408	0.182647
684.894965	0.182539
685.097504	0.182652
685.300025	0.182692
685.502527	0.182522
685.705012	0.182468
685.907478	0.182290
686.109925	0.182450
686.312355	0.182521
686.514766	0.182464
686.717159	0.182633
686.919534	0.182883
687.121891	0.182900
687.324230	0.183136
687.526550	0.183324
687.728852	0.183384
687.931136	0.183506
688.133401	0.183497
688.335649	0.183664
688.537878	0.183709
688.740089	0.183595
688.942281	0.183729
689.144456	0.183816
689.346612	0.183942
689.548750	0.184191
689.750870	0.184339
689.952971	0.184480
690.155055	0.184688
690.357120	0.184654
690.559167	0.184826
690.761195	0.184879
690.963206	0.184980
691.165198	0.185116
691.367172	0.185283
691.569128	0.185070
691.771065	0.185267
691.972984	0.185163
692.174885	0.185516
692.376768	0.185698
692.578633	0.185873
692.780479	0.186045
692.982308	0.185831
693.184118	0.185823
693.385909	0.186019
