sample name	sample
index	784
start time	 03-31-2021  01:54:43 PM
880	0.218383
Peak Time (s)	92.537
Peak Height 	0.2184
calc peak height	90,93
Baseline Time (s)	11.537
Baseline Value 	-0.001785
subtract baseline	10,4
Abs	0.147640
Peak Time (s)	91.536
Peak Height 	0.1476
calc peak height	90,93
Baseline Time (s)	9.537
Baseline Value 	0.002392
subtract baseline	10,3
PK_550	0.033410
Peak Time (s)	91.536
Peak Height 	0.03341
calc peak height	90,93
Baseline Time (s)	11.537
Baseline Value 	2.1312E-5
subtract baseline	10,2
PK_880	0.139234
Peak Time (s)	91.035
Peak Height 	0.1392
calc peak height	90,93
Baseline Time (s)	11.037
Baseline Value 	7.2605E-4
subtract baseline	10,1


Time (s)	A880-A510	A880-A775	A880-A975	A880	I510	I775	I975	I880	
0.036000	0.001346	0.000207	-0.001758	0.001812	6717.273030	40069.523564	4065.868160	21973.018466
0.536000	-0.001151	-0.000076	0.002338	0.003126	6685.861656	39934.044081	4072.100852	21916.074817
1.036500	-0.000598	-0.000262	-0.002870	0.003055	6690.985066	39924.297728	4060.623830	21919.128297
1.536500	0.000042	-0.000349	-0.002319	0.001058	6712.725180	40086.378433	4066.300553	22005.807133
2.039500	-0.000149	-0.000015	-0.002395	0.000871	6712.687333	40130.637009	4066.547587	22013.910669
2.538000	-0.000865	-0.000291	0.000736	0.001276	6703.435748	40072.733169	4072.658045	21996.311731
3.035000	0.002946	0.000190	-0.000121	-0.001373	6757.119958	40339.784691	4076.694847	22111.837522
3.535500	-0.001775	-0.000723	-0.007224	-0.000325	6709.137237	40172.315721	4058.464517	22066.062061
4.035500	-0.000144	-0.000033	-0.002554	-0.000107	6720.832959	40212.515149	4068.379391	22056.532726
4.535500	0.001841	-0.000117	-0.001381	0.000173	6734.986504	40181.478384	4070.380027	22044.328653
5.036000	0.001479	0.000506	-0.002075	0.000044	6733.050582	40245.649731	4069.112387	22049.948194
5.536000	-0.000208	-0.000498	-0.003826	-0.000431	6722.981781	40200.445976	4066.258551	22070.674351
6.037000	0.003449	-0.000070	0.000804	0.000227	6747.945056	40180.902092	4075.173407	22041.984381
6.537000	0.002168	0.000382	-0.000621	0.000727	6733.101621	40176.703728	4070.841115	22020.180164
7.037500	0.000787	-0.000034	-0.004184	-0.000090	6728.413599	40211.031160	4064.701049	22055.811000
7.537500	0.000019	-0.000485	-0.000288	-0.000630	6726.520810	40218.599513	4074.643567	22079.371292
8.035500	-0.000123	0.000353	-0.002587	0.000211	6718.373801	40218.344445	4067.594030	22042.696781
8.535500	-0.000612	-0.000178	0.003932	-0.000325	6718.761904	40218.724263	4083.503202	22066.064254
9.035500	0.001757	0.000666	-0.001628	0.001031	6727.160007	40175.008489	4067.903499	22006.953083
9.536500	-0.000184	-0.000557	0.000000	-0.000681	6725.257486	40216.769891	4075.406688	22081.593377
10.036000	0.000248	-0.000440	-0.000980	-0.000595	6728.130291	40219.369586	4073.005230	22077.818561
10.536500	0.001308	0.000280	-0.006721	0.000562	6727.325773	40182.187886	4057.614175	22027.390012
11.037000	0.000000	0.000514	0.000892	0.000562	6716.480716	40202.080443	4074.614270	22027.378823
11.537000	-0.001174	0.000000	0.001763	0.000000	6711.419512	40206.195035	4077.848582	22051.874137
12.040000	0.000469	0.000855	-0.002655	-0.000031	6725.289799	40281.848551	4067.984713	22053.237393
12.535000	0.001661	0.000061	0.001827	0.000365	6731.897685	40180.262134	4077.170583	22035.978903
13.035000	0.000516	-0.000964	-0.004347	-0.000225	6727.281107	40143.167721	4064.636515	22061.679343
13.535500	0.000031	0.000143	0.000005	0.000794	6714.817282	40150.717689	4072.097031	22017.285539
14.035500	-0.000463	0.000714	-0.005690	0.002893	6693.426140	40020.788265	4054.739750	21926.142109
14.536000	-0.001372	-0.000488	-0.003471	0.002478	6689.362492	39953.995341	4060.571845	21944.135378
15.036500	-0.000839	-0.000542	-0.003629	0.000236	6712.239445	40139.864712	4065.211575	22041.595648
15.536500	-0.001010	-0.000013	-0.001154	0.000857	6705.695642	40132.056709	4069.356409	22014.546967
16.036500	0.002344	0.000829	-0.002181	0.001677	6726.676793	40133.982572	4065.227876	21978.907348
16.537500	0.000699	0.001224	-0.002250	0.002654	6704.969881	40084.429903	4062.894946	21936.500282
17.037500	0.005291	0.001534	0.004545	-0.001482	6777.723629	40464.446829	4087.534891	22116.610507
17.535000	0.000872	0.000241	-0.001824	0.001070	6719.498337	40135.521602	4067.380200	22005.289233
18.035500	0.000674	0.000852	-0.000365	0.002364	6707.160306	40077.480359	4067.750003	21949.089054
18.535500	-0.000068	-0.000300	-0.002053	0.001237	6710.329413	40075.268466	4066.492434	21997.992996
19.035500	0.001959	0.000266	-0.003044	0.002160	6719.469483	40044.920860	4062.226415	21957.914109
19.536000	-0.001931	-0.000095	-0.001339	0.001612	6691.879803	40060.835257	4067.251803	21981.692425
20.039000	-0.001907	-0.000284	-0.002817	0.001250	6695.065710	40075.594835	4064.761228	21997.455275
20.536500	0.000197	0.000557	-0.002122	0.002374	6703.134802	40051.431680	4063.803300	21948.625633
21.037500	0.000972	-0.000141	-0.004902	0.001875	6713.657715	40034.554746	4058.735153	21970.289761
21.540000	-0.000861	0.000364	-0.001534	0.002017	6697.357372	40065.420653	4065.911435	21964.126689
22.037500	-0.001403	-0.000283	-0.002523	0.000960	6701.607636	40100.360028	4066.064414	22010.078822
22.534500	-0.001350	-0.000346	-0.001630	0.001428	6698.182741	40055.202306	4067.011980	21989.717155
23.035500	0.001068	0.000023	-0.002254	0.001645	6716.360061	40068.081122	4065.134560	21980.287360
23.536000	-0.001414	-0.000658	-0.004961	0.001324	6698.513086	40037.435052	4059.824199	21994.217095
24.035500	-0.001593	-0.000237	0.001811	0.001711	6693.852881	40040.306697	4074.098028	21977.403108
24.536500	0.000081	0.000039	0.000330	0.001409	6710.143440	40089.443787	4071.445404	21990.519526
25.036000	0.000636	-0.000584	-0.003554	0.001204	6716.430962	40053.957125	4063.220338	21999.461743
25.536500	0.000065	-0.000533	-0.000922	0.001175	6711.947046	40060.725612	4069.163925	22000.713008
26.037500	-0.001337	0.000203	-0.001625	0.002081	6692.908635	40046.309194	4065.563872	21961.335119
26.537500	0.000425	0.000363	-0.000857	0.001900	6708.928585	40075.321951	4067.685090	21969.208151
27.035000	0.001807	0.000179	0.000575	-0.000643	6741.497451	40276.333869	4076.617901	22079.919812
27.539500	-0.000990	-0.000596	0.001334	-0.001046	6721.602446	40244.581669	4079.243930	22097.530816
28.035500	0.000172	0.000383	-0.001652	0.001073	6713.675403	40147.308406	4067.755719	22005.127369
28.536000	-0.000104	0.000068	0.003277	0.000673	6714.694502	40154.537590	4079.750032	22022.531240
29.036000	0.001883	0.000302	-0.001184	0.000751	6730.535346	40167.860531	4069.526293	22019.152642
29.536500	0.002160	0.000054	0.002088	0.001108	6729.862403	40116.389269	4076.079351	22003.607426
30.036500	-0.000084	-0.000476	0.005668	0.000190	6718.860870	40149.410417	4086.281676	22043.570473
30.536500	-0.001006	-0.000137	-0.001486	0.002150	6695.072824	40011.540456	4065.720672	21958.346521
31.034000	-0.001277	0.000075	-0.003438	0.001967	6694.348151	40045.158075	4061.779373	21966.297731
31.534500	0.003854	0.001930	0.001235	0.002092	6735.773531	40192.372267	4071.945481	21960.873714
32.035000	0.000993	-0.000009	-0.001158	0.000673	6723.789412	40148.036457	4069.760555	22022.560118
32.535000	-0.001582	0.000117	-0.004777	0.000925	6700.408690	40137.288345	4061.119105	22011.561226
33.035500	0.000109	0.000355	-0.004521	0.000621	6716.896884	40183.500945	4062.364951	22024.803169
33.536000	0.001105	-0.000247	0.001676	-0.002087	6747.693320	40363.492204	4082.380124	22143.099809
34.036000	-0.002646	0.000680	-0.005898	0.002424	6679.356243	40057.706547	4055.316618	21946.462114
34.536500	-0.002052	-0.000033	-0.002182	0.003977	6671.500200	39865.645017	4060.105041	21879.239007
35.037000	-0.000303	-0.000222	-0.000454	0.002056	6701.636540	40012.338894	4068.239047	21962.434595
35.537000	0.000351	0.000444	0.001288	0.002421	6704.021585	40037.940079	4071.325046	21946.612575
36.034500	0.000412	0.000054	-0.000189	0.002161	6706.668049	40026.854684	4068.594425	21957.856445
36.535000	-0.002033	-0.000061	-0.007309	0.003825	6672.908539	39876.138465	4049.128320	21885.838791
37.035500	-0.001855	-0.000147	-0.002350	0.002005	6689.279931	40023.022314	4064.117571	21964.647598
37.535000	-0.002331	-0.000025	-0.004632	0.002168	6684.032012	40019.553796	4058.683683	21957.561686
38.035500	-0.000877	0.000002	-0.004012	0.002653	6691.990182	39980.667096	4058.982032	21936.532077
38.536500	-0.000494	0.000300	-0.004535	0.002147	6699.308068	40048.950912	4058.944541	21958.466600
39.036000	-0.000085	0.000736	0.006251	0.003339	6692.865354	39984.749297	4080.449221	21906.836933
39.536500	0.000725	0.000616	0.000068	0.002699	6704.808612	40028.849211	4067.967138	21934.543146
40.039500	0.000397	0.000367	-0.000566	0.002669	6702.356372	40010.374744	4066.617613	21935.867145
40.539500	0.001287	0.000128	-0.003790	0.002672	6709.675740	39989.718285	4059.433205	21935.708198
41.037500	0.000452	0.000176	-0.000473	0.003052	6699.642365	39961.596360	4065.967862	21919.239264
41.535000	-0.000576	-0.000596	-0.004393	0.001802	6701.474579	40002.196920	4060.025927	21973.456079
42.035500	-0.000708	0.000575	-0.001800	0.003160	6689.214613	39986.341539	4062.771575	21914.592048
42.536000	-0.000296	-0.000603	-0.008597	0.002373	6699.084544	39953.200456	4049.486332	21948.690637
43.036000	-0.000526	0.000340	-0.002391	0.002764	6693.969040	39999.970799	4062.336927	21931.724172
43.536000	-0.000248	0.000478	-0.001948	0.001572	6706.078804	40112.983300	4065.979585	21983.437372
44.036000	0.003515	0.000977	0.003034	-0.002147	6768.383109	40473.671181	4085.606019	22145.733699
44.537000	-0.000373	0.000194	-0.000808	0.000605	6713.034082	40171.071491	4070.695280	22025.493129
45.039500	0.000994	0.000369	-0.007260	0.001315	6718.472964	40125.585953	4054.758238	21994.616956
45.537000	0.000355	0.000797	-0.000133	0.001651	6710.406491	40133.332945	4069.864164	21980.000148
46.037500	0.000693	0.000031	-0.002295	0.000907	6719.371555	40131.578526	4066.692062	22012.384952
46.535500	0.000815	0.000352	-0.001189	0.000804	6721.225015	40167.666767	4069.394659	22016.835981
47.035500	-0.000380	0.000389	-0.002559	0.002881	6694.202643	39994.138885	4061.702066	21926.648004
47.536000	0.000633	-0.000073	-0.004335	0.002764	6703.511887	39964.969992	4058.021401	21931.730610
48.036000	0.001682	0.000426	-0.002528	0.001417	6723.329765	40121.754884	4065.031485	21990.176757
48.535500	0.000167	0.000086	0.002199	0.001070	6713.660729	40122.393395	4076.418049	22005.295549
49.036500	0.001919	-0.000290	0.002298	0.000741	6730.917767	40118.292279	4077.384034	22019.582374
49.537000	0.002541	-0.000218	-0.000816	-0.002052	6759.410040	40363.025373	4076.658697	22141.568165
50.037000	0.003199	0.000049	0.003321	-0.000640	6753.104287	40265.021385	4082.830247	22079.796212
50.535000	-0.000765	-0.000671	0.002536	0.011058	6624.449668	39218.868625	4054.874913	21575.763045
51.034500	-0.028220	-0.000552	-0.001158	0.347558	4636.493683	19776.106329	3534.210366	11621.221157
51.535500	-0.049593	-0.002341	-0.025890	-0.045636	6688.478822	44090.444210	4119.348812	24150.116748
52.035500	-0.044991	-0.072673	-0.014285	-0.293965	9507.875741	64829.289425	4957.729937	40378.042457
52.535500	-0.033429	-0.107965	-0.000879	-0.334198	10316.874813	65535.000000	5202.445087	43995.101683
53.036000	-0.024903	-0.075524	0.009913	-0.296220	9845.071232	64744.793701	5074.642693	40572.084068
53.536500	-0.011133	-0.045951	0.011692	-0.253989	9418.532611	62975.541427	4898.684297	37101.152287
54.039500	-0.005863	-0.028852	0.021224	-0.219235	9005.205168	60592.506626	4796.988530	34487.432579
54.539500	0.005336	-0.020790	0.019923	-0.202665	8932.875098	59477.962236	4728.419837	33312.924747
55.037000	0.019641	-0.017732	0.030663	-0.204150	9148.063383	60070.334967	4775.020662	33416.366046
55.537500	0.035489	-0.004220	0.043177	-0.166283	8850.119300	56966.310208	4679.822129	30886.229659
56.035000	0.045027	0.005647	0.051832	-0.111260	8280.452201	51652.075986	4519.458323	27581.456167
56.535500	0.049890	0.012053	0.052857	-0.055449	7709.349044	46437.074783	4350.779459	24630.859384
57.036000	0.061547	0.018565	0.069671	-0.013828	7403.447335	43075.534630	4281.125919	22664.525505
57.536000	0.068581	0.023119	0.076879	0.032077	7036.814832	39449.719386	4180.113333	20703.570819
58.036000	0.076824	0.027876	0.083137	0.063127	6836.488313	37317.463772	4119.972329	19489.937719
58.537000	0.079846	0.031842	0.089510	0.095755	6591.640578	35135.490290	4059.913005	18304.736438
59.037000	0.086468	0.034777	0.100683	0.112276	6513.439450	34150.470714	4048.121090	17737.759736
59.537500	0.093579	0.038146	0.100081	0.145934	6312.284598	32062.255468	3975.913734	16647.258079
60.037000	0.099198	0.039661	0.106362	0.142680	6378.151499	32381.463932	3995.440087	16749.019429
60.535000	0.099368	0.041059	0.107891	0.135372	6434.720570	32973.289284	4013.925403	16980.395106
61.035500	0.106392	0.044268	0.113464	0.153896	6348.123759	31939.987305	3986.962426	16401.395992
61.536500	0.109272	0.047796	0.115938	0.148112	6413.149482	32563.941159	4004.061621	16579.545981
62.036000	0.117408	0.049471	0.104212	0.147266	6481.945613	32735.151385	3981.599682	16605.793467
62.536500	0.116528	0.049091	0.106941	0.151034	6446.169793	32453.969458	3979.484850	16489.266138
63.036500	0.121422	0.050725	0.109410	0.151369	6481.258292	32541.720766	3983.836009	16478.954137
63.542500	0.124857	0.051376	0.110966	0.152796	6496.833664	32489.296341	3984.100327	16435.106750
64.045500	0.126246	0.052241	0.117792	0.155660	6485.387751	32354.511712	3992.236364	16347.548327
64.537500	0.128719	0.051706	0.120849	0.158058	6485.962174	32157.989957	3993.597766	16274.671210
65.034500	0.127385	0.051450	0.119677	0.159741	6462.668312	32028.724991	3987.716458	16223.770066
65.535500	0.126141	0.051155	0.123765	0.161604	6438.848646	31885.647327	3992.297661	16167.666687
66.035500	0.126994	0.050888	0.119141	0.163525	6430.699018	31741.233460	3978.893333	16110.045649
66.536000	0.124635	0.050734	0.119961	0.170039	6363.772009	31305.678561	3967.396326	15916.591839
67.036000	0.130260	0.050060	0.125532	0.167761	6423.322534	31409.873517	3983.285513	15983.929579
67.536000	0.132219	0.050681	0.124260	0.170875	6414.550557	31248.154100	3974.371259	15891.982152
68.036000	0.130392	0.050227	0.123231	0.172574	6387.918216	31109.211299	3968.872079	15842.094185
68.536500	0.133297	0.050689	0.125071	0.174542	6394.969938	31012.382966	3968.614148	15784.526061
69.037000	0.132824	0.050122	0.122757	0.175616	6383.332568	30907.276138	3961.834712	15753.237303
69.534500	0.133149	0.051044	0.129573	0.176659	6377.942155	30899.572323	3973.418046	15722.917775
70.034500	0.133723	0.049580	0.129555	0.176446	6383.849578	30819.753348	3973.812793	15729.101240
70.535000	0.132146	0.050433	0.128268	0.178357	6357.749563	30752.430934	3967.374378	15673.720518
71.035000	0.134390	0.049436	0.130643	0.178621	6372.541268	30672.464155	3971.619827	15666.108495
71.535500	0.134240	0.049336	0.130254	0.179658	6363.663459	30600.492642	3968.749534	15636.168374
72.036000	0.136170	0.049112	0.126242	0.180654	6370.648628	30523.497612	3958.745563	15607.480596
72.536000	0.135254	0.048945	0.132988	0.181911	6354.429019	30433.893135	3969.715967	15571.375875
73.036000	0.137051	0.048227	0.128692	0.181753	6369.017655	30398.765253	3961.433958	15575.910528
73.539500	0.133853	0.048057	0.130104	0.182416	6340.270731	30346.505112	3962.926839	15556.890426
74.034500	0.136194	0.046967	0.126955	0.181864	6361.786234	30312.854278	3957.759748	15572.721893
74.534500	0.136234	0.048395	0.124719	0.183575	6349.338960	30295.128149	3949.963390	15523.725934
75.035000	0.135885	0.046593	0.130727	0.182881	6351.903704	30225.980417	3963.240440	15543.568020
75.535000	0.136808	0.047273	0.133173	0.184339	6347.923952	30177.534226	3965.215531	15501.915583
76.035500	0.139322	0.045957	0.128360	0.184696	6363.992716	30073.667269	3954.934314	15491.752874
76.539000	0.136367	0.045511	0.130228	0.189355	6307.637683	29759.058118	3949.431674	15359.673257
77.036000	0.140626	0.045218	0.129918	0.186495	6360.298595	29916.754258	3954.455564	15440.565212
77.536500	0.137322	0.045897	0.135694	0.187598	6327.597067	29890.647222	3963.741722	15409.310204
78.039500	0.138302	0.044353	0.132920	0.187871	6332.821072	29779.046128	3957.676192	15401.592178
78.537000	0.138071	0.045045	0.135809	0.189741	6317.320258	29706.868253	3959.699223	15348.787860
79.037500	0.137330	0.044554	0.137661	0.190455	6306.627774	29633.286408	3961.964538	15328.687956
79.537500	0.140074	0.042781	0.137139	0.190019	6330.037796	29551.924776	3961.793536	15340.965244
80.035000	0.140087	0.043017	0.130136	0.192419	6312.456984	29420.716021	3943.254874	15273.598053
80.535500	0.138889	0.043261	0.137406	0.192694	6301.643697	29418.841410	3957.007592	15265.880837
81.036000	0.140084	0.042050	0.135132	0.193832	6302.060902	29277.153325	3950.271586	15234.085283
81.536000	0.139057	0.041904	0.138715	0.194782	6287.617033	29211.317739	3955.464670	15207.606720
82.036500	0.139866	0.042232	0.134921	0.195698	6286.837120	29176.051390	3946.197895	15182.136188
82.539500	0.141298	0.040727	0.134240	0.196543	6291.117869	29035.650950	3943.214835	15158.679767
83.036500	0.140755	0.040520	0.136202	0.197503	6280.167276	28966.176665	3945.171662	15132.083019
83.540000	0.137272	0.039312	0.136592	0.196902	6259.270169	28930.105709	3947.110759	15148.713726
84.034500	0.137129	0.038304	0.140214	0.197743	6252.167061	28820.614572	3952.578231	15125.439891
84.535000	0.137027	0.038912	0.141110	0.201460	6224.752288	28637.457635	3947.032316	15023.069830
85.035500	0.137661	0.038365	0.140979	0.201145	6231.543084	28623.868749	3947.392273	15031.712024
85.535500	0.136904	0.037355	0.138543	0.201900	6220.731922	28520.571510	3941.161904	15011.007229
86.036000	0.138798	0.038189	0.138707	0.203608	6222.066691	28469.598281	3938.163971	14964.336532
86.538500	0.139733	0.038057	0.138808	0.204877	6219.674531	28388.046529	3935.900825	14929.745223
87.036500	0.137419	0.035778	0.140242	0.204891	6203.114498	28255.134954	3938.652102	14929.361997
87.539500	0.138869	0.036073	0.144380	0.206869	6199.369239	28158.082224	3942.853363	14875.684589
88.037000	0.139359	0.035892	0.144200	0.208586	6190.685259	28049.080605	3939.162404	14829.285731
88.537000	0.141454	0.035309	0.141919	0.209709	6197.560988	27951.408718	3932.581167	14799.018787
89.038000	0.137698	0.034430	0.146946	0.210531	6165.299146	27854.496853	3940.718167	14776.925318
89.537500	0.138948	0.034250	0.149578	0.211152	6169.715225	27808.982384	3944.637312	14760.262663
90.035000	0.139108	0.033344	0.144089	0.212086	6164.284989	27704.766077	3932.183494	14735.252397
90.535500	0.139224	0.032888	0.139727	0.212717	6160.676689	27643.310057	3922.625428	14718.364951
91.035500	0.139234	0.033074	0.142581	0.214137	6150.826126	27573.862286	3925.359422	14680.485137
91.536000	0.139194	0.033410	0.147640	0.215448	6141.418115	27519.094388	3932.545775	14645.633332
92.036500	0.139091	0.031885	0.146684	0.215763	6138.506969	27416.045003	3930.101712	14637.264121
92.537000	0.139149	0.031080	0.146627	0.218383	6120.764097	27225.448822	3924.977001	14567.961753
93.037500	0.141033	0.030358	0.147572	0.217565	6139.482983	27230.801857	3928.348645	14589.559342
93.534500	0.140954	0.030636	0.146492	0.219193	6127.644965	27156.063197	3923.176596	14546.621353
94.035000	0.141344	0.030280	0.149079	0.219573	6127.712852	27115.477377	3927.390630	14536.637441
94.535000	0.139673	0.029622	0.151931	0.220783	6107.833214	27012.602731	3930.539286	14504.850488
95.035000	0.141940	0.029998	0.147921	0.221745	6116.824366	26980.448539	3921.042381	14479.655345
95.536000	0.141849	0.028884	0.145041	0.222948	6107.906239	26853.592213	3913.321678	14448.196695
96.035500	0.139303	0.028821	0.153096	0.223664	6085.557166	26811.133211	3927.247962	14429.533591
