sample name	sample
index	1154
start time	 04-22-2021  03:41:25 PM
880	0.244341
Peak Time (s)	101.539
Peak Height 	0.2443
calc peak height	100,103
Baseline Time (s)	11.534
Baseline Value 	-0.003124
subtract baseline	10,4
Abs	0.150369
Peak Time (s)	100.535
Peak Height 	0.1504
calc peak height	100,103
Baseline Time (s)	9.536
Baseline Value 	0.004382
subtract baseline	10,3
PK_550	0.099575
Peak Time (s)	100.535
Peak Height 	0.09957
calc peak height	100,103
Baseline Time (s)	9.536
Baseline Value 	5.0602E-4
subtract baseline	10,2
PK_880	0.145470
Peak Time (s)	102.037
Peak Height 	0.1455
calc peak height	100,103
Baseline Time (s)	10.536
Baseline Value 	7.5721E-4
subtract baseline	10,1


Time (s)	A880-A510	A880-A775	A880-A975	A880	I510	I775	I975	I880	
0.035500	-0.004007	-0.001345	-0.003746	0.005045	6203.252447	42776.086666	3904.297652	22484.867122
0.536500	-0.002149	-0.000631	-0.004902	0.005127	6216.578746	42833.985233	3901.507541	22481.188892
1.036500	-0.001994	-0.000945	-0.004591	0.003529	6229.789183	42951.910286	3905.814960	22553.180043
1.536500	-0.001257	-0.000033	-0.004354	0.001625	6249.791700	43211.776625	3910.673409	22639.322748
2.037000	-0.004099	-0.001225	-0.003774	0.003803	6211.875704	42901.041171	3907.046381	22540.825271
2.540000	-0.002622	-0.000235	-0.000579	0.001586	6239.735302	43196.647518	3919.381201	22641.094380
3.037500	0.001216	0.000987	-0.002961	-0.000569	6285.432883	43510.336246	3918.860381	22739.026344
3.535500	0.000284	0.000329	-0.002166	0.000403	6270.844444	43358.608636	3918.455409	22694.786163
4.035000	-0.004131	-0.000801	-0.007598	0.004531	6206.175797	42873.132694	3896.788610	22508.018343
4.536000	-0.002310	-0.000808	0.000109	0.000002	6254.127391	43290.388944	3924.607198	22713.056928
5.036500	0.000847	0.000143	0.001532	0.000260	6276.251409	43354.733456	3927.296935	22701.317026
5.536000	-0.001655	-0.000436	-0.003415	0.000674	6253.993296	43262.479277	3914.978727	22682.460055
6.037000	-0.000866	0.000736	-0.004148	0.000329	6262.635576	43403.403587	3914.093974	22698.172612
6.537000	-0.000248	0.000299	-0.001510	0.000105	6269.060601	43383.614120	3920.643951	22708.355568
7.037000	-0.000271	-0.000157	-0.004442	0.000104	6268.887820	43341.280069	3913.936193	22708.393978
7.537500	-0.000474	-0.000040	-0.004687	0.000126	6267.166726	43350.102868	3913.324914	22707.375599
8.037500	-0.002045	-0.000176	-0.001847	0.000307	6253.819428	43320.687770	3919.407125	22699.161784
8.534500	-0.000835	-0.000050	-0.001818	-0.000003	6265.400423	43361.124468	3920.184515	22713.244028
9.035500	0.001267	0.000418	-0.000140	0.000308	6279.101387	43375.780537	3923.327612	22699.111246
9.535500	0.000104	0.000000	0.000000	-0.000631	6277.383060	43424.206916	3925.815776	22741.861478
10.035500	0.001041	0.000353	0.000542	0.000071	6279.180441	43391.734887	3925.445594	22709.886487
10.536000	0.000000	-0.000296	0.000100	-0.000460	6275.280137	43380.808448	3925.653708	22734.085995
11.036500	-0.000358	0.000391	0.005381	0.000243	6267.159858	43379.222871	3936.273710	22702.052261
11.534000	-0.002046	-0.000307	-0.002966	0.000000	6256.147653	43337.024228	3917.547366	22713.126714
12.037500	-0.001685	-0.000357	0.000544	-0.000126	6259.861983	43344.091930	3925.904961	22718.864805
12.534500	0.002768	-0.000337	-0.004375	-0.000758	6298.833443	43404.721608	3916.058082	22747.659725
13.035000	0.001494	0.000412	0.000033	-0.000086	6283.867326	43411.849589	3924.634172	22717.049890
13.536500	-0.001148	0.000577	-0.003828	0.000657	6257.985499	43358.035091	3914.073989	22683.242363
14.035500	-0.000523	-0.000061	-0.002506	0.002019	6252.376998	43172.727729	3913.983220	22621.461236
14.536500	-0.000774	-0.000190	-0.005494	0.001948	6251.005271	43167.276970	3907.349619	22624.662596
15.036000	-0.000532	-0.000298	-0.007586	-0.000724	6273.224153	43405.106443	3908.667815	22746.100135
15.536500	-0.000463	-0.000331	-0.003038	-0.000177	6269.568817	43351.162031	3917.786138	22721.174998
16.037000	-0.004205	-0.000339	-0.001731	0.005349	6199.499825	42840.414624	3908.173074	22471.218215
16.542000	0.002529	0.000335	-0.000015	0.000275	6289.040095	43371.082218	3923.691632	22700.604870
17.037000	-0.000960	-0.000571	-0.003887	-0.003820	6293.700399	43668.522453	3924.205687	22887.713778
17.537500	-0.001482	-0.000199	-0.001220	0.000637	6255.591215	43287.881993	3920.088876	22684.164637
18.035000	0.000144	0.000993	-0.003179	0.001465	6261.675718	43321.719046	3913.713498	22646.583493
18.535000	-0.000868	-0.000031	-0.005556	0.000381	6262.221829	43327.216516	3910.767998	22695.791550
19.035500	0.000401	0.000441	-0.007370	0.000686	6269.580082	43342.730916	3905.959969	22681.919868
19.535500	-0.000141	0.000340	-0.000172	0.000849	6264.198909	43318.306870	3922.010535	22674.549241
20.036000	-0.001021	-0.000261	-0.003497	0.000226	6262.234527	43320.307440	3915.814955	22702.839411
20.536500	-0.003986	-0.000406	-0.005820	-0.000023	6241.586142	43329.952077	3911.086643	22714.166996
21.037000	-0.001865	-0.000166	0.000388	0.000224	6255.823632	43329.281723	3924.738229	22702.946919
21.537500	-0.000958	0.000411	-0.003193	0.000908	6257.517601	43319.401519	3914.950858	22671.850888
22.034000	-0.004874	-0.001542	-0.005134	-0.000881	6241.357332	43304.086651	3914.603811	22753.241367
22.535000	-0.001116	0.000960	-0.001582	0.001198	6254.111729	43343.441682	3917.972168	22658.693081
23.036000	0.001109	-0.000602	0.000498	-0.000034	6280.504192	43312.733557	3925.587229	22714.658899
23.535000	-0.000869	0.000482	0.001931	0.000502	6261.289986	43363.672601	3927.659457	22690.283213
24.036000	-0.001394	-0.000335	-0.003313	-0.000044	6261.450069	43338.548336	3916.852308	22715.135800
24.536500	0.000111	-0.000219	0.000731	-0.000250	6274.525077	43368.423233	3926.623980	22724.525948
25.036000	0.000258	-0.000046	0.001272	-0.000049	6274.107971	43365.758242	3927.410546	22715.351296
25.537000	-0.001682	-0.000679	-0.001886	-0.000507	6262.782813	43349.609359	3921.187390	22736.218017
26.040000	0.000901	0.000173	-0.003048	0.000111	6277.803526	43371.226982	3917.104456	22708.066821
26.537000	-0.000019	0.000305	0.000932	0.000266	6269.575981	43369.148684	3925.894822	22701.010328
27.037500	0.000035	0.000145	0.002454	-0.002505	6291.235757	43612.561541	3935.857997	22827.451509
27.535000	-0.001431	0.000358	-0.001716	-0.001211	6270.075748	43511.626838	3923.198233	22768.328997
28.035500	-0.001396	0.000240	0.002681	0.003944	6231.166295	43022.744871	3921.451397	22534.448116
28.538500	0.000232	-0.000193	0.003214	-0.000854	6280.072115	43427.039523	3933.781638	22752.027464
29.036000	-0.001277	-0.000563	-0.002408	-0.001394	6272.647210	43442.762665	3922.024065	22776.638863
29.536000	0.001540	0.000783	-0.000477	-0.000376	6286.446250	43473.335217	3924.128380	22730.247374
30.037000	-0.003687	-0.000380	-0.005900	0.003148	6219.898945	43038.999095	3903.719063	22570.376568
30.537500	-0.000663	0.000379	-0.004144	0.001591	6254.565348	43253.134716	3911.227210	22640.875242
31.037000	0.000215	-0.000406	-0.001188	-0.000108	6274.225267	43337.816696	3921.873496	22718.036955
31.535000	-0.000080	0.000224	-0.001357	-0.000905	6278.070183	43470.555455	3923.318145	22754.357301
32.035000	-0.002876	-0.000521	0.000416	0.002673	6229.593772	43069.847590	3919.170384	22591.859523
32.535000	-0.001305	-0.000608	-0.002702	-0.001641	6274.327048	43461.605983	3921.916324	22787.937174
33.035500	0.001070	-0.000230	-0.000996	-0.002916	6302.373460	43615.866728	3928.795531	22846.245377
33.538500	-0.001289	-0.000656	-0.001256	0.000852	6255.424659	43225.640902	3919.511698	22674.373422
34.035000	-0.003491	-0.000856	-0.006897	0.002153	6228.883427	43086.968586	3903.716360	22615.415028
34.536500	-0.001574	0.001074	-0.001046	0.001672	6247.026260	43310.017918	3918.113561	22637.187205
35.036500	0.000771	-0.000898	0.003237	0.000362	6274.890502	43248.615768	3931.010513	22696.664912
35.540000	0.000368	0.000490	-0.002744	0.001498	6263.134354	43272.028589	3914.631095	22645.100067
36.037000	0.000106	0.000081	-0.001642	0.001822	6258.661110	43204.070282	3916.407832	22630.398251
36.534500	-0.002738	-0.000456	-0.000477	0.000087	6250.219775	43315.065751	3923.059990	22709.148370
37.035500	-0.000207	-0.000849	0.000284	0.000267	6268.130142	43261.937464	3924.399823	22700.969688
37.535000	-0.000640	-0.001118	-0.005112	0.000473	6263.261630	43217.999765	3911.568542	22691.617019
38.036000	-0.000909	-0.000832	-0.003755	0.000298	6262.541848	43260.736668	3915.062954	22699.591936
38.536000	-0.001442	-0.000255	0.001899	0.000467	6257.190221	43298.496290	3927.666894	22691.890873
39.036000	0.000045	-0.000373	-0.001594	0.000181	6270.718551	43314.130735	3920.278658	22704.909500
39.536500	-0.000270	0.000208	-0.001138	0.000954	6262.410273	43296.264237	3919.549568	22669.761369
40.036500	-0.001864	-0.000771	-0.003061	-0.000190	6258.982216	43311.626182	3917.765396	22721.791469
40.537500	-0.002152	-0.000048	-0.001811	0.000937	6248.217399	43274.102383	3918.044964	22670.515670
41.034500	-0.001881	-0.000338	-0.001488	0.000278	6255.291207	43308.276463	3920.297369	22700.471463
41.535000	-0.000226	-0.000067	-0.003298	0.000795	6263.957203	43285.522662	3914.971067	22676.991427
42.035000	-0.000554	-0.000692	-0.001737	0.000290	6265.309907	43274.424523	3919.699690	22699.948903
42.535500	-0.001576	-0.000087	0.000389	0.000546	6255.564633	43306.721337	3923.996143	22688.275997
43.036000	-0.000860	0.000278	-0.005425	0.000585	6260.720109	43336.953659	3910.600612	22686.507252
43.535500	-0.000164	-0.000331	-0.001254	-0.002811	6292.062212	43596.644856	3927.956309	22841.457200
44.038000	-0.003278	-0.000275	-0.003668	0.002998	6224.110027	43062.541373	3909.109899	22577.161466
44.536000	0.001111	0.000549	-0.003099	-0.000580	6284.708999	43470.517643	3918.570294	22739.516207
45.040000	0.000057	-0.000028	-0.000067	-0.001123	6280.794664	43467.420374	3926.798355	22764.313566
45.537500	-0.000810	0.000179	0.000003	0.001360	6255.210375	43255.969556	3921.237723	22651.355333
46.037000	-0.001571	0.000202	-0.001415	-0.000807	6265.916495	43459.368546	3922.959840	22749.877388
46.535000	0.001054	0.000346	0.001241	-0.001380	6290.426891	43526.290303	3930.422009	22776.043479
47.035500	-0.004551	-0.001019	0.004522	-0.000091	6237.827987	43279.324461	3935.049346	22717.253807
47.535500	-0.002907	-0.000186	0.000054	0.000925	6242.583057	43262.385985	3922.355551	22671.080976
48.036000	-0.001378	-0.000675	-0.003694	0.000330	6258.723810	43272.257912	3915.127333	22698.110617
48.535500	-0.001107	0.000174	-0.004162	-0.000651	6268.267942	43442.190035	3916.298215	22742.755922
49.036500	-0.001143	-0.000288	0.005313	-0.002680	6283.530361	43588.360958	3942.954494	22835.436111
49.536500	-0.000889	-0.000450	0.002821	-0.000220	6266.649123	43344.222504	3931.394673	22723.154512
50.037000	0.000009	0.001296	0.001094	0.003263	6246.965834	43183.226615	3919.373988	22565.213949
50.534500	0.021357	-0.020035	-0.008311	0.621174	3785.262885	12228.920176	3158.219824	7678.722562
51.035000	0.001996	-0.017664	-0.032863	0.028316	6076.465270	39311.335701	3792.817596	21465.721731
51.535500	-0.026584	-0.079248	-0.052533	-0.261074	8649.281651	64348.061413	4541.407567	39001.290801
52.035500	-0.004299	-0.111498	-0.019135	-0.301648	9536.745989	65535.000000	4841.886552	42531.610707
52.536000	-0.002781	-0.086637	-0.011920	-0.272855	9135.847538	64971.650006	4748.887078	39992.610825
53.036000	-0.008022	-0.067337	-0.018280	-0.247614	8716.610696	64129.742078	4620.766040	37901.103750
53.536000	-0.006393	-0.069484	-0.016437	-0.253376	8815.586201	64640.676437	4650.755216	38367.941435
54.036000	-0.010151	-0.045650	-0.016537	-0.215819	8283.369325	62723.637506	4507.274762	35433.834168
54.539500	-0.003603	-0.036998	-0.012863	-0.202193	8197.152811	62043.532034	4471.388356	34430.462879
55.037000	-0.002500	-0.038602	-0.006838	-0.204838	8242.639616	62185.299074	4502.609331	34622.821453
55.537000	-0.002648	-0.024398	-0.010224	-0.171168	7846.196276	59591.431862	4373.436962	32260.086744
56.035000	-0.001462	-0.014799	-0.007544	-0.127461	7389.600616	55317.668726	4242.714769	29453.991102
56.535000	0.002083	-0.009462	-0.004830	-0.100508	7156.680774	52777.913066	4171.090288	27859.180499
57.035500	0.006683	-0.004358	-0.000462	-0.067532	6890.660629	49684.312887	4091.541034	26037.932943
57.536000	0.010486	-0.001647	0.005296	-0.040962	6689.428354	47189.178593	4036.873751	24667.779414
58.036500	0.014478	0.002938	0.010631	-0.012934	6488.136542	44867.712605	3980.181853	23310.533728
58.536500	0.025593	0.006874	0.011871	0.009522	6396.952107	43120.179012	3929.789988	22284.544155
59.039500	0.027326	0.010668	0.020123	0.025682	6284.353802	41994.216083	3911.628342	21578.386496
59.537000	0.031977	0.013333	0.022164	0.053942	6107.967555	39763.056146	3853.723666	20404.841340
60.035000	0.038731	0.019369	0.031319	0.071845	6027.945132	38772.348778	3835.168479	19699.959761
60.535000	0.040041	0.022462	0.030529	0.091387	5901.437755	37443.234512	3793.460806	18963.033984
61.035000	0.050679	0.027339	0.043885	0.115342	5812.331292	35963.369730	3772.480939	18103.748363
61.535500	0.058523	0.033643	0.053163	0.115290	5864.838395	36449.168490	3790.922222	18105.561560
62.035500	0.064069	0.035778	0.061343	0.128629	5813.003099	35597.441589	3780.675863	17647.143593
62.535500	0.068672	0.039055	0.069436	0.147644	5719.581005	34437.739477	3759.382620	17017.590404
63.036500	0.078446	0.043703	0.073102	0.156428	5725.901581	34139.832869	3749.586987	16735.933424
63.537000	0.077116	0.045288	0.073049	0.162908	5676.445499	33790.933164	3737.249620	16531.790220
64.037000	0.084965	0.048698	0.080015	0.165836	5707.499403	33825.080144	3744.852580	16440.518135
64.534500	0.088895	0.050385	0.091688	0.183386	5622.386625	32719.886322	3733.810566	15906.269220
65.037000	0.097159	0.057504	0.094372	0.215906	5477.261155	31032.005293	3679.994763	14971.612163
65.537000	0.093581	0.057660	0.097186	0.223976	5410.398673	30525.963933	3670.891846	14750.297493
66.038500	0.094310	0.061413	0.101419	0.223992	5414.437913	30763.817741	3678.186921	14749.863882
66.535500	0.100290	0.063849	0.100521	0.221813	5461.160522	31060.302195	3680.415501	14809.205471
67.045000	0.102838	0.065932	0.101369	0.216028	5509.796176	31573.109022	3692.069620	14968.217655
67.536500	0.105946	0.067395	0.104587	0.210181	5563.106068	32057.896227	3708.284354	15131.096886
68.036500	0.102536	0.068647	0.107830	0.207562	5558.360238	32318.012286	3718.954154	15204.786723
68.539500	0.107220	0.069237	0.111855	0.205039	5601.988839	32528.859840	3731.040354	15276.180687
69.037000	0.108418	0.071383	0.109036	0.204027	5615.518257	32744.262815	3727.686820	15304.929193
69.537000	0.107495	0.074130	0.114172	0.202112	5621.609726	33065.234048	3740.854923	15359.534557
70.037500	0.110940	0.074386	0.115554	0.199944	5656.353552	33233.401278	3747.564644	15421.627863
70.535000	0.111955	0.075670	0.112277	0.197399	5678.630983	33501.097720	3746.176938	15494.933481
71.035500	0.115659	0.077094	0.114724	0.197187	5703.334468	33616.161383	3751.229611	15501.050919
71.535500	0.113196	0.077488	0.118449	0.195926	5695.726653	33733.021359	3760.791205	15537.544793
72.036000	0.113114	0.078042	0.113789	0.194441	5704.610491	33877.585941	3754.689457	15580.650274
72.536500	0.115294	0.080432	0.119878	0.194988	5714.985426	34008.868086	3765.368656	15564.760242
73.036000	0.114990	0.080694	0.118695	0.195436	5710.202194	33995.616263	3762.212408	15551.756326
73.536500	0.114849	0.081367	0.121388	0.197620	5695.466567	33887.991534	3763.195298	15488.551064
74.037500	0.117091	0.082441	0.120453	0.199505	5697.723348	33830.362225	3757.757502	15434.235165
74.534500	0.116732	0.082614	0.120142	0.199489	5695.557677	33843.796312	3757.192581	15434.698227
75.034500	0.116739	0.083295	0.126712	0.199939	5692.754093	33860.170142	3769.026410	15421.759735
75.535500	0.118917	0.084258	0.127367	0.201750	5695.076043	33800.040841	3766.779118	15369.887826
76.035500	0.119916	0.085216	0.130629	0.203994	5687.219901	33708.984144	3768.758185	15305.871500
76.535500	0.122250	0.087308	0.123584	0.205921	5689.785485	33720.642388	3751.471309	15251.178120
77.036500	0.124429	0.086936	0.125822	0.206886	5697.456295	33626.280413	3753.902823	15223.884431
77.536000	0.123049	0.088368	0.124274	0.209375	5673.091653	33551.815553	3746.216238	15153.738601
78.039500	0.125257	0.087503	0.132107	0.210845	5677.721077	33388.010403	3758.361189	15112.491806
78.539500	0.123593	0.088143	0.123854	0.211556	5662.849232	33383.113944	3741.303393	15092.614105
79.037500	0.123530	0.088740	0.129721	0.213132	5652.633540	33314.681519	3749.423800	15048.621611
79.534500	0.122941	0.090646	0.123580	0.215915	5631.734753	33253.550294	3732.622731	14971.359785
80.035000	0.123850	0.090543	0.125098	0.217569	5627.141694	33131.465036	3732.368104	14925.669751
80.535000	0.123743	0.091650	0.125171	0.219651	5613.686044	33063.903722	3728.634386	14868.400266
81.035500	0.124829	0.092824	0.123193	0.222369	5603.697730	32957.229958	3719.973553	14794.046399
81.535500	0.123544	0.093105	0.126147	0.224321	5583.994578	32842.216778	3721.811674	14740.922116
82.036000	0.124896	0.092518	0.127040	0.227664	5571.950872	32573.520225	3717.321600	14650.528236
82.537000	0.126020	0.092467	0.130197	0.229645	5566.784774	32435.506856	3719.474974	14597.280499
83.037000	0.121827	0.090790	0.126207	0.228865	5546.303637	32374.723021	3713.610053	14618.197033
83.537000	0.128480	0.093289	0.128179	0.232418	5564.897816	32303.603467	3710.739313	14523.152324
84.037000	0.125636	0.092493	0.123621	0.232333	5548.340994	32255.626560	3702.667897	14525.401697
84.535000	0.124438	0.092930	0.129563	0.232664	5539.213524	32262.823920	3712.804328	14516.592132
85.038000	0.126914	0.092818	0.131354	0.233426	5549.451400	32203.966844	3714.678512	14496.323177
85.535500	0.125652	0.093781	0.132861	0.234807	5533.683285	32175.886137	3714.906766	14459.668273
86.036000	0.131115	0.093947	0.133080	0.234860	5566.057926	32183.452384	3715.208644	14458.256380
86.536000	0.131647	0.093716	0.136799	0.234857	5569.278468	32168.125998	3722.025951	14458.329747
87.036500	0.131102	0.094154	0.132543	0.235454	5562.408865	32157.550684	3713.149860	14442.536965
87.542000	0.131042	0.095775	0.136197	0.237260	5551.209402	32145.090688	3716.518061	14394.833721
88.036500	0.129466	0.095145	0.129217	0.236110	5548.658789	32179.979727	3705.940441	14425.185647
88.537000	0.130483	0.095010	0.132723	0.235641	5557.564070	32202.454419	3713.137087	14437.590208
89.037500	0.134323	0.096144	0.130386	0.236615	5574.822986	32213.194620	3707.138880	14411.849280
89.535000	0.131719	0.096738	0.135263	0.237248	5555.339652	32210.581357	3714.836741	14395.172549
90.034500	0.131032	0.095836	0.132246	0.236343	5556.646258	32210.820787	3710.996039	14419.039484
90.535500	0.134445	0.097089	0.136359	0.237784	5568.508289	32198.176733	3715.857569	14381.052102
91.036000	0.134037	0.096414	0.135188	0.237162	5569.797158	32194.595640	3714.856347	14397.439757
91.536000	0.135491	0.097532	0.135798	0.239615	5563.778220	32105.026961	3711.503483	14332.961241
92.039000	0.134585	0.095749	0.135473	0.237797	5569.271155	32107.363275	3714.217200	14380.698595
92.537000	0.136457	0.097091	0.141072	0.238697	5575.138508	32136.959228	3722.823035	14357.031727
93.037500	0.135526	0.096353	0.135910	0.238154	5572.789433	32123.891995	3714.363551	14371.298579
93.534500	0.134937	0.096786	0.139312	0.239764	5559.547967	32045.093675	3717.634529	14329.040531
94.038000	0.134912	0.096912	0.137847	0.238638	5566.176408	32128.969235	3717.016554	14358.602689
94.534500	0.132255	0.096381	0.134579	0.237638	5556.216355	32160.392172	3712.881343	14384.895114
95.035500	0.136365	0.096944	0.130254	0.238439	5576.145205	32144.437126	3703.617339	14363.830372
95.535500	0.139280	0.098468	0.140994	0.240204	5583.101915	32128.231589	3719.909243	14317.518476
96.036000	0.139715	0.098932	0.138200	0.240566	5583.550791	32135.151176	3714.142664	14308.070572
96.536500	0.138355	0.097894	0.143223	0.238871	5585.577032	32179.147983	3726.470340	14352.460466
97.036500	0.139228	0.098608	0.144346	0.239679	5585.970965	32172.892542	3727.052544	14331.270949
