sample name	sample
index	1459
start time	 05-10-2021  01:50:56 PM


Wavelength (nm)	Absorbance
494.344910	0.020881
494.563924	0.020881
494.782919	0.020881
495.001897	-0.010416
495.220856	0.019106
495.439797	0.011953
495.658719	0.011415
495.877624	0.002791
496.096510	0.007068
496.315378	0.004171
496.534227	0.000748
496.753059	0.003611
496.971872	-0.002803
497.190667	0.046114
497.409444	0.071868
497.628203	0.084080
497.846943	0.087181
498.065665	0.089800
498.284369	0.092924
498.503055	0.094926
498.721723	0.095656
498.940372	0.096542
499.159003	0.097206
499.377616	0.097515
499.596210	0.095916
499.814787	0.096464
500.033345	0.096799
500.251885	0.096471
500.470406	0.096804
500.688910	0.096424
500.907395	0.095911
501.125862	0.095251
501.344311	0.094909
501.562742	0.095421
501.781154	0.096277
501.999548	0.096745
502.217924	0.096082
502.436282	0.095277
502.654621	0.095896
502.872942	0.096871
503.091245	0.097008
503.309530	0.097852
503.527797	0.098700
503.746045	0.098796
503.964275	0.097617
504.182487	0.098424
504.400681	0.098800
504.618856	0.098747
504.837013	0.098644
505.055152	0.099217
505.273273	0.098207
505.491376	0.097533
505.709460	0.097157
505.927526	0.097836
506.145574	0.097257
506.363604	0.097825
506.581615	0.098459
506.799608	0.098443
507.017583	0.097104
507.235540	0.097749
507.453478	0.097188
507.671399	0.097017
507.889301	0.098307
508.107185	0.098730
508.325050	0.098750
508.542898	0.098644
508.760727	0.098487
508.978538	0.099818
509.196330	0.100616
509.414105	0.101873
509.631861	0.102688
509.849599	0.101612
510.067319	0.101414
510.285021	0.100381
510.502704	0.100754
510.720369	0.100972
510.938016	0.101262
511.155645	0.100832
511.373255	0.100220
511.590848	0.100006
511.808422	0.100667
512.025977	0.101271
512.243515	0.102836
512.461034	0.102879
512.678536	0.102914
512.896018	0.102209
513.113483	0.101925
513.330930	0.102455
513.548358	0.102511
513.765768	0.101757
513.983160	0.102133
514.200533	0.101850
514.417889	0.101795
514.635226	0.102092
514.852545	0.102404
515.069845	0.102107
515.287128	0.101896
515.504392	0.102142
515.721638	0.102367
515.938866	0.102031
516.156075	0.101691
516.373267	0.100632
516.590440	0.100468
516.807594	0.100435
517.024731	0.100838
517.241850	0.100841
517.458950	0.100722
517.676032	0.100935
517.893095	0.100865
518.110141	0.101976
518.327168	0.102906
518.544177	0.103326
518.761168	0.103703
518.978141	0.104266
519.195095	0.103765
519.412031	0.104326
519.628949	0.104417
519.845849	0.104525
520.062731	0.104021
520.279594	0.104820
520.496439	0.104842
520.713266	0.105183
520.930074	0.104836
521.146865	0.105525
521.363637	0.106142
521.580391	0.105917
521.797127	0.106104
522.013844	0.105817
522.230543	0.105444
522.447224	0.106010
522.663887	0.106012
522.880532	0.106255
523.097158	0.106852
523.313766	0.106333
523.530356	0.106881
523.746928	0.106869
523.963481	0.107264
524.180017	0.107534
524.396534	0.107719
524.613032	0.107702
524.829513	0.108144
525.045975	0.107964
525.262420	0.108065
525.478845	0.107924
525.695253	0.108085
525.911643	0.107956
526.128014	0.107804
526.344367	0.107759
526.560702	0.107885
526.777018	0.107445
526.993316	0.107502
527.209597	0.107262
527.425858	0.107476
527.642102	0.107469
527.858328	0.107736
528.074535	0.107512
528.290724	0.107079
528.506894	0.107326
528.723047	0.107373
528.939181	0.107817
529.155297	0.107811
529.371395	0.108129
529.587475	0.108417
529.803536	0.108608
530.019579	0.109073
530.235604	0.110204
530.451611	0.110379
530.667600	0.111602
530.883570	0.111966
531.099522	0.112388
531.315456	0.112254
531.531372	0.112378
531.747269	0.112723
531.963148	0.112820
532.179009	0.112142
532.394852	0.112482
532.610676	0.112229
532.826482	0.112206
533.042271	0.112228
533.258040	0.112949
533.473792	0.112880
533.689525	0.113275
533.905240	0.114101
534.120937	0.114323
534.336616	0.114070
534.552277	0.114360
534.767919	0.114738
534.983543	0.115743
535.199149	0.115796
535.414736	0.116110
535.630306	0.115915
535.845857	0.116077
536.061390	0.116625
536.276904	0.117086
536.492401	0.117016
536.707879	0.117220
536.923339	0.116786
537.138781	0.116968
537.354204	0.117843
537.569610	0.117810
537.784997	0.117667
538.000366	0.117872
538.215716	0.118002
538.431049	0.118147
538.646363	0.117934
538.861659	0.117722
539.076937	0.117231
539.292196	0.117126
539.507438	0.117416
539.722661	0.116917
539.937866	0.116942
540.153052	0.117153
540.368221	0.117449
540.583371	0.117581
540.798503	0.118294
541.013617	0.118768
541.228712	0.118912
541.443789	0.119240
541.658848	0.119904
541.873889	0.119532
542.088912	0.119661
542.303916	0.119601
542.518902	0.120054
542.733870	0.119905
542.948820	0.119720
543.163752	0.119775
543.378665	0.119532
543.593560	0.119626
543.808437	0.120303
544.023295	0.120072
544.238136	0.120099
544.452958	0.120106
544.667762	0.120315
544.882548	0.121105
545.097315	0.121125
545.312064	0.121554
545.526795	0.121703
545.741508	0.121688
545.956203	0.122177
546.170879	0.122363
546.385537	0.122099
546.600177	0.122406
546.814799	0.122505
547.029402	0.122733
547.243988	0.122776
547.458555	0.123094
547.673103	0.123372
547.887634	0.123671
548.102146	0.124273
548.316640	0.124711
548.531116	0.124930
548.745574	0.124884
548.960013	0.125174
549.174435	0.125497
549.388838	0.125483
549.603222	0.125416
549.817589	0.124876
550.031937	0.124713
550.246267	0.124694
550.460579	0.124588
550.674873	0.124549
550.889148	0.124542
551.103405	0.124248
551.317644	0.124553
551.531865	0.124747
551.746068	0.125280
551.960252	0.125177
552.174418	0.125484
552.388566	0.125624
552.602696	0.125840
552.816807	0.126052
553.030900	0.126292
553.244975	0.125956
553.459032	0.126318
553.673070	0.126044
553.887091	0.126405
554.101093	0.126695
554.315077	0.126762
554.529042	0.127112
554.742990	0.126797
554.956919	0.127011
555.170830	0.127660
555.384722	0.127617
555.598597	0.127683
555.812453	0.127734
556.026291	0.127564
556.240111	0.127806
556.453913	0.127643
556.667696	0.128177
556.881461	0.128224
557.095208	0.127844
557.308937	0.127965
557.522647	0.128292
557.736339	0.128134
557.950013	0.128306
558.163669	0.128017
558.377307	0.127824
558.590926	0.127668
558.804527	0.127844
559.018110	0.127940
559.231675	0.127674
559.445221	0.127900
559.658749	0.128001
559.872259	0.127908
560.085751	0.127762
560.299225	0.128062
560.512680	0.127960
560.726117	0.127856
560.939536	0.127649
561.152937	0.127710
561.366319	0.127268
561.579683	0.127126
561.793029	0.127389
562.006357	0.128176
562.219667	0.128289
562.432958	0.128565
562.646231	0.128647
562.859486	0.129074
563.072723	0.129633
563.285941	0.130290
563.499141	0.130778
563.712323	0.130572
563.925487	0.130260
564.138632	0.130424
564.351760	0.130237
564.564869	0.130364
564.777960	0.130135
564.991032	0.129689
565.204087	0.129157
565.417123	0.128966
565.630141	0.129039
565.843140	0.128808
566.056122	0.128802
566.269085	0.128947
566.482030	0.128804
566.694957	0.129097
566.907866	0.129306
567.120756	0.129619
567.333628	0.129744
567.546482	0.129614
567.759318	0.130201
567.972135	0.130267
568.184935	0.130498
568.397716	0.130762
568.610478	0.130821
568.823223	0.130977
569.035949	0.130909
569.248657	0.131083
569.461347	0.131448
569.674019	0.131207
569.886672	0.130928
570.099308	0.130828
570.311925	0.130861
570.524523	0.131116
570.737104	0.131237
570.949666	0.131968
571.162210	0.131977
571.374736	0.131808
571.587244	0.131985
571.799733	0.132000
572.012205	0.132372
572.224658	0.132437
572.437092	0.132508
572.649509	0.132608
572.861907	0.132111
573.074287	0.132216
573.286649	0.132705
573.498993	0.132905
573.711318	0.133264
573.923625	0.132938
574.135914	0.132693
574.348185	0.132493
574.560438	0.132304
574.772672	0.132716
574.984888	0.133117
575.197086	0.133063
575.409266	0.133189
575.621427	0.133635
575.833570	0.133889
576.045695	0.134643
576.257802	0.135338
576.469890	0.135685
576.681961	0.135678
576.894013	0.135749
577.106046	0.136039
577.318062	0.135846
577.530059	0.135794
577.742039	0.136215
577.954000	0.136232
578.165942	0.136050
578.377867	0.136131
578.589773	0.136142
578.801661	0.136309
579.013531	0.136187
579.225382	0.136552
579.437216	0.136239
579.649031	0.135927
579.860828	0.136178
580.072606	0.135994
580.284367	0.135858
580.496109	0.135908
580.707833	0.135504
580.919539	0.135368
581.131227	0.135397
581.342896	0.135807
581.554547	0.136218
581.766180	0.136034
581.977795	0.136507
582.189391	0.136872
582.400969	0.137164
582.612529	0.137464
582.824071	0.137705
583.035595	0.137643
583.247100	0.137929
583.458587	0.137801
583.670056	0.137895
583.881506	0.137718
584.092939	0.137530
584.304353	0.137649
584.515749	0.137617
584.727127	0.137882
584.938486	0.138159
585.149828	0.138113
585.361151	0.138264
585.572456	0.138247
585.783742	0.138134
585.995011	0.138499
586.206261	0.138463
586.417493	0.138774
586.628706	0.138925
586.839902	0.138937
587.051079	0.139151
587.262238	0.139083
587.473379	0.138975
587.684502	0.139570
587.895606	0.139608
588.106692	0.140042
588.317760	0.139796
588.528810	0.140017
588.739841	0.140350
588.950855	0.140549
589.161850	0.140624
589.372827	0.141081
589.583785	0.140903
589.794726	0.141031
590.005648	0.141247
590.216552	0.141440
590.427437	0.141526
590.638305	0.141455
590.849154	0.141092
591.059985	0.141399
591.270798	0.141302
591.481592	0.141634
591.692369	0.141672
591.903127	0.141313
592.113867	0.141365
592.324588	0.141238
592.535292	0.141592
592.745977	0.141621
592.956644	0.141760
593.167293	0.141737
593.377923	0.141860
593.588536	0.141612
593.799130	0.141799
594.009706	0.141579
594.220263	0.141601
594.430803	0.141487
594.641324	0.141448
594.851827	0.141720
595.062312	0.141995
595.272778	0.141815
595.483227	0.142226
595.693657	0.142462
595.904069	0.142839
596.114462	0.143027
596.324838	0.142861
596.535195	0.143146
596.745534	0.142521
596.955855	0.142606
597.166157	0.142558
597.376441	0.142496
597.586707	0.142247
597.796955	0.142258
598.007185	0.141639
598.217396	0.141790
598.427589	0.141712
598.637764	0.141981
598.847921	0.142001
599.058060	0.142073
599.268180	0.142146
599.478282	0.142137
599.688366	0.142121
599.898431	0.142555
600.108479	0.142540
600.318508	0.142907
600.528519	0.142899
600.738511	0.142950
600.948486	0.142888
601.158442	0.143041
601.368380	0.143180
601.578300	0.143416
601.788202	0.143235
601.998085	0.143261
602.207950	0.143060
602.417797	0.143332
602.627626	0.142995
602.837436	0.143290
603.047228	0.143519
603.257002	0.143553
603.466758	0.143697
603.676496	0.144291
603.886215	0.144659
604.095916	0.144843
604.305599	0.145193
604.515264	0.145757
604.724910	0.145938
604.934538	0.145719
605.144148	0.145823
605.353740	0.146143
605.563314	0.146081
605.772869	0.145988
605.982406	0.145846
606.191925	0.145368
606.401425	0.145437
606.610908	0.145340
606.820372	0.145351
607.029818	0.145333
607.239246	0.144848
607.448655	0.144891
607.658047	0.145124
607.867420	0.145615
608.076775	0.146151
608.286111	0.145870
608.495430	0.145965
608.704730	0.146336
608.914012	0.146763
609.123275	0.146961
609.332521	0.146935
609.541748	0.146846
609.750957	0.146593
609.960148	0.146607
610.169321	0.146966
610.378475	0.147053
610.587611	0.147044
610.796729	0.146647
611.005829	0.146833
611.214910	0.147079
611.423974	0.147389
611.633019	0.147328
611.842045	0.147256
612.051054	0.147397
612.260044	0.147552
612.469017	0.147624
612.677970	0.147797
612.886906	0.147955
613.095824	0.148110
613.304723	0.147989
613.513604	0.148460
613.722467	0.148413
613.931311	0.148501
614.140138	0.148513
614.348946	0.148759
614.557736	0.149182
614.766507	0.149448
614.975261	0.149423
615.183996	0.149847
615.392713	0.149864
615.601412	0.150260
615.810092	0.150416
616.018754	0.150389
616.227399	0.150393
616.436024	0.150404
616.644632	0.150512
616.853222	0.150629
617.061793	0.150448
617.270346	0.150712
617.478880	0.150773
617.687397	0.150923
617.895895	0.150960
618.104375	0.151046
618.312837	0.151051
618.521281	0.151032
618.729706	0.151389
618.938113	0.151693
619.146502	0.151820
619.354873	0.151823
619.563226	0.151819
619.771560	0.151811
619.979876	0.151810
620.188174	0.152181
620.396453	0.152053
620.604715	0.151959
620.812958	0.151791
621.021183	0.151521
621.229390	0.151762
621.437578	0.151691
621.645748	0.152177
621.853900	0.152294
622.062034	0.151986
622.270150	0.152000
622.478247	0.151998
622.686326	0.152211
622.894387	0.152615
623.102430	0.152550
623.310454	0.152633
623.518461	0.152518
623.726449	0.152408
623.934418	0.152677
624.142370	0.152776
624.350303	0.152750
624.558218	0.152670
624.766115	0.152207
624.973994	0.152268
625.181855	0.152301
625.389697	0.152265
625.597521	0.152542
625.805327	0.152423
626.013114	0.152502
626.220883	0.152266
626.428634	0.152370
626.636367	0.152796
626.844082	0.152616
627.051778	0.152612
627.259457	0.152531
627.467117	0.152638
627.674758	0.152487
627.882382	0.152497
628.089987	0.153078
628.297574	0.153131
628.505143	0.153083
628.712694	0.153625
628.920226	0.153722
629.127740	0.154013
629.335236	0.153844
629.542714	0.154005
629.750174	0.154172
629.957615	0.153954
630.165038	0.153969
630.372443	0.153984
630.579829	0.153522
630.787198	0.153593
630.994548	0.153730
631.201880	0.153725
631.409194	0.153859
631.616489	0.153859
631.823766	0.153907
632.031025	0.153889
632.238266	0.154248
632.445489	0.154481
632.652693	0.154597
632.859879	0.154640
633.067047	0.154791
633.274197	0.155077
633.481329	0.155230
633.688442	0.155414
633.895537	0.155624
634.102614	0.155413
634.309672	0.155569
634.516713	0.155848
634.723735	0.155858
634.930739	0.156057
635.137724	0.156011
635.344692	0.156213
635.551641	0.156287
635.758572	0.156310
635.965485	0.156529
636.172379	0.156624
636.379256	0.156462
636.586114	0.156602
636.792954	0.156658
636.999775	0.156917
637.206579	0.157096
637.413364	0.157196
637.620131	0.157269
637.826880	0.157514
638.033610	0.157670
638.240323	0.158208
638.447017	0.158469
638.653692	0.158593
638.860350	0.158422
639.066990	0.158587
639.273611	0.158730
639.480214	0.158923
639.686798	0.159101
639.893365	0.159325
640.099913	0.159190
640.306443	0.159251
640.512955	0.159399
640.719449	0.159769
640.925924	0.159740
641.132381	0.159942
641.338820	0.160071
641.545241	0.160053
641.751644	0.159964
641.958028	0.159950
642.164394	0.160030
642.370742	0.160319
642.577071	0.160356
642.783383	0.160485
642.989676	0.160605
643.195951	0.161060
643.402207	0.161041
643.608446	0.161238
643.814666	0.161319
644.020868	0.161624
644.227052	0.161338
644.433218	0.161394
644.639365	0.161575
644.845494	0.161424
645.051605	0.161332
645.257698	0.161571
645.463772	0.161728
645.669828	0.161893
645.875866	0.161460
646.081886	0.161635
646.287888	0.161579
646.493871	0.161380
646.699836	0.161649
646.905783	0.161493
647.111712	0.161564
647.317622	0.161287
647.523514	0.161315
647.729388	0.161670
647.935244	0.161461
648.141082	0.161722
648.346901	0.161957
648.552702	0.161935
648.758485	0.161861
648.964250	0.162023
649.169996	0.162333
649.375724	0.162369
649.581434	0.162291
649.787126	0.162524
649.992800	0.162482
650.198455	0.162489
650.404092	0.162607
650.609711	0.162707
650.815311	0.162509
651.020894	0.162581
651.226458	0.162778
651.432004	0.162911
651.637532	0.162970
651.843041	0.163185
652.048532	0.162996
652.254006	0.163096
652.459460	0.163347
652.664897	0.163287
652.870315	0.163079
653.075716	0.162965
653.281097	0.163315
653.486461	0.163336
653.691807	0.163351
653.897134	0.163607
654.102443	0.163671
654.307734	0.163551
654.513006	0.163999
654.718261	0.164411
654.923497	0.164895
655.128715	0.164647
655.333915	0.164908
655.539096	0.164839
655.744259	0.164942
655.949404	0.165064
656.154531	0.165169
656.359640	0.165246
656.564730	0.165268
656.769802	0.165159
656.974856	0.165344
657.179892	0.165506
657.384909	0.165839
657.589908	0.166172
657.794889	0.166197
657.999852	0.166669
658.204797	0.166525
658.409723	0.166758
658.614631	0.166660
658.819521	0.166922
659.024393	0.166974
659.229246	0.166911
659.434081	0.166912
659.638898	0.167025
659.843697	0.167096
660.048478	0.167505
660.253240	0.167294
660.457984	0.167483
660.662710	0.167245
660.867417	0.167340
661.072107	0.167532
661.276778	0.167457
661.481431	0.167511
661.686066	0.167209
661.890682	0.166892
662.095281	0.167243
662.299861	0.167250
662.504422	0.167505
662.708966	0.167520
662.913491	0.167436
663.117999	0.167692
663.322488	0.167709
663.526958	0.167858
663.731411	0.168153
663.935845	0.168190
664.140261	0.168332
664.344659	0.168265
664.549038	0.168253
664.753400	0.168103
664.957743	0.168016
665.162068	0.168056
665.366375	0.168161
665.570663	0.168220
665.774933	0.168219
665.979185	0.168371
666.183419	0.168598
666.387635	0.168814
666.591832	0.169368
666.796011	0.169272
667.000172	0.169529
667.204315	0.169606
667.408439	0.169753
667.612545	0.169807
667.816634	0.169578
668.020703	0.169659
668.224755	0.169862
668.428788	0.169795
668.632803	0.170049
668.836800	0.170333
669.040779	0.170406
669.244739	0.170188
669.448681	0.170267
669.652605	0.170599
669.856511	0.170540
670.060399	0.170443
670.264268	0.170513
670.468119	0.170590
670.671952	0.170313
670.875767	0.170427
671.079563	0.170714
671.283341	0.171099
671.487101	0.171239
671.690843	0.171600
671.894567	0.171870
672.098272	0.172019
672.301959	0.172121
672.505628	0.172251
672.709278	0.172511
672.912911	0.172730
673.116525	0.172598
673.320121	0.172626
673.523699	0.172810
673.727258	0.172965
673.930799	0.172986
674.134322	0.173132
674.337827	0.173212
674.541314	0.173252
674.744782	0.173193
674.948232	0.173160
675.151664	0.173150
675.355078	0.172836
675.558474	0.172623
675.761851	0.172771
675.965210	0.172800
676.168551	0.172755
676.371873	0.172791
676.575178	0.172944
676.778464	0.173172
676.981732	0.173455
677.184981	0.173751
677.388213	0.173924
677.591426	0.173972
677.794621	0.174315
677.997798	0.174619
678.200956	0.174768
678.404097	0.174834
678.607219	0.175098
678.810323	0.174976
679.013408	0.175084
679.216476	0.175474
679.419525	0.175743
679.622556	0.175807
679.825569	0.176082
680.028563	0.176213
680.231540	0.176599
680.434498	0.176687
680.637438	0.176987
680.840359	0.177074
681.043263	0.176929
681.246148	0.176904
681.449015	0.176914
681.651864	0.176682
681.854694	0.176735
682.057506	0.176600
682.260301	0.176456
682.463076	0.176569
682.665834	0.176653
682.868573	0.176926
683.071295	0.176921
683.273998	0.177054
683.476682	0.177521
683.679349	0.177772
683.881997	0.177750
684.084627	0.177926
684.287239	0.177993
684.489833	0.178063
684.692408	0.177948
684.894965	0.177974
685.097504	0.177948
685.300025	0.177890
685.502527	0.177852
685.705012	0.177941
685.907478	0.178151
686.109925	0.178230
686.312355	0.178362
686.514766	0.178518
686.717159	0.178610
686.919534	0.178807
687.121891	0.178766
687.324230	0.178932
687.526550	0.179192
687.728852	0.179066
687.931136	0.179142
688.133401	0.179193
688.335649	0.179210
688.537878	0.179340
688.740089	0.179216
688.942281	0.179304
689.144456	0.179157
689.346612	0.179085
689.548750	0.179157
689.750870	0.179258
689.952971	0.179275
690.155055	0.179512
690.357120	0.179701
690.559167	0.179723
690.761195	0.179675
690.963206	0.179646
691.165198	0.179690
691.367172	0.179887
691.569128	0.180078
691.771065	0.180264
691.972984	0.180345
692.174885	0.180688
692.376768	0.180876
692.578633	0.181203
692.780479	0.181569
692.982308	0.181747
693.184118	0.182132
693.385909	0.182170
