sample name	sample
index	175
start time	 02-18-2021  10:56:43 AM


Wavelength (nm)	Absorbance
494.344910	-0.081561
494.563924	-0.081561
494.782919	-0.081561
495.001897	0.181501
495.220856	-0.039738
495.439797	-0.045170
495.658719	-0.034635
495.877624	-0.005540
496.096510	0.001116
496.315378	-0.037697
496.534227	-0.044471
496.753059	-0.057129
496.971872	-0.013854
497.190667	0.119341
497.409444	0.149843
497.628203	0.155062
497.846943	0.155702
498.065665	0.157500
498.284369	0.159074
498.503055	0.160473
498.721723	0.160969
498.940372	0.160522
499.159003	0.160235
499.377616	0.159079
499.596210	0.159139
499.814787	0.159156
500.033345	0.158557
500.251885	0.158972
500.470406	0.159369
500.688910	0.159358
500.907395	0.159645
501.125862	0.160679
501.344311	0.162563
501.562742	0.163015
501.781154	0.163449
501.999548	0.162575
502.217924	0.163031
502.436282	0.163104
502.654621	0.163035
502.872942	0.163061
503.091245	0.161973
503.309530	0.160449
503.527797	0.160061
503.746045	0.159553
503.964275	0.160089
504.182487	0.160243
504.400681	0.161070
504.618856	0.161159
504.837013	0.161367
505.055152	0.161579
505.273273	0.161668
505.491376	0.161984
505.709460	0.162806
505.927526	0.164082
506.145574	0.164008
506.363604	0.163397
506.581615	0.163571
506.799608	0.163787
507.017583	0.164644
507.235540	0.164867
507.453478	0.164532
507.671399	0.164429
507.889301	0.164260
508.107185	0.163804
508.325050	0.163937
508.542898	0.164014
508.760727	0.164441
508.978538	0.163937
509.196330	0.163624
509.414105	0.163242
509.631861	0.163117
509.849599	0.163197
510.067319	0.164433
510.285021	0.165194
510.502704	0.166368
510.720369	0.166249
510.938016	0.167388
511.155645	0.167941
511.373255	0.169005
511.590848	0.169466
511.808422	0.169809
512.025977	0.169200
512.243515	0.169302
512.461034	0.169630
512.678536	0.168993
512.896018	0.168888
513.113483	0.169569
513.330930	0.169678
513.548358	0.170136
513.765768	0.169596
513.983160	0.169599
514.200533	0.169034
514.417889	0.167898
514.635226	0.169036
514.852545	0.169312
515.069845	0.169828
515.287128	0.170296
515.504392	0.170627
515.721638	0.171538
515.938866	0.171939
516.156075	0.172844
516.373267	0.173946
516.590440	0.173863
516.807594	0.173450
517.024731	0.173317
517.241850	0.173877
517.458950	0.173378
517.676032	0.173185
517.893095	0.173681
518.110141	0.173639
518.327168	0.173835
518.544177	0.174604
518.761168	0.174762
518.978141	0.174783
519.195095	0.174586
519.412031	0.174959
519.628949	0.175479
519.845849	0.175361
520.062731	0.175726
520.279594	0.176038
520.496439	0.176386
520.713266	0.176368
520.930074	0.176712
521.146865	0.177044
521.363637	0.177064
521.580391	0.177136
521.797127	0.177081
522.013844	0.177284
522.230543	0.177496
522.447224	0.177221
522.663887	0.177752
522.880532	0.177694
523.097158	0.177985
523.313766	0.178479
523.530356	0.179284
523.746928	0.180185
523.963481	0.180256
524.180017	0.180664
524.396534	0.180803
524.613032	0.181143
524.829513	0.182024
525.045975	0.181862
525.262420	0.182075
525.478845	0.181216
525.695253	0.181642
525.911643	0.181763
526.128014	0.181906
526.344367	0.181953
526.560702	0.182483
526.777018	0.182796
526.993316	0.182992
527.209597	0.182854
527.425858	0.183420
527.642102	0.183299
527.858328	0.183566
528.074535	0.183123
528.290724	0.184017
528.506894	0.184009
528.723047	0.183545
528.939181	0.184305
529.155297	0.185543
529.371395	0.186355
529.587475	0.186960
529.803536	0.187790
530.019579	0.188495
530.235604	0.188248
530.451611	0.188847
530.667600	0.189259
530.883570	0.189821
531.099522	0.189852
531.315456	0.190236
531.531372	0.190253
531.747269	0.190678
531.963148	0.191217
532.179009	0.191844
532.394852	0.192051
532.610676	0.192822
532.826482	0.192920
533.042271	0.193021
533.258040	0.192993
533.473792	0.193919
533.689525	0.193705
533.905240	0.194021
534.120937	0.194342
534.336616	0.194695
534.552277	0.194559
534.767919	0.194362
534.983543	0.194692
535.199149	0.194502
535.414736	0.193933
535.630306	0.194033
535.845857	0.193677
536.061390	0.193920
536.276904	0.193769
536.492401	0.194317
536.707879	0.195120
536.923339	0.195086
537.138781	0.195756
537.354204	0.196266
537.569610	0.197115
537.784997	0.198063
538.000366	0.197865
538.215716	0.198999
538.431049	0.199435
538.646363	0.199159
538.861659	0.199787
539.076937	0.200046
539.292196	0.200410
539.507438	0.199873
539.722661	0.199836
539.937866	0.200484
540.153052	0.200274
540.368221	0.200849
540.583371	0.201779
540.798503	0.201849
541.013617	0.201760
541.228712	0.201874
541.443789	0.202652
541.658848	0.203040
541.873889	0.203366
542.088912	0.204078
542.303916	0.203856
542.518902	0.204232
542.733870	0.204287
542.948820	0.204769
543.163752	0.205054
543.378665	0.205323
543.593560	0.205832
543.808437	0.205725
544.023295	0.205104
544.238136	0.205491
544.452958	0.205159
544.667762	0.205881
544.882548	0.206369
545.097315	0.206862
545.312064	0.207060
545.526795	0.207318
545.741508	0.208355
545.956203	0.209602
546.170879	0.210209
546.385537	0.210476
546.600177	0.210497
546.814799	0.210846
547.029402	0.211355
547.243988	0.212077
547.458555	0.212213
547.673103	0.211973
547.887634	0.211229
548.102146	0.211229
548.316640	0.211241
548.531116	0.211463
548.745574	0.211182
548.960013	0.211323
549.174435	0.211170
549.388838	0.211280
549.603222	0.212002
549.817589	0.212478
550.031937	0.211981
550.246267	0.212522
550.460579	0.212721
550.674873	0.213471
550.889148	0.213735
551.103405	0.213981
551.317644	0.214415
551.531865	0.213876
551.746068	0.214563
551.960252	0.215424
552.174418	0.215981
552.388566	0.216205
552.602696	0.216010
552.816807	0.216075
553.030900	0.216368
553.244975	0.216145
553.459032	0.217186
553.673070	0.217115
553.887091	0.217227
554.101093	0.217293
554.315077	0.217808
554.529042	0.218196
554.742990	0.218760
554.956919	0.219279
555.170830	0.219805
555.384722	0.219508
555.598597	0.219622
555.812453	0.219885
556.026291	0.220305
556.240111	0.220614
556.453913	0.220962
556.667696	0.221053
556.881461	0.221014
557.095208	0.220867
557.308937	0.221463
557.522647	0.222037
557.736339	0.222324
557.950013	0.222043
558.163669	0.222043
558.377307	0.222385
558.590926	0.222384
558.804527	0.222335
559.018110	0.223085
559.231675	0.222970
559.445221	0.222705
559.658749	0.222644
559.872259	0.223111
560.085751	0.223261
560.299225	0.223506
560.512680	0.223749
560.726117	0.224232
560.939536	0.224214
561.152937	0.224262
561.366319	0.225079
561.579683	0.225563
561.793029	0.225573
562.006357	0.225652
562.219667	0.225793
562.432958	0.226170
562.646231	0.226025
562.859486	0.226280
563.072723	0.226693
563.285941	0.226275
563.499141	0.226362
563.712323	0.226478
563.925487	0.226737
564.138632	0.227111
564.351760	0.227344
564.564869	0.227417
564.777960	0.227630
564.991032	0.227957
565.204087	0.228733
565.417123	0.228940
565.630141	0.229495
565.843140	0.230104
566.056122	0.229789
566.269085	0.230080
566.482030	0.230516
566.694957	0.230424
566.907866	0.230794
567.120756	0.230832
567.333628	0.231038
567.546482	0.230972
567.759318	0.230962
567.972135	0.231570
568.184935	0.231528
568.397716	0.231933
568.610478	0.232753
568.823223	0.232760
569.035949	0.232796
569.248657	0.233312
569.461347	0.233555
569.674019	0.233451
569.886672	0.233354
570.099308	0.233315
570.311925	0.233548
570.524523	0.233601
570.737104	0.233730
570.949666	0.233913
571.162210	0.233792
571.374736	0.233953
571.587244	0.234656
571.799733	0.235275
572.012205	0.235621
572.224658	0.235488
572.437092	0.235308
572.649509	0.235087
572.861907	0.235519
573.074287	0.235713
573.286649	0.235647
573.498993	0.235501
573.711318	0.235225
573.923625	0.235337
574.135914	0.235842
574.348185	0.236513
574.560438	0.236603
574.772672	0.236757
574.984888	0.237085
575.197086	0.237611
575.409266	0.237841
575.621427	0.238055
575.833570	0.238525
576.045695	0.238637
576.257802	0.238668
576.469890	0.239372
576.681961	0.239124
576.894013	0.238978
577.106046	0.239056
577.318062	0.239075
577.530059	0.239350
577.742039	0.239439
577.954000	0.239278
578.165942	0.239234
578.377867	0.239515
578.589773	0.240358
578.801661	0.240585
579.013531	0.240747
579.225382	0.240986
579.437216	0.241165
579.649031	0.241166
579.860828	0.241741
580.072606	0.241961
580.284367	0.241844
580.496109	0.241686
580.707833	0.242186
580.919539	0.242793
581.131227	0.243623
581.342896	0.243671
581.554547	0.243763
581.766180	0.243866
581.977795	0.243709
582.189391	0.243818
582.400969	0.244132
582.612529	0.244061
582.824071	0.243967
583.035595	0.243618
583.247100	0.243713
583.458587	0.243680
583.670056	0.243886
583.881506	0.244224
584.092939	0.244529
584.304353	0.244413
584.515749	0.244799
584.727127	0.245104
584.938486	0.245459
585.149828	0.245861
585.361151	0.246315
585.572456	0.246602
585.783742	0.246649
585.995011	0.246931
586.206261	0.247214
586.417493	0.247182
586.628706	0.247157
586.839902	0.247236
587.051079	0.247565
587.262238	0.248168
587.473379	0.247839
587.684502	0.248610
587.895606	0.248768
588.106692	0.249075
588.317760	0.249257
588.528810	0.249669
588.739841	0.250165
588.950855	0.250629
589.161850	0.250402
589.372827	0.250935
589.583785	0.250930
589.794726	0.251118
590.005648	0.251446
590.216552	0.251895
590.427437	0.251855
590.638305	0.251601
590.849154	0.251583
591.059985	0.251834
591.270798	0.251987
591.481592	0.252005
591.692369	0.252444
591.903127	0.252546
592.113867	0.252619
592.324588	0.252913
592.535292	0.253409
592.745977	0.253676
592.956644	0.253592
593.167293	0.253871
593.377923	0.253986
593.588536	0.254411
593.799130	0.254575
594.009706	0.254696
594.220263	0.254928
594.430803	0.255104
594.641324	0.255101
594.851827	0.255735
595.062312	0.255827
595.272778	0.255825
595.483227	0.255705
595.693657	0.255707
595.904069	0.255696
596.114462	0.255795
596.324838	0.255717
596.535195	0.255850
596.745534	0.256125
596.955855	0.256584
597.166157	0.256987
597.376441	0.257036
597.586707	0.257344
597.796955	0.257877
598.007185	0.258263
598.217396	0.258516
598.427589	0.258899
598.637764	0.259076
598.847921	0.259155
599.058060	0.259769
599.268180	0.259897
599.478282	0.260266
599.688366	0.260195
599.898431	0.260297
600.108479	0.260734
600.318508	0.260772
600.528519	0.260663
600.738511	0.260964
600.948486	0.260977
601.158442	0.261285
601.368380	0.261075
601.578300	0.261388
601.788202	0.261398
601.998085	0.261228
602.207950	0.261221
602.417797	0.261498
602.627626	0.261503
602.837436	0.261517
603.047228	0.261626
603.257002	0.262259
603.466758	0.262219
603.676496	0.262430
603.886215	0.262719
604.095916	0.263218
604.305599	0.263169
604.515264	0.263515
604.724910	0.263790
604.934538	0.264033
605.144148	0.263749
605.353740	0.264131
605.563314	0.264320
605.772869	0.264711
605.982406	0.264897
606.191925	0.265143
606.401425	0.265023
606.610908	0.265317
606.820372	0.265126
607.029818	0.265601
607.239246	0.265720
607.448655	0.265763
607.658047	0.265770
607.867420	0.265837
608.076775	0.266094
608.286111	0.266227
608.495430	0.266457
608.704730	0.266727
608.914012	0.266858
609.123275	0.266960
609.332521	0.266978
609.541748	0.267032
609.750957	0.266948
609.960148	0.266693
610.169321	0.266863
610.378475	0.266773
610.587611	0.267192
610.796729	0.267222
611.005829	0.267375
611.214910	0.267876
611.423974	0.267893
611.633019	0.268242
611.842045	0.268811
612.051054	0.268928
612.260044	0.269409
612.469017	0.269439
612.677970	0.269478
612.886906	0.269904
613.095824	0.270051
613.304723	0.270504
613.513604	0.270565
613.722467	0.270519
613.931311	0.270895
614.140138	0.270906
614.348946	0.270751
614.557736	0.271037
614.766507	0.270960
614.975261	0.270907
615.183996	0.271081
615.392713	0.271458
615.601412	0.271906
615.810092	0.271884
616.018754	0.271822
616.227399	0.272438
616.436024	0.272589
616.644632	0.273038
616.853222	0.273107
617.061793	0.272904
617.270346	0.273031
617.478880	0.273023
617.687397	0.273169
617.895895	0.273517
618.104375	0.273463
618.312837	0.273289
618.521281	0.273158
618.729706	0.273722
618.938113	0.274127
619.146502	0.274332
619.354873	0.274355
619.563226	0.274348
619.771560	0.274304
619.979876	0.274462
620.188174	0.275013
620.396453	0.275196
620.604715	0.275258
620.812958	0.275294
621.021183	0.275215
621.229390	0.275580
621.437578	0.276046
621.645748	0.276204
621.853900	0.276680
622.062034	0.276630
622.270150	0.276691
622.478247	0.276806
622.686326	0.276963
622.894387	0.277078
623.102430	0.277276
623.310454	0.277397
623.518461	0.277778
623.726449	0.277501
623.934418	0.277759
624.142370	0.278155
624.350303	0.278138
624.558218	0.278308
624.766115	0.278392
624.973994	0.278515
625.181855	0.278684
625.389697	0.278705
625.597521	0.279036
625.805327	0.279073
626.013114	0.279382
626.220883	0.279542
626.428634	0.279624
626.636367	0.279765
626.844082	0.279743
627.051778	0.279671
627.259457	0.279804
627.467117	0.280017
627.674758	0.280322
627.882382	0.280043
628.089987	0.280258
628.297574	0.280361
628.505143	0.280654
628.712694	0.281126
628.920226	0.281432
629.127740	0.281493
629.335236	0.281844
629.542714	0.281828
629.750174	0.282243
629.957615	0.282471
630.165038	0.282834
630.372443	0.282843
630.579829	0.282926
630.787198	0.282995
630.994548	0.283040
631.201880	0.282957
631.409194	0.283141
631.616489	0.283109
631.823766	0.283285
632.031025	0.283487
632.238266	0.283950
632.445489	0.284116
632.652693	0.284374
632.859879	0.284934
633.067047	0.285060
633.274197	0.285318
633.481329	0.285674
633.688442	0.285872
633.895537	0.285767
634.102614	0.285618
634.309672	0.285687
634.516713	0.285687
634.723735	0.285599
634.930739	0.285702
635.137724	0.286016
635.344692	0.285976
635.551641	0.286165
635.758572	0.286565
635.965485	0.286736
636.172379	0.286850
636.379256	0.287451
636.586114	0.287682
636.792954	0.287822
636.999775	0.287901
637.206579	0.288115
637.413364	0.288165
637.620131	0.288202
637.826880	0.288511
638.033610	0.288587
638.240323	0.288173
638.447017	0.288332
638.653692	0.288620
638.860350	0.288842
639.066990	0.288947
639.273611	0.289055
639.480214	0.289223
639.686798	0.289531
639.893365	0.289856
640.099913	0.290353
640.306443	0.290322
640.512955	0.290403
640.719449	0.290593
640.925924	0.290983
641.132381	0.291240
641.338820	0.291451
641.545241	0.291542
641.751644	0.291695
641.958028	0.291942
642.164394	0.292312
642.370742	0.292372
642.577071	0.292416
642.783383	0.292615
642.989676	0.292946
643.195951	0.293221
643.402207	0.293342
643.608446	0.293309
643.814666	0.293429
644.020868	0.293322
644.227052	0.293907
644.433218	0.294091
644.639365	0.294113
644.845494	0.294018
645.051605	0.294153
645.257698	0.294343
645.463772	0.294875
645.669828	0.294769
645.875866	0.295410
646.081886	0.295236
646.287888	0.295451
646.493871	0.295689
646.699836	0.295941
646.905783	0.296098
647.111712	0.296127
647.317622	0.296228
647.523514	0.296713
647.729388	0.296434
647.935244	0.296802
648.141082	0.296931
648.346901	0.297444
648.552702	0.297725
648.758485	0.297832
648.964250	0.298088
649.169996	0.298034
649.375724	0.297993
649.581434	0.298709
649.787126	0.298993
649.992800	0.299365
650.198455	0.299358
650.404092	0.299546
650.609711	0.299879
650.815311	0.300259
651.020894	0.300672
651.226458	0.300856
651.432004	0.300806
651.637532	0.300741
651.843041	0.300776
652.048532	0.300661
652.254006	0.300951
652.459460	0.301087
652.664897	0.301064
652.870315	0.301299
653.075716	0.301569
653.281097	0.301818
653.486461	0.302362
653.691807	0.302514
653.897134	0.302921
654.102443	0.302856
654.307734	0.303196
654.513006	0.303651
654.718261	0.303998
654.923497	0.304362
655.128715	0.304606
655.333915	0.304942
655.539096	0.304991
655.744259	0.305237
655.949404	0.305848
656.154531	0.306001
656.359640	0.306110
656.564730	0.306170
656.769802	0.306294
656.974856	0.306529
657.179892	0.306502
657.384909	0.306824
657.589908	0.307184
657.794889	0.307420
657.999852	0.307358
658.204797	0.307798
658.409723	0.308214
658.614631	0.308410
658.819521	0.308668
659.024393	0.308938
659.229246	0.309333
659.434081	0.309410
659.638898	0.309350
659.843697	0.309860
660.048478	0.309700
660.253240	0.309653
660.457984	0.310421
660.662710	0.310581
660.867417	0.310810
661.072107	0.311006
661.276778	0.311219
661.481431	0.311484
661.686066	0.311605
661.890682	0.311977
662.095281	0.312163
662.299861	0.312230
662.504422	0.312572
662.708966	0.312647
662.913491	0.312860
663.117999	0.313163
663.322488	0.313227
663.526958	0.313697
663.731411	0.314096
663.935845	0.314351
664.140261	0.314230
664.344659	0.314246
664.549038	0.314296
664.753400	0.314518
664.957743	0.314740
665.162068	0.315115
665.366375	0.315221
665.570663	0.315046
665.774933	0.315417
665.979185	0.315747
666.183419	0.315984
666.387635	0.316222
666.591832	0.316537
666.796011	0.316401
667.000172	0.316478
667.204315	0.316690
667.408439	0.317152
667.612545	0.317126
667.816634	0.317437
668.020703	0.317245
668.224755	0.317612
668.428788	0.317659
668.632803	0.317888
668.836800	0.318245
669.040779	0.318408
669.244739	0.318642
669.448681	0.319107
669.652605	0.319173
669.856511	0.319635
670.060399	0.319842
670.264268	0.320066
670.468119	0.320396
670.671952	0.320504
670.875767	0.320522
671.079563	0.320593
671.283341	0.320794
671.487101	0.321261
671.690843	0.321626
671.894567	0.321838
672.098272	0.322172
672.301959	0.322678
672.505628	0.323141
672.709278	0.323569
672.912911	0.323914
673.116525	0.324216
673.320121	0.324277
673.523699	0.324771
673.727258	0.325149
673.930799	0.325438
674.134322	0.325454
674.337827	0.325351
674.541314	0.325579
674.744782	0.325750
674.948232	0.325648
675.151664	0.325831
675.355078	0.325796
675.558474	0.325983
675.761851	0.325836
675.965210	0.326085
676.168551	0.326545
676.371873	0.327069
676.575178	0.327808
676.778464	0.328138
676.981732	0.328493
677.184981	0.328639
677.388213	0.328757
677.591426	0.329353
677.794621	0.329680
677.997798	0.329782
678.200956	0.329669
678.404097	0.329248
678.607219	0.329472
678.810323	0.329452
679.013408	0.329772
679.216476	0.330159
679.419525	0.330359
679.622556	0.330673
679.825569	0.331123
680.028563	0.331461
680.231540	0.331968
680.434498	0.332153
680.637438	0.332457
680.840359	0.332570
681.043263	0.332658
681.246148	0.332790
681.449015	0.333034
681.651864	0.332983
681.854694	0.333092
682.057506	0.333205
682.260301	0.333542
682.463076	0.333767
682.665834	0.333984
682.868573	0.334311
683.071295	0.334509
683.273998	0.334512
683.476682	0.334912
683.679349	0.334968
683.881997	0.335250
684.084627	0.335665
684.287239	0.335935
684.489833	0.336304
684.692408	0.336415
684.894965	0.336668
685.097504	0.337092
685.300025	0.337183
685.502527	0.337684
685.705012	0.337666
685.907478	0.337528
686.109925	0.337768
686.312355	0.337856
686.514766	0.337947
686.717159	0.338358
686.919534	0.338482
687.121891	0.338614
687.324230	0.338971
687.526550	0.339484
687.728852	0.339804
687.931136	0.339770
688.133401	0.339991
688.335649	0.340259
688.537878	0.340039
688.740089	0.339896
688.942281	0.340248
689.144456	0.340047
689.346612	0.340292
689.548750	0.340316
689.750870	0.340769
689.952971	0.341045
690.155055	0.341476
690.357120	0.341860
690.559167	0.342268
690.761195	0.342451
690.963206	0.342546
691.165198	0.342860
691.367172	0.343436
691.569128	0.343242
691.771065	0.343550
691.972984	0.343589
692.174885	0.343890
692.376768	0.344008
692.578633	0.344184
692.780479	0.344700
692.982308	0.344621
693.184118	0.344540
693.385909	0.345015
