sample name	sample
index	260
start time	 02-25-2021  10:54:26 AM
880	0.440334
Peak Time (s)	91.535
Peak Height 	0.4403
calc peak height	90,93
Baseline Time (s)	9.035
Baseline Value 	-0.002207
subtract baseline	10,4
Abs	0.295357
Peak Time (s)	92.035
Peak Height 	0.2954
calc peak height	90,93
Baseline Time (s)	11.536
Baseline Value 	0.002455
subtract baseline	10,3
PK_550	0.132834
Peak Time (s)	90.037
Peak Height 	0.1328
calc peak height	90,93
Baseline Time (s)	8.537
Baseline Value 	-1.8172E-4
subtract baseline	10,2
PK_880	0.280471
Peak Time (s)	92.535
Peak Height 	0.2805
calc peak height	90,93
Baseline Time (s)	10.536
Baseline Value 	6.3119E-4
subtract baseline	10,1


Time (s)	A880-A510	A880-A775	A880-A975	A880	I510	I775	I975	I880	
0.035000	-0.002212	-0.000094	-0.006497	0.007037	6796.280505	45525.532425	3914.184277	23976.930723
0.535000	-0.002276	-0.000079	-0.003491	0.004798	6816.373341	45747.787751	3928.173667	24086.491530
1.035500	-0.002256	-0.000705	-0.008771	0.003102	6832.297735	45853.600236	3918.596287	24169.858758
1.536500	-0.002178	0.000055	-0.001163	0.000649	6855.899905	46173.288751	3945.682636	24291.054269
2.036000	-0.001444	-0.000036	-0.003111	0.004153	6830.076874	45815.844642	3930.923894	24118.150668
2.536500	0.001600	0.000326	-0.001289	0.000557	6892.267145	46209.607523	3945.589320	24295.609016
3.036500	0.000740	0.000076	-0.001968	-0.001504	6903.612116	46390.935352	3949.357449	24397.948939
3.540000	-0.000740	-0.000056	-0.001244	0.000146	6874.095260	46212.470325	3946.831569	24315.968217
4.034000	0.000837	-0.000375	-0.006183	0.000321	6887.288156	46163.155475	3932.973279	24307.301567
4.535000	0.000134	0.000165	-0.001475	0.000534	6878.675373	46195.815078	3945.146341	24296.763842
5.035000	0.000834	0.000148	-0.003709	0.000306	6887.404167	46216.895686	3939.697562	24308.051957
5.535500	0.000820	0.001363	-0.001700	0.001577	6875.315944	46211.283060	3941.699180	24245.153093
6.035500	0.000556	0.000074	-0.004741	0.000512	6882.846435	46188.829994	3936.347109	24297.819973
6.535500	-0.000151	0.000682	-0.003867	0.000757	6873.895303	46225.196393	3938.049017	24285.694140
7.036000	0.000331	0.001023	-0.000602	0.001129	6874.925618	46222.081454	3945.903075	24267.288311
7.536500	0.000195	0.001028	-0.002143	0.000836	6876.398632	46251.843704	3942.506850	24281.765312
8.039500	0.000850	0.000183	0.002570	0.000430	6886.388082	46207.969926	3956.495413	24301.915356
8.537500	-0.000994	0.000000	-0.002745	-0.000183	6874.806790	46250.958492	3943.641358	24332.296794
9.035000	-0.000821	-0.000027	0.000743	0.000000	6874.708912	46230.007029	3952.661477	24323.222852
9.535000	0.000363	0.000961	0.000736	0.000909	6877.297915	46237.895654	3950.152501	24278.172929
10.035500	0.000229	0.000541	-0.001286	0.000437	6880.472903	46243.067926	3945.923887	24301.568378
10.535500	0.000000	-0.000178	-0.004869	-0.000446	6886.628257	46259.459115	3938.590649	24345.336928
11.035500	0.000907	0.000703	0.002563	0.000333	6887.839357	46269.660103	3956.739969	24306.687501
11.536000	-0.000844	-0.000033	0.000000	-0.000010	6874.589887	46230.390052	3950.654230	24323.720925
12.036000	0.000299	-0.000115	-0.003050	-0.000304	6888.119206	46251.600208	3943.140971	24338.319930
12.536500	-0.000472	-0.000116	-0.003522	-0.000085	6878.788815	46229.620894	3941.264463	24327.451076
13.036500	0.002342	-0.000181	-0.002466	-0.002455	6927.838710	46460.663532	3950.597064	24445.350986
13.537500	-0.001134	0.000616	0.000015	-0.000375	6875.294699	46331.891288	3951.693925	24341.846821
14.034500	0.002115	0.000837	-0.002601	-0.000086	6903.203113	46325.076145	3943.767879	24327.494694
14.535500	-0.002512	0.000059	-0.004386	0.002546	6835.089905	45984.731921	3931.820748	24197.288290
15.037500	-0.001288	-0.000118	0.000909	-0.000376	6873.852071	46258.491139	3954.146164	24341.871758
15.592000	-0.000269	-0.000849	-0.003133	-0.001350	6892.623775	46282.796404	3945.762955	24390.323436
16.041500	0.001713	0.000532	-0.000191	-0.000340	6901.804557	46319.923795	3951.033278	24340.095344
16.536500	0.000795	0.000170	-0.005085	-0.000429	6893.970451	46292.592434	3937.961485	24344.503273
17.036000	-0.000001	-0.000267	-0.002516	-0.000729	6889.295868	46278.866548	3945.749356	24359.419957
17.539500	0.001467	0.000493	-0.002322	-0.000942	6905.175597	46376.445471	3946.860109	24370.024489
18.040000	0.000288	-0.000179	-0.003016	-0.001517	6899.460669	46366.668430	3946.535767	24398.619646
18.537000	0.000272	0.000458	-0.005684	0.001222	6873.495144	46156.346484	3931.889122	24262.661463
19.040500	-0.001751	-0.000112	-0.002033	0.001489	6852.044860	46072.941472	3941.034109	24249.486419
19.538000	0.000113	-0.000071	0.002662	0.001354	6870.767254	46090.471804	3954.210182	24256.155835
20.041000	-0.001797	-0.000318	0.000892	0.000981	6856.358317	46102.980451	3950.382477	24274.594331
20.535500	-0.001519	0.000058	-0.003293	0.001587	6853.289657	46080.021736	3937.355388	24244.614198
21.036000	-0.001194	-0.000221	0.001045	0.000950	6862.305810	46115.789009	3950.887666	24276.168807
21.536000	-0.001224	0.000317	-0.001265	0.001616	6855.783746	46102.960822	3942.772906	24243.188710
22.039500	-0.000020	0.000316	-0.004617	0.001119	6871.726420	46152.461929	3935.043407	24267.793463
22.537000	0.000153	-0.000329	-0.003863	0.001101	6873.512388	46089.932720	3937.127289	24268.662068
23.039500	-0.001164	0.000274	-0.002429	0.001520	6857.239764	46108.291299	3939.876844	24247.946503
23.536500	-0.000446	0.000125	-0.006295	0.001318	6865.852299	46113.550565	3929.987516	24257.925872
24.040500	-0.001414	0.000170	-0.003811	0.001382	6856.197789	46111.680697	3936.510451	24254.776518
24.535500	0.000526	-0.000083	-0.003700	0.001540	6872.896610	46070.698744	3936.380246	24246.938711
25.035500	0.002493	0.000891	-0.000413	0.001889	6888.128050	46133.036478	3944.347605	24229.729285
25.540500	0.000027	-0.000563	-0.003693	0.000788	6875.267376	46097.720050	3938.433470	24284.144266
26.039000	0.000295	0.000400	-0.004648	0.001287	6873.103088	46144.069504	3934.505770	24259.469429
26.536500	0.002255	0.000313	0.001768	0.001445	6890.060711	46119.547331	3951.510443	24251.635320
27.039000	-0.000241	-0.000016	-0.000237	0.000990	6870.854954	46132.165146	3947.274995	24274.146308
27.537000	-0.001490	0.000225	-0.002483	0.001757	6851.984582	46079.799371	3939.088023	24236.253648
28.039500	0.001559	0.000078	-0.001281	-0.002074	6916.783569	46448.363554	3952.798670	24426.375885
28.542000	-0.000095	-0.000155	-0.000399	-0.001100	6891.907550	46327.267567	3952.546592	24377.887775
29.056500	-0.000131	-0.000007	-0.000147	-0.000380	6884.775341	46269.958714	3951.263030	24342.066410
29.535000	0.000642	0.000782	0.001828	0.001711	6872.373177	46139.817123	3950.946125	24238.484700
30.035500	0.000765	-0.000348	0.000807	-0.000757	6896.782534	46273.534863	3954.911161	24360.790485
30.535500	0.001042	0.000813	-0.000452	-0.000065	6892.866469	46320.588655	3949.568042	24326.447467
31.056500	-0.001556	-0.000049	-0.003116	-0.000482	6872.329006	46276.005999	3943.446240	24347.151477
31.537000	-0.001763	-0.000061	-0.003797	0.003139	6836.533423	45913.821329	3931.807907	24168.039360
32.037000	0.000075	0.000282	-0.005769	0.002110	6863.314829	46050.255365	3929.271423	24218.775423
32.571500	-0.000251	0.000588	-0.000475	0.000025	6879.832322	46288.982008	3949.260604	24321.988824
33.042500	-0.000209	0.000803	0.000773	-0.000116	6881.554898	46324.695795	3953.059528	24328.978449
33.535000	0.000940	0.000503	-0.001431	0.002368	6869.002236	46046.515904	3940.280301	24206.040727
34.035500	0.001616	0.000254	-0.002085	0.000112	6896.620079	46246.923148	3944.633336	24317.674418
34.538000	0.001711	-0.000029	-0.001210	-0.000646	6904.683192	46294.418430	3949.084490	24355.303809
35.036000	-0.002335	0.000006	-0.002081	0.001674	6844.861020	46066.250842	3940.401572	24240.344257
35.536000	-0.000312	-0.000034	-0.000947	0.002069	6860.079761	46022.895678	3942.405961	24220.824065
36.036000	0.001190	0.000270	0.001567	0.002102	6873.858099	46049.843632	3949.163673	24219.192041
36.539500	-0.003600	0.000222	-0.002858	0.002236	6827.859670	46031.751967	3936.777247	24212.582633
37.036500	-0.000650	0.000991	-0.002271	0.002609	6851.861406	46071.140873	3937.353960	24194.159152
37.537000	-0.002069	0.000850	0.000729	0.002876	6836.133955	46030.520574	3944.769927	24180.997611
38.039500	-0.002871	0.000268	0.000437	0.002440	6832.731294	46016.027672	3945.159561	24202.497652
38.535000	-0.001002	-0.000267	-0.000223	0.001894	6855.257101	46017.170240	3944.850849	24229.477510
39.035000	0.001456	0.000544	-0.001868	0.002505	6872.563746	46037.043845	3938.727843	24199.300111
39.535500	-0.002081	0.000143	-0.000202	0.002296	6841.427873	46017.943518	3943.813410	24209.603238
40.035500	-0.001643	0.000658	-0.002838	0.002220	6846.225384	46076.723982	3936.874918	24213.362656
40.535500	-0.002597	-0.000246	0.000417	0.001959	6839.757571	46012.748980	3946.416527	24226.249045
41.039000	0.001150	-0.000043	0.001784	0.002098	6873.523653	46019.198240	3949.768117	24219.407324
41.536500	-0.002538	-0.000194	0.001703	0.002617	6834.189090	45952.515876	3948.128798	24193.784648
42.037000	-0.001278	-0.000145	-0.002553	0.002319	6848.699266	45986.928305	3937.376424	24208.460534
42.537500	0.000671	-0.000061	-0.001984	0.002037	6869.592420	46023.418503	3939.680814	24222.396287
43.037500	0.000173	0.000662	-0.003272	0.002750	6858.249425	46024.445494	3934.271955	24187.240665
43.540000	-0.001999	0.000112	0.000542	0.002054	6844.456710	46038.923070	3946.500152	24221.569430
44.035000	-0.000240	0.000115	-0.003502	0.002350	6858.120370	46009.716513	3934.729359	24206.947207
44.538500	0.000834	0.000437	0.000961	-0.000508	6895.087280	46327.327241	3954.651732	24348.449851
45.036000	0.001533	0.000224	-0.001071	-0.001601	6912.042581	46415.551825	3952.075744	24402.787166
45.535500	-0.003878	-0.000118	-0.001373	0.005193	6797.917950	45704.918589	3932.805204	24067.142376
46.036000	0.000107	0.000124	0.002574	0.000110	6882.409022	46234.063796	3957.385882	24317.782529
46.537000	0.001323	-0.000020	-0.003331	0.000114	6893.827365	46219.280780	3941.243205	24317.565887
47.039500	0.001059	0.001384	0.002641	0.000779	6885.066801	46293.257148	3955.729659	24284.623871
47.534500	-0.002403	-0.000149	-0.000380	0.004290	6819.903130	45791.116035	3937.925578	24111.458087
48.065500	0.001351	0.000053	-0.000718	-0.000242	6897.458639	46262.184787	3949.323709	24335.219968
48.535500	-0.002247	-0.000295	-0.001529	0.002527	6837.728366	45951.396544	3939.586000	24198.198230
49.035500	-0.000701	0.000092	-0.003612	0.002654	6850.970325	45977.234394	3933.613562	24191.961882
49.537000	-0.006152	-0.001476	-0.006149	0.005725	6772.128764	45518.590902	3918.594634	24041.078926
50.036000	-0.000298	-0.000243	0.002027	-0.000437	6883.741321	46252.089671	3957.383558	24344.917904
50.541500	0.002251	0.000499	-0.002667	0.000385	6900.035784	46244.081276	3942.310458	24304.131820
51.037000	0.001680	0.000355	0.004523	-0.001926	6916.521655	46461.381366	3968.396411	24418.985552
51.536000	-0.000231	0.000434	-0.006543	0.007003	6814.893855	45580.818754	3914.152793	23978.585759
52.036500	-0.003426	-0.003238	0.005573	0.000370	6846.842842	45873.316368	3964.940540	24304.851078
52.538500	-0.028501	-0.014634	0.011043	0.231466	5040.810309	27448.083453	3477.886171	15421.831147
53.035000	-0.017890	-0.016869	-0.016656	-0.037320	7069.510134	48326.485591	4008.505114	26256.590442
53.535500	-0.033765	-0.135317	-0.026813	-0.295037	10255.767774	65535.000000	4965.514055	45278.344031
54.035500	-0.026932	-0.185462	-0.008885	-0.345183	11301.894213	65535.000000	5339.286311	50480.214708
54.535500	-0.036395	-0.135862	-0.011240	-0.295582	10220.031974	65535.000000	5048.790400	45331.702973
55.035500	-0.026315	-0.121959	-0.003183	-0.281679	10154.946220	65535.000000	5018.230984	43991.000817
55.536500	-0.026908	-0.088551	-0.011025	-0.246881	9578.857850	65334.482196	4807.318582	40817.608204
56.036500	-0.012455	-0.092172	-0.007074	-0.251893	9889.881832	65535.000000	4849.949258	41259.107327
56.537000	0.000870	-0.078133	-0.000552	-0.237091	9865.792989	65424.927719	4810.539210	39969.667400
57.035000	0.011860	-0.050877	0.001652	-0.201483	9476.062825	64232.313975	4658.949246	37041.933037
57.537500	0.013079	-0.027897	0.011059	-0.155581	8822.738569	61074.541168	4506.131010	33605.281652
58.035000	0.023320	-0.013570	0.018600	-0.112267	8380.646958	57312.399059	4368.294142	30679.005212
58.535500	0.025060	-0.004859	0.024769	-0.048928	7641.857247	50870.344217	4170.284787	26892.618608
59.036000	0.038328	0.001549	0.040529	-0.001844	7278.670884	46573.218595	4072.349247	24414.879126
59.536000	0.052772	0.009954	0.055451	0.047533	6932.061601	42633.233839	3972.480172	22089.561168
60.039000	0.070536	0.018462	0.080296	0.092604	6679.862334	39417.680441	3917.439178	20185.836893
60.536500	0.087659	0.028585	0.093580	0.136602	6446.663828	36670.716182	3838.609167	18508.600524
61.037000	0.109448	0.039419	0.113604	0.184352	6234.701124	33911.282350	3772.082956	16870.698157
61.537500	0.126617	0.051311	0.142874	0.231001	6008.887848	31519.157689	3732.496054	15435.383041
62.040000	0.151532	0.063654	0.166773	0.263719	5951.626120	30203.285082	3713.005230	14516.804412
62.535000	0.171507	0.076032	0.185735	0.299988	5835.348417	28736.967072	3675.887936	13576.261329
63.039500	0.190440	0.089522	0.203635	0.328780	5767.076262	27839.366739	3653.275962	12883.569296
63.535500	0.200041	0.096866	0.210453	0.341764	5744.004541	27516.353847	3640.723940	12585.896667
64.035500	0.210264	0.103162	0.227719	0.347931	5771.684243	27523.691357	3663.446512	12447.600529
64.536500	0.216254	0.107196	0.230221	0.356543	5753.757473	27264.555377	3650.866241	12257.731273
65.065000	0.223855	0.111142	0.239845	0.361529	5771.635922	27206.061988	3660.399881	12149.520066
65.537000	0.224491	0.113164	0.241118	0.373278	5696.411109	26665.726154	3639.010085	11899.388335
66.037000	0.231475	0.117427	0.252575	0.373377	5742.792305	26895.569938	3662.224403	11897.300260
66.534500	0.235605	0.118200	0.246235	0.377493	5742.887960	26710.886275	3640.832507	11811.282628
67.035000	0.238113	0.119713	0.255459	0.382003	5729.317830	26546.489433	3650.412435	11717.951705
67.535000	0.240918	0.121864	0.256498	0.387734	5709.614035	26351.627834	3640.875851	11600.752524
68.035000	0.242296	0.123786	0.253860	0.390948	5697.310787	26281.701240	3629.125577	11535.696038
68.535500	0.247771	0.125760	0.265803	0.395876	5700.966815	26122.571502	3643.230884	11436.880424
69.036000	0.248314	0.127652	0.263422	0.399601	5679.741735	26024.342164	3630.939495	11362.910385
69.539000	0.248214	0.128435	0.265003	0.409754	5612.407205	25528.875696	3613.975239	11164.538933
70.036500	0.254128	0.129914	0.267577	0.406643	5671.594034	25770.231128	3625.187721	11224.827880
70.539500	0.255489	0.131700	0.276931	0.409622	5660.896511	25707.228515	3637.939974	11167.084625
71.037000	0.257645	0.133290	0.271031	0.413114	5652.085057	25607.166078	3619.218364	11099.896116
71.537500	0.253718	0.132498	0.275406	0.421649	5571.229706	25122.756165	3611.054458	10937.933500
72.035000	0.260404	0.133826	0.274917	0.416806	5645.956087	25442.132574	3619.602145	11029.452036
72.535000	0.262585	0.134763	0.273514	0.419061	5645.467388	25373.502375	3612.415861	10986.706051
73.035500	0.263150	0.134549	0.270226	0.420178	5641.844760	25304.471154	3603.842853	10965.628615
73.536000	0.260510	0.133766	0.277567	0.427268	5578.746363	24900.350947	3604.329038	10833.040729
74.039000	0.265209	0.135465	0.277844	0.423107	5636.145792	25200.472122	3612.972744	10910.588165
74.536000	0.262747	0.136086	0.280055	0.423713	5616.135912	25201.272500	3616.119301	10899.257333
75.036500	0.266883	0.137193	0.280526	0.426090	5627.589285	25135.804519	3612.382277	10854.913433
75.537000	0.260909	0.134958	0.279734	0.431943	5551.458667	24723.890940	3599.486151	10746.798605
76.037500	0.268228	0.137984	0.286351	0.428753	5619.001849	25039.827084	3618.591456	10805.543062
76.534500	0.269345	0.136674	0.290457	0.429802	5619.450280	24919.405314	3624.634746	10786.180763
77.035000	0.267555	0.136332	0.283108	0.429200	5611.730655	24932.644392	3611.351757	10797.292639
77.535500	0.265860	0.135322	0.287436	0.434852	5564.452744	24595.831182	3608.768246	10693.590155
78.035000	0.270736	0.137023	0.280573	0.431140	5619.791891	24869.097458	3602.654259	10761.546444
78.536000	0.270821	0.136618	0.285730	0.431231	5619.755872	24843.923040	3612.507077	10759.874956
79.036000	0.271051	0.136834	0.290826	0.431230	5621.258037	24854.925468	3622.536817	10759.892041
79.536500	0.270051	0.136636	0.293591	0.437248	5575.935071	24541.647779	3616.121848	10650.045770
80.037000	0.271775	0.136498	0.286050	0.431731	5622.707533	24812.434221	3612.153575	10750.673473
80.537000	0.273665	0.137667	0.292046	0.433625	5622.679123	24775.793034	3620.214095	10715.984792
81.034500	0.274434	0.135779	0.283080	0.432398	5635.714752	24742.341182	3605.071795	10738.445815
81.535000	0.269025	0.135681	0.287886	0.438377	5562.161180	24437.592734	3602.801523	10629.599607
82.035000	0.272271	0.136701	0.290853	0.433592	5613.826017	24728.623884	3617.925335	10716.582284
82.535500	0.273475	0.136217	0.293102	0.434261	5617.311092	24670.516594	3621.043868	10704.375354
83.035500	0.274897	0.136613	0.288637	0.435188	5620.530498	24643.815834	3610.456332	10687.476177
83.538500	0.272016	0.136374	0.287767	0.440661	5566.671876	24358.534805	3598.166664	10588.418083
84.036500	0.276492	0.135209	0.293733	0.434501	5635.419487	24607.789245	3621.816748	10699.995615
84.536500	0.274090	0.133440	0.293838	0.433451	5626.583329	24571.709610	3624.102582	10719.166752
85.037000	0.275209	0.134322	0.286159	0.434992	5623.832711	24538.693058	3606.012235	10691.033664
85.534500	0.274439	0.133073	0.291880	0.439356	5590.577513	24259.713868	3608.651348	10611.920200
86.034500	0.275802	0.134872	0.294166	0.436043	5620.849627	24513.648609	3619.625057	10671.901931
86.537500	0.277538	0.134816	0.294038	0.437085	5625.375787	24458.882981	3617.322251	10653.000319
87.035500	0.277326	0.134309	0.296063	0.436630	5626.956116	24456.231613	3622.212252	10661.239223
87.535500	0.274479	0.132120	0.290116	0.441339	5578.092046	24115.168549	3601.386999	10576.230585
88.036000	0.278333	0.134817	0.290719	0.438533	5621.119496	24386.843664	3607.994005	10626.779427
88.536000	0.277270	0.133796	0.295844	0.438004	5617.642178	24362.413337	3619.067279	10636.344102
89.036000	0.278503	0.132735	0.288777	0.437884	5626.452644	24315.789259	3605.481793	10638.515565
89.537000	0.274753	0.130848	0.290687	0.442177	5574.477966	24011.929850	3600.872565	10561.201855
90.037000	0.280119	0.132834	0.294864	0.438636	5632.096176	24283.437055	3615.895401	10624.908291
90.534500	0.277865	0.131103	0.287973	0.438200	5620.244719	24219.529784	3603.312273	10632.804846
91.034000	0.278287	0.130592	0.293948	0.437840	5625.333987	24212.090540	3615.659107	10639.314324
91.535000	0.279925	0.131302	0.294562	0.440334	5619.753945	24124.310064	3611.975653	10594.289643
92.035000	0.278089	0.130478	0.295357	0.439258	5614.821499	24136.734170	3615.642875	10613.689030
92.535500	0.280471	0.130660	0.294976	0.439521	5628.615647	24132.707872	3614.377869	10608.935329
93.038500	0.278957	0.129536	0.302524	0.439661	5617.836996	24070.777733	3629.027217	10606.417339
93.536000	0.275918	0.128068	0.294359	0.442739	5578.343585	23849.359315	3606.893615	10551.128635
94.037000	0.281483	0.129997	0.295314	0.440979	5625.709393	24028.855581	3612.185730	10582.703187
94.537000	0.280394	0.127750	0.296768	0.439885	5625.740223	23972.581502	3617.182870	10602.388458
95.037500	0.280205	0.129372	0.296074	0.440976	5617.404869	23998.483586	3613.679214	10582.754985
95.534000	0.279203	0.128439	0.289781	0.444304	5589.391364	23791.553675	3595.038371	10523.159154
96.040500	0.283657	0.129305	0.300211	0.442852	5627.671205	23903.867293	3618.119558	10549.107093
96.535000	0.279159	0.128527	0.299388	0.441824	5605.121780	23916.048289	3618.524064	10567.529374
97.035500	0.281984	0.127913	0.296816	0.441578	5625.067824	23898.126566	3613.952775	10571.933087
