sample name	sample
index	410
start time	 03-08-2021  10:52:41 AM
880	0.460968
Peak Time (s)	92.535
Peak Height 	0.461
calc peak height	90,93
Baseline Time (s)	11.537
Baseline Value 	-0.005155
subtract baseline	10,4
Abs	0.329252
Peak Time (s)	91.538
Peak Height 	0.3293
calc peak height	90,93
Baseline Time (s)	8.537
Baseline Value 	0.001808
subtract baseline	10,3
PK_550	0.155866
Peak Time (s)	91.037
Peak Height 	0.1559
calc peak height	90,93
Baseline Time (s)	10.537
Baseline Value 	9.027E-4
subtract baseline	10,2
PK_880	0.312249
Peak Time (s)	91.037
Peak Height 	0.3122
calc peak height	90,93
Baseline Time (s)	11.035
Baseline Value 	0.002638
subtract baseline	10,1


Time (s)	A880-A510	A880-A775	A880-A975	A880	I510	I775	I975	I880	
0.033500	-0.002563	-0.000476	-0.005657	0.001475	6949.720379	47117.600302	3948.209497	24767.787156
0.537000	-0.004008	-0.001663	-0.002936	0.005752	6895.372861	46563.943669	3943.985237	24552.438828
1.037500	-0.000213	-0.000203	-0.001077	0.003969	6948.340994	46891.742185	3953.896203	24641.957993
1.535000	0.001125	0.000138	0.003811	0.001239	6987.410678	47204.468815	3974.904094	24779.777413
2.035000	0.001136	0.000189	0.001231	0.001953	6980.629615	47136.747393	3965.775563	24743.640866
2.541000	-0.001992	0.000032	-0.000905	0.005754	6914.420363	46734.761955	3949.499221	24552.342388
3.035500	0.000667	-0.000002	0.003601	-0.000844	7003.116538	47403.325090	3980.122879	24885.478757
3.536500	0.000795	-0.000164	0.001285	0.000413	6992.194602	47257.972599	3970.183441	24821.616949
4.036500	-0.000429	-0.000645	0.004556	0.000245	6982.012113	47226.009241	3979.750459	24830.165926
4.536500	0.000640	-0.000415	0.003343	0.000325	6991.550860	47241.323304	3976.143864	24826.109130
5.037000	-0.000125	-0.000571	-0.001467	0.000070	6986.623651	47251.422558	3963.525792	24839.025243
5.537500	0.002027	-0.000180	0.000257	0.000506	7003.219802	47246.851443	3967.083328	24816.924403
6.037500	0.000012	-0.000310	0.000862	0.000190	6986.786897	47265.790325	3969.628006	24832.931086
6.534000	-0.001064	-0.000692	0.000749	-0.000070	6978.929421	47253.355855	3970.036333	24846.142050
7.035000	0.001923	-0.000262	-0.000588	0.000345	7003.771694	47254.951373	3965.192017	24825.082120
7.536000	0.001060	0.000229	-0.003117	0.000577	6993.170716	47281.383918	3957.597387	24813.285339
8.039000	0.001471	-0.000768	0.003851	0.000020	7002.539053	47236.377607	3978.410453	24841.569583
8.536500	-0.001026	-0.000083	0.000000	-0.000255	6981.068955	47334.645965	3968.473581	24855.512195
9.036000	0.001304	-0.000807	0.005302	-0.000425	7005.231368	47277.929664	3983.710383	24864.194365
9.536000	0.000130	0.000004	0.002114	0.000353	6986.356846	47281.317487	3972.648247	24824.671307
10.037000	-0.000275	0.000149	0.005054	0.000082	6985.069558	47323.857496	3981.596377	24838.424353
10.537500	-0.001699	0.000000	-0.003278	-0.000116	6973.261234	47328.880500	3959.057666	24848.461263
11.035000	0.000000	-0.000184	-0.000183	0.000138	6987.177322	47284.083993	3966.882340	24835.574241
11.537000	0.000648	0.000015	-0.004802	0.000000	6994.765373	47318.534692	3954.566163	24842.581585
12.035500	0.001133	0.000239	0.003635	-0.000193	7001.323209	47361.271595	3978.400693	24852.391779
12.535500	0.000615	-0.000101	0.000374	-0.000160	6995.994359	47323.028370	3969.245567	24850.689305
13.036000	-0.000446	0.000381	0.008182	-0.001820	7001.788538	47543.064277	3995.746251	24935.182572
13.536500	0.001603	-0.000451	-0.001041	-0.000458	7008.448501	47317.824549	3966.159637	24865.870519
14.036500	-0.000021	-0.000295	0.001340	0.000224	6986.149577	47263.900754	3970.858583	24831.218476
14.537000	-0.002730	-0.000563	-0.001699	0.003433	6929.450611	46909.476169	3953.660736	24668.929068
15.037000	0.000705	-0.000244	0.000600	-0.000088	6996.173465	47301.088534	3969.675326	24847.063240
15.558000	0.001397	0.000038	0.001680	-0.000508	7006.934478	47372.999658	3973.834741	24868.393680
16.035000	0.002353	0.000622	0.003077	-0.000306	7014.249695	47412.230232	3977.160630	24858.127824
16.535000	-0.002589	-0.000917	-0.000731	0.004359	6921.994629	46779.900195	3953.779821	24622.366993
17.038500	0.001570	0.000207	-0.000148	-0.000032	7003.997837	47341.506372	3967.448535	24844.216198
17.538500	-0.000196	0.000021	0.002654	-0.000540	6991.831253	47374.481487	3976.635008	24870.021167
18.036000	0.002290	-0.000421	0.002802	-0.001277	7023.074490	47404.779946	3979.102205	24907.520818
18.536500	-0.000440	-0.000501	0.000570	0.002528	6959.966704	47007.878688	3962.369199	24714.605781
19.036500	-0.001145	0.000051	0.004629	0.001791	6960.266465	47139.084843	3975.642582	24751.812987
19.541500	-0.001510	-0.000096	-0.001283	0.001139	6963.026125	47190.640572	3961.091955	24784.814355
20.035000	-0.000786	0.000239	0.004037	0.001647	6965.089867	47173.013944	3974.395754	24759.102519
20.535000	-0.001268	0.000337	0.003495	0.002299	6954.229691	47116.500672	3971.081501	24726.165674
21.035000	-0.001255	-0.000529	0.002993	0.001028	6966.537139	47157.812895	3973.214890	24790.451438
21.540500	0.000895	0.000507	0.002183	0.001429	6983.362101	47222.683069	3969.855640	24770.144067
22.036000	-0.000626	0.000102	0.003514	0.001399	6969.011119	47184.333807	3973.631205	24771.657931
22.536000	0.000417	-0.000680	0.000065	0.001444	6978.618939	47100.063671	3963.963211	24769.402820
23.036000	-0.000974	0.000273	0.002088	0.001537	6964.347653	47187.741095	3969.294023	24764.683016
23.535500	-0.000525	-0.000902	0.002731	0.000615	6977.524640	47161.941898	3973.633528	24811.377779
24.036500	0.000028	-0.000044	0.000113	0.001222	6977.011533	47187.623760	3964.707483	24780.643436
24.537000	-0.002418	-0.000174	0.001551	0.002075	6945.379748	47087.213346	3966.321705	24737.478397
25.034500	-0.000188	-0.000242	0.000162	0.001202	6975.119338	47169.373763	3964.897265	24781.653842
25.535000	0.000002	-0.000087	0.001621	0.001635	6972.779205	47140.939165	3967.730290	24759.712552
26.035000	-0.001369	-0.000338	0.000652	0.001389	6961.974466	47140.503079	3965.734698	24772.169453
26.535500	-0.000782	-0.000053	0.001322	0.002539	6956.583658	47052.358366	3964.408600	24714.045347
27.038500	-0.000793	0.000235	0.003568	0.001703	6964.491876	47166.862692	3972.937128	24756.272440
27.540500	-0.000600	-0.000402	-0.002229	0.001502	6968.268510	47122.358569	3957.497685	24766.437044
28.036500	0.001511	0.000268	0.001207	-0.001357	7016.279148	47483.775436	3974.881251	24911.604293
28.539500	-0.001351	0.000413	0.003507	0.004095	6936.275994	46941.399097	3966.142888	24635.612244
29.036000	-0.000245	-0.001056	0.004410	-0.000618	6992.103592	47272.174032	3981.752885	24873.975054
29.537000	0.000536	0.000898	0.004480	0.000314	6990.654986	47376.849991	3979.344954	24826.645772
30.034000	0.001231	-0.000404	0.005001	-0.000197	7002.306882	47295.803688	3982.227796	24852.573044
30.535000	-0.000587	0.000327	0.001216	0.004308	6941.533844	46911.076101	3959.249548	24624.904803
31.035000	0.000247	-0.000051	0.002552	-0.000214	6992.962854	47333.720745	3975.442041	24853.457626
31.571000	0.000586	0.000742	0.007909	0.000425	6990.067914	47349.532052	3988.643815	24821.029776
32.036000	-0.003008	-0.000605	0.002739	0.003165	6929.366716	46932.562602	3966.594216	24682.478587
32.540000	-0.002026	-0.000509	0.000068	0.005238	6918.994301	46732.224114	3953.560052	24578.229087
33.058500	0.001521	-0.000231	0.002815	-0.000375	7006.846827	47331.811142	3976.623956	24861.636728
33.540500	0.001740	0.000096	0.005297	0.000227	7003.136302	47303.597225	3981.871970	24831.080105
34.037000	0.002409	-0.000352	0.002658	-0.000380	7015.513860	47319.898489	3976.201565	24861.908872
34.540000	-0.003360	-0.000644	0.000558	0.005135	6907.325853	46728.920794	3955.179317	24583.374018
35.037500	0.000612	0.000373	0.005119	0.002051	6974.643090	47145.455348	3976.282556	24738.695217
35.535000	-0.001241	-0.000583	0.001153	0.002279	6954.677233	47024.798085	3964.660369	24727.174429
36.035500	0.000133	-0.000478	0.005078	0.002315	6967.506829	47031.838010	3975.434537	24725.342337
36.535500	-0.000015	0.001023	0.000749	0.003548	6954.269860	47059.193339	3960.056546	24663.179306
37.036500	-0.001636	0.000199	0.005898	0.002865	6945.288886	47044.734183	3976.183524	24697.560832
37.536500	0.001107	0.000668	0.005783	0.003183	6968.524347	47060.189989	3974.982314	24681.566539
38.037000	-0.001234	-0.000120	0.001728	0.002896	6948.843478	47009.095286	3964.543918	24696.005604
38.536500	-0.000345	0.000423	0.006428	0.003592	6950.691107	46993.640744	3975.636867	24660.959536
39.037000	0.001781	0.000485	0.003008	0.003380	6973.104708	47021.516024	3966.740877	24671.626428
39.535000	-0.000124	0.000556	0.001156	0.003365	6954.970966	47030.149802	3961.675880	24672.371915
40.034500	-0.001071	0.000063	-0.002171	0.002603	6953.202737	47057.592107	3954.642196	24710.813575
40.535500	0.001055	0.000230	0.002296	0.003429	6965.659842	46990.472045	3964.639558	24669.144144
41.038500	-0.002721	-0.000173	0.003647	0.002444	6938.966877	47049.799210	3971.100660	24718.850846
41.536000	-0.000779	0.000577	0.001745	0.003238	6949.918408	47045.195137	3963.646685	24678.755173
42.036500	0.000527	0.000271	0.000706	0.002925	6965.429550	47046.022157	3961.648390	24694.558907
42.536000	-0.001811	0.000371	0.004785	0.003358	6938.924435	47012.137770	3971.722232	24672.749275
43.036500	-0.000815	0.000182	0.002192	0.003070	6951.190923	47022.168726	3965.343928	24687.249915
43.536500	0.001367	0.000158	-0.001802	0.002841	6974.313239	47043.060313	3955.001327	24698.802291
44.037500	0.001120	0.000790	0.005983	0.003233	6968.168063	47067.471542	3975.396064	24679.017028
44.537500	-0.001191	-0.000518	0.001083	0.003172	6946.617035	46940.609943	3962.006763	24682.113378
45.035000	0.001498	0.000600	0.002771	-0.001768	7020.145853	47560.169143	3980.385475	24932.525730
45.535000	0.000843	0.000428	0.007590	0.000463	6992.178199	47313.492920	3987.639822	24819.099051
46.044500	0.001543	0.000720	0.000185	0.000902	6994.705046	47298.381044	3965.787888	24796.832559
46.536000	-0.002549	0.000144	0.002344	0.005970	6907.094967	46724.208926	3957.784622	24541.497600
47.036500	-0.000222	0.000445	0.004852	0.000619	6980.406931	47299.194019	3979.531517	24811.181110
47.539500	0.001524	-0.000231	0.003863	0.000079	7002.479268	47285.366784	3978.278148	24838.595481
48.036500	0.000603	0.000711	0.006097	0.000638	6988.164948	47324.446001	3982.958382	24810.200721
48.537500	-0.002015	-0.000089	0.001542	0.005792	6913.842778	46718.623693	3956.074227	24550.414733
49.037500	-0.000597	-0.000045	0.002933	0.004001	6944.368209	46904.538182	3964.820406	24640.356863
49.537500	-0.001235	0.000002	0.006736	0.000897	6967.991526	47225.463015	3984.023467	24797.102716
50.035000	0.000432	-0.000056	0.000592	0.000335	6989.443787	47276.960754	3968.481309	24825.589129
50.538500	-0.001234	0.000360	0.000790	0.005517	6923.864591	46791.904932	3954.770972	24564.217080
51.036000	0.001244	0.000286	0.001457	0.000430	6996.374212	47302.262798	3970.611169	24820.748161
51.536000	0.002719	0.001038	0.003721	-0.001067	7025.209132	47533.226975	3981.082099	24896.848541
52.036500	0.002991	0.000694	0.006849	0.002276	6995.409116	47155.217045	3980.480891	24727.311143
52.536500	-0.017715	-0.013262	-0.005331	0.127842	5795.013827	34976.283263	3650.646697	19219.330948
53.037000	-0.036595	-0.027602	-0.002467	-0.015884	6793.328053	46132.677753	4005.446916	25664.038527
53.537000	-0.029317	-0.023059	-0.000934	-0.060323	7298.669301	51302.740615	4143.741343	28128.562056
54.035000	-0.019706	-0.025732	0.007299	-0.104966	7897.592578	56220.754791	4321.998122	30871.701201
54.535500	-0.024089	-0.021348	0.001077	-0.075921	7519.759228	53273.584138	4200.709195	29055.088947
55.035000	-0.006131	-0.015877	0.011168	-0.068216	7632.583231	53014.732504	4208.608852	28593.242989
55.535500	0.017757	-0.009110	0.019493	-0.084234	8097.919048	55717.968006	4291.727209	29562.728841
56.036000	0.020957	-0.010416	0.028523	-0.070119	7966.360497	53873.013182	4273.977660	28706.563604
56.536500	0.044145	-0.001653	0.036891	-0.073245	8289.224572	55289.512616	4314.390807	28893.748492
57.036000	0.056833	0.007480	0.056562	-0.037927	8010.389505	52220.025788	4259.631171	26854.971614
57.539500	0.076131	0.018394	0.078405	0.027876	7481.039702	46356.310042	4115.936285	23471.610378
58.037000	0.099025	0.030168	0.101156	0.088126	7095.026141	41759.279514	4004.344873	20792.613747
58.537000	0.123011	0.043827	0.129239	0.131222	6910.011301	39208.009294	3962.297452	19091.951553
59.035000	0.151283	0.060221	0.162330	0.181607	6705.860222	36469.366469	3915.633281	17306.302586
59.535500	0.173278	0.074091	0.185533	0.228097	6491.525319	34035.291255	3855.663365	15832.697599
60.037500	0.195455	0.089797	0.206770	0.268556	6339.246592	32306.524331	3808.526762	14672.560399
60.535500	0.210504	0.101420	0.223383	0.300980	6200.346340	30927.984051	3771.285425	13817.734231
61.039000	0.229993	0.113313	0.243830	0.326370	6154.423408	30068.172417	3759.919965	13191.529319
61.536000	0.242228	0.125033	0.258157	0.352708	6047.162451	29166.659258	3732.835045	12579.500410
62.039000	0.248259	0.126596	0.270927	0.359128	6044.251552	28873.782685	3747.061847	12435.858586
62.534000	0.260987	0.135111	0.271538	0.364831	6097.200465	29042.962879	3735.637722	12310.026628
63.037000	0.262239	0.137008	0.278096	0.380457	5989.774435	28227.229096	3715.620673	11973.590145
63.534500	0.271612	0.145627	0.286305	0.359980	6216.905879	29987.035494	3780.399083	12416.959258
64.047000	0.276685	0.147936	0.290251	0.359014	6264.786128	30192.635555	3791.926973	12438.399405
64.537500	0.277864	0.149524	0.287593	0.368809	6196.672970	29680.420200	3762.952394	12223.227469
65.035500	0.278819	0.150200	0.285742	0.368892	6203.506011	29717.062833	3758.526562	12221.425010
65.545500	0.281592	0.151776	0.293131	0.373844	6186.457526	29508.864414	3764.108385	12114.498033
66.036500	0.280622	0.151333	0.296817	0.376036	6161.875388	29347.466825	3767.542239	12067.550868
66.536500	0.281216	0.152817	0.291938	0.384975	6097.850483	28896.230148	3736.208806	11878.563247
67.037000	0.287569	0.155458	0.296250	0.383435	6158.374404	29148.360682	3749.357527	11910.839788
67.537000	0.286910	0.154934	0.301447	0.384797	6142.775414	29034.299439	3758.070276	11882.280941
68.037500	0.287028	0.155539	0.300153	0.385807	6135.906997	29009.895809	3752.826617	11861.155014
68.537500	0.292858	0.156723	0.301602	0.387801	6165.527315	28961.158953	3751.591599	11819.618570
69.037500	0.293140	0.158208	0.304920	0.389936	6151.187549	28922.050567	3754.277360	11775.340849
69.538500	0.295867	0.158865	0.305673	0.391453	6160.546103	28870.427253	3752.539320	11743.999001
70.035500	0.297282	0.158206	0.298442	0.391099	6174.266089	28852.083597	3737.056154	11751.296201
70.536000	0.295115	0.159234	0.299254	0.398708	6099.105161	28460.786029	3721.992212	11595.666732
71.036000	0.299358	0.159416	0.309234	0.394125	6166.891482	28743.563677	3754.560010	11689.091599
71.536000	0.301163	0.160773	0.314494	0.396253	6164.385634	28697.579612	3761.708648	11645.594949
72.036500	0.300112	0.160304	0.308032	0.396685	6152.912892	28643.995444	3746.043429	11636.792425
72.537000	0.298280	0.159456	0.306407	0.402062	6097.670142	28276.611293	3730.383546	11527.938816
73.037000	0.300874	0.160291	0.311857	0.399433	6137.599039	28480.349890	3748.472774	11580.974273
73.535000	0.300406	0.160278	0.316301	0.400510	6125.736860	28416.060109	3756.113226	11559.210336
74.040500	0.303526	0.161121	0.311502	0.403042	6130.248988	28316.804056	3739.555507	11508.236513
74.535500	0.300725	0.160068	0.313720	0.408005	6071.192054	27966.145793	3733.426717	11409.173669
75.036000	0.303750	0.160836	0.310525	0.404841	6118.184680	28194.782757	3733.358499	11472.208917
75.536000	0.302544	0.159943	0.317096	0.406090	6099.460803	28069.941778	3745.273319	11447.257338
76.036500	0.305555	0.161113	0.313145	0.407915	6108.494842	28031.959608	3732.348722	11410.971048
76.539500	0.302848	0.160221	0.320594	0.409443	6076.370109	27891.946896	3745.602102	11380.694504
77.037000	0.306537	0.160871	0.320651	0.411781	6086.577895	27794.643420	3740.471899	11334.558579
77.536500	0.306421	0.161199	0.317793	0.413486	6072.816999	27715.658239	3730.298200	11301.088169
78.035000	0.306386	0.160688	0.316962	0.414865	6062.163993	27607.563548	3725.407217	11274.098626
78.535000	0.307544	0.161188	0.317949	0.417621	6050.179232	27479.238395	3721.513928	11220.444590
79.034500	0.306280	0.160701	0.320374	0.418355	6035.253334	27410.019947	3725.237042	11206.212694
79.535500	0.310489	0.159795	0.321017	0.419162	6060.709853	27313.250704	3724.873849	11190.576453
80.035000	0.308621	0.160246	0.321395	0.421441	6029.694636	27210.412916	3720.688888	11146.608202
80.536000	0.307024	0.159815	0.324648	0.423177	6004.988533	27089.083212	3724.027551	11113.283197
81.036500	0.307022	0.159209	0.322027	0.423479	6002.744648	27038.422399	3717.607624	11107.492704
81.534000	0.307299	0.159257	0.318613	0.425988	5986.312582	26901.634105	3704.731483	11059.585153
82.037000	0.309166	0.159340	0.320996	0.428753	5979.728857	26753.427804	3703.907959	11007.111214
82.534500	0.307563	0.159371	0.323145	0.429345	5963.683956	26722.542743	3707.270135	10995.902180
83.035000	0.307960	0.159883	0.321370	0.431767	5948.954852	26617.717606	3698.228310	10950.277143
83.538000	0.304510	0.158288	0.324300	0.431936	5922.806318	26521.288172	3704.166562	10947.103821
84.036000	0.308818	0.158840	0.323098	0.434413	5936.008800	26416.510075	3696.262016	10900.716335
84.536000	0.307934	0.157486	0.321536	0.435261	5923.515329	26297.236111	3691.118438	10884.896240
85.038500	0.310291	0.158387	0.321980	0.437410	5925.015963	26229.900880	3687.497573	10844.943932
85.536000	0.309789	0.157567	0.323883	0.438343	5914.699429	26135.625788	3689.554774	10827.650669
86.037000	0.308785	0.157283	0.324380	0.441961	5881.703822	25927.197625	3682.950401	10760.982161
86.536500	0.305494	0.156041	0.319888	0.446627	5825.708383	25615.120767	3663.836145	10675.806036
87.034500	0.312706	0.157419	0.327712	0.443412	5899.285869	25857.308951	3686.925439	10734.381442
87.534500	0.307923	0.155337	0.328422	0.443159	5867.106638	25760.609453	3688.968146	10739.026252
88.035500	0.308971	0.157041	0.323845	0.447994	5840.449543	25595.801555	3669.198579	10651.007806
88.535500	0.309319	0.156930	0.328289	0.452347	5812.522206	25363.063824	3669.388671	10572.622895
89.035500	0.310796	0.156809	0.324525	0.448384	5850.524519	25563.271225	3669.801681	10643.956668
89.536000	0.309588	0.155527	0.324210	0.448716	5839.716174	25478.935078	3668.457474	10637.952183
90.036500	0.309543	0.154853	0.325077	0.452528	5812.821127	25246.217489	3662.367380	10569.384898
90.536500	0.308570	0.153886	0.320490	0.454700	5791.060657	25084.712782	3648.537872	10530.562326
91.036500	0.312249	0.155866	0.328119	0.451933	5835.824863	25329.320338	3669.895960	10580.041564
91.537500	0.310010	0.154946	0.329252	0.452738	5814.604328	25240.165425	3670.578090	10565.617629
92.037000	0.308933	0.155667	0.325785	0.458352	5768.478672	24989.097203	3651.881199	10465.763571
92.535000	0.309260	0.154969	0.328483	0.460968	5752.856905	24820.637313	3652.046865	10419.657066
93.037500	0.313337	0.154950	0.326706	0.456423	5812.121751	25051.012198	3657.706081	10499.924065
93.536000	0.311248	0.154631	0.329991	0.456920	5794.224231	25009.306918	3663.443430	10491.109840
94.038500	0.312481	0.155329	0.325283	0.462663	5763.259460	24753.150470	3642.126363	10389.936504
94.536000	0.309572	0.152283	0.329165	0.463952	5734.734033	24535.411967	3647.368506	10367.422117
95.036000	0.313779	0.155463	0.334658	0.461602	5779.413998	24813.545368	3663.412996	10408.533733
95.576500	0.315468	0.155107	0.331230	0.462350	5785.880280	24757.718856	3654.831880	10395.415329
96.039500	0.311422	0.153669	0.326693	0.466439	5730.430113	24480.464093	3637.371971	10324.157933
96.539500	0.315441	0.154519	0.328993	0.464159	5773.274849	24637.058223	3646.599980	10363.805882
97.034500	0.314445	0.153768	0.333782	0.463646	5769.974167	24625.123159	3657.406819	10372.770903
97.538000	0.314783	0.154134	0.331153	0.466002	5756.194693	24525.495801	3647.243259	10331.746310
