sample name	sample
index	689
start time	 03-22-2021  12:18:22 PM
880	0.299755
Peak Time (s)	92.535
Peak Height 	0.2998
calc peak height	90,93
Baseline Time (s)	9.537
Baseline Value 	-0.003488
subtract baseline	10,4
Abs	0.192395
Peak Time (s)	92.035
Peak Height 	0.1924
calc peak height	90,93
Baseline Time (s)	11.536
Baseline Value 	0.005046
subtract baseline	10,3
PK_550	0.095515
Peak Time (s)	90.038
Peak Height 	0.09551
calc peak height	90,93
Baseline Time (s)	9.037
Baseline Value 	0.001642
subtract baseline	10,2
PK_880	0.183785
Peak Time (s)	91.035
Peak Height 	0.1838
calc peak height	90,93
Baseline Time (s)	9.537
Baseline Value 	0.003812
subtract baseline	10,1


Time (s)	A880-A510	A880-A775	A880-A975	A880	I510	I775	I975	I880	
0.035000	-0.000848	-0.000690	-0.006525	0.001564	7375.865956	45664.768728	3959.484189	24127.998433
0.535500	-0.003461	-0.000160	-0.003575	0.004521	7318.219732	45426.363200	3959.464203	23983.579442
1.035500	-0.002468	-0.000015	-0.009033	0.006680	7306.247619	45229.543805	3939.762786	23878.816861
1.538000	-0.002532	-0.001312	-0.003608	0.000033	7374.271693	45754.474957	3971.152129	24203.164990
2.036500	-0.001089	-0.000827	-0.006936	0.000821	7381.098459	45724.513121	3960.352951	24164.448092
2.536500	-0.002734	-0.000205	-0.001570	0.000960	7362.534568	45772.200298	3974.086354	24157.615038
3.036500	-0.002433	-0.001263	-0.001901	-0.000145	7377.155862	45776.882412	3976.134999	24211.916464
3.537000	0.000350	0.000046	-0.001946	-0.000402	7408.928412	45931.726481	3976.694050	24224.524698
4.040000	-0.000176	-0.001307	-0.000072	-0.001458	7414.502180	45902.436097	3984.483574	24276.610842
4.538000	0.000132	-0.001414	-0.002252	-0.001242	7415.464558	45870.341066	3978.109177	24265.931707
5.035500	0.001399	-0.000125	-0.006270	-0.000083	7416.605843	45883.287229	3964.458486	24208.863313
5.535000	-0.000993	-0.000699	-0.005519	-0.001242	7403.662805	45941.158128	3969.476971	24265.915828
6.036000	-0.000389	-0.000237	-0.001368	-0.000522	7402.443800	45915.613725	3978.544273	24230.436178
6.536000	0.000247	-0.000257	-0.003744	-0.000292	7406.703500	45890.840695	3971.651983	24219.146132
7.036500	0.000536	0.000647	-0.000450	0.000150	7405.094613	45936.595290	3979.198155	24197.383944
7.536500	-0.001153	-0.000888	-0.004255	-0.000694	7396.252377	45868.219774	3971.362499	24238.927156
8.036500	0.000655	0.000136	0.002005	0.000318	7404.584965	45869.423024	3985.286218	24189.143328
8.540000	0.000721	0.000002	0.001158	0.000170	7406.832061	45870.817254	3983.423154	24196.417303
9.037500	-0.000953	0.000000	-0.000062	-0.000022	7391.318746	45889.620453	3980.688247	24205.874111
9.537500	0.000000	0.000291	-0.002334	0.000000	7401.054286	45916.244253	3974.603800	24204.771237
10.035500	0.000964	-0.000551	-0.005272	-0.000111	7412.324650	45843.811182	3967.151770	24210.218473
10.541500	-0.001935	-0.000736	0.000962	-0.000283	7383.786971	45842.579057	3984.106937	24218.692219
11.035500	-0.002183	-0.000350	0.001610	0.001822	7359.305281	45672.892901	3980.230620	24115.374466
11.536000	0.000903	0.000220	0.000000	0.000498	7405.301091	45859.967280	3979.470425	24180.317518
12.036000	-0.000406	-0.000226	0.000533	0.000317	7393.495880	45833.719893	3981.367228	24189.205804
12.537000	0.000869	0.000526	-0.000736	0.000693	7402.896431	45870.860742	3977.001506	24170.735696
13.040000	-0.001848	-0.000640	0.000384	0.003049	7350.056364	45523.622273	3973.729099	24055.356334
13.537000	0.000221	-0.000336	-0.005788	0.000905	7393.891988	45764.671368	3963.132630	24160.299796
14.035000	-0.002027	-0.000092	-0.003450	0.003759	7340.857449	45507.725052	3961.784826	24020.720719
14.535000	-0.000281	0.000158	-0.000999	0.003030	7366.515851	45604.007927	3970.130543	24056.302491
15.039000	-0.000843	-0.000265	-0.002593	0.003338	7357.475834	45532.102846	3965.130925	24041.264582
15.535500	0.001116	0.000496	0.003352	0.001723	7394.700112	45766.031174	3985.130536	24120.194827
16.036000	-0.001136	0.000081	-0.006699	0.001387	7374.714541	45758.304910	3959.494035	24136.695374
16.542000	-0.001491	-0.000633	-0.001878	0.001085	7374.160080	45717.657859	3972.941862	24151.495402
17.039500	0.000568	0.000076	0.001789	0.000135	7405.584942	45881.523581	3985.196741	24198.117005
17.539500	0.000159	-0.000001	0.001037	0.002311	7378.569735	45659.112999	3977.411349	24091.425502
18.037000	0.000580	-0.000089	-0.000204	0.002432	7381.697240	45638.513614	3973.804375	24085.515533
18.534500	0.000620	0.000364	-0.004602	0.002675	7379.591847	45659.226836	3961.606836	24073.651312
19.035000	-0.000390	-0.000025	-0.000831	0.004117	7354.089082	45479.155322	3967.710150	24003.267363
19.535000	0.001696	0.000252	-0.004075	0.003006	7387.356682	45615.635941	3962.120667	24057.484355
20.035500	0.001059	0.000243	-0.004449	0.002917	7381.646547	45623.495213	3961.374984	24061.832091
20.536000	0.000973	0.000160	0.000881	0.003294	7376.808719	45578.202817	3974.395754	24043.400698
21.036000	0.000012	0.000057	-0.005598	0.003489	7364.777365	45548.899267	3956.881518	24033.866703
21.536000	-0.001036	-0.000418	0.000915	0.002695	7362.150812	45580.299261	3976.069707	24072.654952
22.039500	-0.000431	-0.000551	-0.000151	0.002702	7368.358440	45566.474901	3973.231501	24072.297083
22.537000	-0.000230	0.001022	-0.000960	0.004322	7353.629979	45561.918361	3966.832678	23993.291394
23.034500	0.000197	0.000519	0.003035	0.004226	7359.052507	45521.862599	3977.630514	23997.964662
23.537500	-0.000890	-0.000217	-0.001293	0.002997	7360.528387	45570.356288	3969.442492	24057.919623
24.035000	-0.000066	0.000044	0.005097	0.003316	7365.778183	45564.630045	3985.539036	24042.339121
24.535500	0.000207	0.000315	0.000178	0.003818	7363.399611	45541.978985	3971.155813	24017.853881
25.035500	-0.000976	-0.000072	0.002372	0.003418	7355.271278	45543.289443	3978.016912	24037.370734
25.538500	0.000057	-0.001214	-0.004310	0.002606	7374.441115	45510.842134	3962.550805	24077.012550
26.036500	0.000178	-0.001021	-0.000164	0.003142	7370.110168	45477.131589	3972.034782	24050.805947
26.539500	0.001848	0.000662	-0.003011	0.003959	7378.998946	45562.184965	3962.408877	24010.962919
27.037000	0.000423	-0.000005	0.001108	0.002530	7379.043364	45637.133355	3977.019150	24080.742158
27.537000	0.002980	0.000380	0.001456	0.001937	7411.995788	45733.493831	3979.515663	24109.751343
28.037500	0.000045	0.000164	0.000539	0.002518	7375.226808	45655.009594	3975.543328	24081.319525
28.535000	0.002134	0.000493	-0.000035	0.002987	7392.132849	45641.151212	3972.786559	24058.397907
29.035500	0.000324	0.000458	0.002774	0.003050	7372.597587	45631.483284	3980.057897	24055.314671
29.535000	-0.000233	0.000936	0.001084	0.002704	7370.396539	45712.645677	3976.492254	24072.196190
30.036000	0.000879	0.000627	0.002958	0.002691	7382.117607	45683.467007	3981.501340	24072.843885
30.536000	0.001866	0.000525	-0.002497	0.005778	7360.273390	45370.362316	3958.999655	23922.528465
31.039000	0.000596	0.000539	-0.001945	0.004093	7364.574099	45536.890337	3964.850753	24004.438044
31.537000	0.004995	0.001443	0.000058	0.003236	7419.518867	45710.245092	3972.374083	24046.252521
32.037000	0.001233	-0.000030	0.002785	0.002716	7385.551841	45616.388290	3980.977147	24071.624628
32.537000	0.000523	0.000228	-0.000125	0.003174	7373.374535	45596.649323	3972.053339	24049.248764
33.035000	0.002609	0.000213	0.003158	0.001759	7409.960159	45734.585294	3984.517090	24118.427587
33.535000	0.002273	0.001008	-0.000121	0.004208	7380.829529	45571.681707	3969.340156	23998.845121
34.035500	-0.000643	0.000791	-0.000775	0.005077	7341.541064	45465.075875	3965.339057	23956.578113
34.535500	0.001827	0.000776	0.003244	0.005278	7365.054152	45443.883516	3975.395685	23946.777000
35.036000	-0.000231	0.001221	0.002644	0.005707	7339.282110	45445.405464	3972.675445	23925.948842
35.541500	-0.000225	0.000649	0.002297	0.005498	7341.515372	45409.936343	3972.314128	23936.125207
36.036500	-0.000634	0.000419	-0.000073	0.005205	7340.306891	45416.134874	3966.845451	23950.346242
36.536000	-0.000987	0.000335	-0.002557	0.005541	7333.195779	45374.969649	3959.463153	23934.039148
37.037000	0.001668	-0.000301	-0.003289	0.004753	7368.867693	45389.931139	3959.609436	23972.337412
37.537000	0.000117	0.000747	-0.001817	0.005446	7345.577636	45424.588145	3961.642675	23938.626081
38.035000	0.001434	0.001891	0.003493	0.006613	7347.134842	45422.365796	3972.526752	23882.024117
38.535000	-0.001261	0.000062	-0.002959	0.005166	7334.234740	45384.959406	3959.391028	23952.243192
39.035500	0.001716	0.001055	0.001218	0.005766	7358.831355	45423.431880	3968.763133	23923.082820
39.541500	0.001070	0.000571	-0.002663	0.005714	7352.683708	45381.221629	3958.733169	23925.643344
40.039000	0.002077	0.000632	0.002758	0.005335	7367.051439	45424.158228	3973.960659	23944.003173
40.536000	-0.001266	0.000843	0.002932	0.006480	7320.652110	45332.839176	3971.398114	23888.480712
41.036500	0.000882	0.000932	0.001376	0.006340	7344.247956	45355.164453	3967.669663	23895.259866
41.537000	0.002196	0.000317	-0.003606	0.005411	7367.509999	45385.956642	3957.063795	23940.325126
42.037000	0.000429	0.000689	0.001399	0.006004	7343.041599	45364.335246	3968.613925	23911.562568
42.537500	0.001854	0.000555	-0.001600	0.006864	7348.886767	45267.204000	3958.507996	23869.904150
43.035000	0.001998	0.001224	-0.001471	0.006830	7350.727479	45335.846412	3958.933313	23871.545317
43.541000	0.002559	0.000060	0.003135	-0.000158	7429.599921	45908.963433	3989.581019	24212.540550
44.035000	0.001957	0.000466	-0.002212	0.003732	7382.502351	45565.261195	3965.096669	24022.059306
44.535500	0.002038	0.000778	0.003731	0.006837	7351.064297	45291.551710	3972.563641	23871.186066
45.036000	0.001322	0.001267	0.002921	0.006921	7342.798213	45331.203520	3970.207334	23867.146117
45.536000	0.001106	0.001503	0.003238	0.004314	7367.587669	45610.014507	3977.937350	23993.698808
46.036500	0.002550	0.001388	0.002812	0.004589	7379.746644	45571.605845	3976.076541	23980.295360
46.538000	0.002009	0.000822	0.000822	0.007757	7341.253013	45206.229075	3962.500764	23826.724851
47.037000	0.001961	0.000320	-0.005480	0.007004	7348.540463	45230.615969	3948.071855	23863.093323
47.534500	0.000142	0.000582	0.001565	0.004789	7352.642946	45472.783004	3972.252519	23970.549694
48.034500	0.001518	0.000290	-0.001244	0.004175	7373.321223	45504.497996	3966.474752	24000.471219
48.535500	0.000788	0.001544	-0.002510	0.008422	7321.796755	45211.730921	3952.088361	23794.610411
49.038000	0.002954	0.000871	0.002684	0.004775	7382.026943	45502.584824	3975.246029	23971.248553
49.536000	0.006060	0.001855	0.006879	0.002356	7440.013098	45837.809436	3992.882723	24089.243965
50.036500	0.002765	0.000651	0.003034	0.005724	7370.178253	45387.984330	3973.664410	23925.157057
50.536500	-0.061023	-0.019364	0.003076	0.251989	5064.932652	25906.003161	3477.053248	14803.023931
51.037000	-0.044249	-0.014059	-0.008531	0.060834	6423.524911	39075.692248	3810.339114	21413.333792
51.537000	-0.063961	-0.048038	-0.016384	-0.179532	8787.792514	61094.076227	4507.284609	35137.802615
52.037500	-0.132204	-0.304222	-0.128596	-0.467645	12699.647611	65535.000000	5346.783561	65535.000000
52.535000	-0.039543	-0.169899	-0.007133	-0.333322	11798.910779	65535.000000	5273.233272	48858.307262
53.035000	-0.051802	-0.132044	-0.004760	-0.295467	10823.907461	65535.000000	5081.248426	45017.657101
53.538500	-0.049971	-0.094864	0.004171	-0.257775	10192.132010	65461.216224	4936.741136	41512.132056
54.036000	-0.043895	-0.084221	-0.001084	-0.245427	10086.900456	65216.006577	4852.901212	40428.317017
54.536000	-0.019270	-0.092347	-0.002521	-0.255770	10693.463317	65535.000000	4894.893567	41334.024868
55.035500	-0.003546	-0.078187	-0.001711	-0.240934	10709.523040	65437.562563	4829.146623	40041.518798
55.536500	-0.000858	-0.049489	0.007877	-0.200420	10054.150854	63758.466815	4691.465730	36728.765790
56.040000	0.001587	-0.024308	0.015792	-0.148474	9278.374321	60120.185441	4511.620499	32909.319131
56.537000	0.006497	-0.012445	0.017279	-0.091892	8557.569880	54519.848022	4310.799084	29237.248655
57.035000	0.008221	-0.008030	0.018724	-0.042348	7962.745231	49423.487637	4155.143245	26392.153813
57.535500	0.015982	-0.001907	0.030743	-0.009654	7677.624223	46661.344832	4093.354660	24684.814739
58.038000	0.032709	0.006708	0.033153	0.017910	7558.726983	44792.380863	4022.042350	23341.972497
58.535500	0.038949	0.011694	0.040016	0.054011	7246.003745	41894.770917	3944.175329	21707.271490
59.036000	0.040763	0.015072	0.051833	0.082224	6986.907404	39726.513104	3902.749928	20521.081486
59.536500	0.056800	0.023153	0.065930	0.112739	6851.359318	37871.681096	3862.808697	19321.972428
60.036500	0.073464	0.033771	0.090934	0.152680	6642.668590	35587.248309	3827.758518	17874.492855
60.575000	0.083023	0.040233	0.101420	0.188599	6419.472578	33442.676292	3770.784969	16681.743416
61.037500	0.096197	0.048584	0.114868	0.206631	6379.793836	32768.970091	3760.864381	16119.121577
61.540000	0.115653	0.057099	0.117282	0.221177	6419.895860	32356.778556	3735.112771	15681.999551
62.034500	0.119749	0.061660	0.136732	0.227200	6404.107933	32257.750104	3763.656609	15505.241749
62.537500	0.128737	0.067019	0.134701	0.232591	6433.645491	32255.602445	3747.771553	15349.118629
63.072500	0.132757	0.069744	0.138843	0.236799	6432.093473	32155.432468	3747.627905	15228.554270
63.536000	0.137947	0.072329	0.146773	0.241156	6438.965942	32036.269466	3755.242811	15104.989818
64.036000	0.141740	0.075062	0.146204	0.246169	6428.898871	31883.610539	3743.374882	14964.306752
64.536500	0.145350	0.078065	0.150790	0.251789	6412.385874	31709.359641	3741.193621	14808.529679
65.036500	0.146440	0.079142	0.152306	0.257888	6371.572517	31377.989353	3731.589646	14641.763251
65.536500	0.147600	0.081022	0.156947	0.258725	6374.185779	31446.490461	3739.554681	14619.044977
66.037500	0.151567	0.081773	0.153844	0.261455	6384.229776	31316.645137	3727.367728	14545.274793
66.537500	0.152236	0.084006	0.154650	0.269960	6321.084440	30908.968576	3711.533005	14318.450855
67.037500	0.155645	0.084995	0.165741	0.269039	6355.835381	31032.513909	3736.363420	14342.792431
67.535500	0.158024	0.085625	0.162317	0.269119	6374.432426	31068.176116	3729.048670	14340.674668
68.035500	0.161923	0.088391	0.165074	0.272464	6378.927805	31030.643107	3727.827387	14252.511504
68.536000	0.157740	0.087887	0.160581	0.279132	6291.913740	30569.623182	3704.948841	14078.738123
69.036500	0.160847	0.089510	0.166887	0.277542	6329.314308	30775.230732	3721.075148	14119.940673
69.536500	0.164059	0.090158	0.171759	0.277132	6358.426311	30843.206708	3732.025120	14130.580192
70.036500	0.164998	0.091083	0.171109	0.278312	6356.482978	30826.822515	3728.214921	14099.962231
70.534000	0.162836	0.090623	0.169013	0.284919	6286.442100	30375.801483	3710.317145	13930.087571
71.037500	0.166086	0.092508	0.170087	0.282126	6334.559459	30673.576986	3718.226046	14001.597978
71.540500	0.169254	0.091727	0.175150	0.280971	6369.385550	30697.461875	3731.089569	14031.277931
72.035000	0.169179	0.093228	0.168919	0.282164	6359.137052	30717.169878	3715.752375	14000.611936
72.535500	0.167706	0.092646	0.173277	0.287712	6302.905737	30327.061936	3713.317109	13859.040408
73.035500	0.171427	0.093447	0.165639	0.285790	6348.032996	30499.683385	3701.716336	13907.888579
73.538000	0.172509	0.094225	0.175761	0.284373	6368.204293	30639.617270	3725.294071	13944.028380
74.036500	0.173024	0.094654	0.167263	0.284943	6367.759469	30630.615923	3706.714681	13929.488154
74.536500	0.170509	0.094929	0.172965	0.290644	6301.883180	30286.113619	3706.714458	13784.966200
75.037000	0.173236	0.096051	0.175262	0.286536	6356.592319	30618.060474	3719.798868	13888.896996
75.537000	0.175031	0.096537	0.179279	0.287033	6367.082820	30617.441555	3727.072305	13876.284127
76.037500	0.176941	0.095856	0.174936	0.286893	6383.708221	30582.819559	3718.393742	13879.824650
76.535000	0.174703	0.096567	0.179838	0.292569	6319.944834	30267.947449	3716.804601	13736.582741
77.038000	0.174359	0.095851	0.171527	0.289633	6340.710367	30408.369039	3705.849827	13810.463893
77.535500	0.177540	0.097446	0.175696	0.289627	6366.396487	30509.975598	3714.347852	13810.597452
78.038500	0.179311	0.097088	0.182704	0.289499	6381.794681	30495.404527	3729.065350	13813.843392
78.536000	0.175874	0.096816	0.179046	0.294408	6314.620481	30167.945986	3711.426848	13690.589463
79.036000	0.179648	0.097883	0.175756	0.292236	6362.350182	30372.193895	3709.151153	13744.956137
79.536500	0.179054	0.096745	0.186533	0.290314	6373.093408	30421.850129	3735.351612	13793.270047
80.037000	0.178157	0.096854	0.180248	0.290456	6364.685374	30419.788457	3721.995672	13789.705824
80.540000	0.177497	0.096662	0.185087	0.295688	6317.358747	30077.968777	3721.185437	13658.679452
81.035000	0.180987	0.098656	0.179943	0.292040	6374.775074	30433.611883	3718.108166	13749.870861
81.535000	0.180196	0.097952	0.190409	0.292044	6368.330779	30388.706684	3739.856937	13749.776467
82.034500	0.180546	0.096737	0.185629	0.291276	6377.395896	30360.421575	3731.453365	13769.064169
82.535500	0.177844	0.097238	0.181463	0.296668	6312.309944	30052.731443	3711.747145	13634.319737
83.035500	0.179844	0.097584	0.183254	0.291976	6366.037782	30369.716661	3725.066935	13751.480385
83.536000	0.179634	0.097951	0.182317	0.292730	6358.244636	30345.210455	3721.572299	13732.556662
84.036500	0.180346	0.097556	0.180914	0.292629	6364.807215	30326.605799	3718.890514	13735.079915
84.537000	0.180791	0.098153	0.186513	0.293280	6363.152032	30323.232807	3729.123051	13718.792428
85.039500	0.179692	0.097720	0.183063	0.292767	6358.409907	30328.281830	3723.036107	13731.631142
85.534500	0.181566	0.097119	0.188349	0.293387	6368.549115	30251.235439	3732.723775	13716.098046
86.034500	0.180140	0.095750	0.179598	0.292086	6367.535550	30246.965188	3717.303870	13748.714592
86.535000	0.177927	0.095043	0.183745	0.296841	6311.592929	29904.914830	3716.055837	13630.006208
87.035500	0.181247	0.097094	0.187012	0.294001	6361.000837	30210.980932	3728.659105	13700.746788
87.536000	0.180977	0.096286	0.184000	0.292811	6368.446790	30235.053945	3724.880993	13730.527902
88.036000	0.181848	0.096486	0.184179	0.294015	6365.749385	30171.852862	3722.762477	13700.393853
88.536500	0.179960	0.095388	0.182184	0.297620	6321.592310	29877.956164	3711.274024	13610.686924
89.037500	0.180334	0.095889	0.186603	0.293652	6356.449627	30157.214555	3728.537094	13709.481451
89.540000	0.182768	0.095410	0.189948	0.293830	6374.698985	30115.956714	3735.140864	13705.031744
90.037500	0.181517	0.095515	0.191036	0.294174	6361.790631	30100.962887	3736.698589	13696.427692
90.534500	0.178254	0.095220	0.181918	0.298347	6302.213574	29822.421067	3709.252818	13592.693114
91.034500	0.183785	0.095099	0.183021	0.294276	6379.336264	30068.557070	3719.838167	13693.882573
91.535500	0.180502	0.094558	0.183973	0.293634	6357.949124	30074.806358	3723.123862	13709.918882
92.035500	0.179754	0.094395	0.192395	0.294010	6348.888009	30041.125824	3739.897063	13700.522119
92.535500	0.178304	0.094452	0.191002	0.299755	6291.446286	29687.727186	3725.001867	13557.910009
93.063500	0.178998	0.093846	0.188492	0.294578	6338.241278	29971.355383	3730.538401	13686.331521
93.536500	0.181017	0.093304	0.189032	0.294117	6358.214497	29966.320496	3732.626999	13697.854417
94.039500	0.180345	0.094543	0.189837	0.295011	6345.593799	29987.852407	3732.440677	13675.539104
94.534000	0.178429	0.093524	0.180373	0.298891	6299.280985	29683.777316	3705.015407	13579.240273
95.037500	0.179391	0.092370	0.185655	0.295240	6336.086329	29838.339711	3723.281868	13669.832717
95.535000	0.181790	0.093186	0.190609	0.294773	6359.155777	29918.082624	3734.549502	13681.474102
