sample name	sample
index	874
start time	 04-08-2021  01:39:12 PM


Wavelength (nm)	Absorbance
494.344910	-0.022498
494.563924	-0.022498
494.782919	-0.022498
495.001897	0.024117
495.220856	0.002654
495.439797	0.003402
495.658719	0.009175
495.877624	0.013809
496.096510	0.011162
496.315378	0.012580
496.534227	0.010285
496.753059	0.013008
496.971872	0.011885
497.190667	0.068871
497.409444	0.113924
497.628203	0.131815
497.846943	0.142522
498.065665	0.148643
498.284369	0.155875
498.503055	0.159072
498.721723	0.162119
498.940372	0.164059
499.159003	0.164754
499.377616	0.165452
499.596210	0.165606
499.814787	0.166587
500.033345	0.167306
500.251885	0.166762
500.470406	0.166784
500.688910	0.166727
500.907395	0.167828
501.125862	0.168051
501.344311	0.167048
501.562742	0.167886
501.781154	0.168210
501.999548	0.168274
502.217924	0.167516
502.436282	0.168562
502.654621	0.168898
502.872942	0.168741
503.091245	0.170031
503.309530	0.172465
503.527797	0.172994
503.746045	0.172090
503.964275	0.172790
504.182487	0.173510
504.400681	0.174308
504.618856	0.174777
504.837013	0.175144
505.055152	0.174606
505.273273	0.174739
505.491376	0.174089
505.709460	0.174386
505.927526	0.174659
506.145574	0.175140
506.363604	0.174848
506.581615	0.175572
506.799608	0.176290
507.017583	0.176884
507.235540	0.176814
507.453478	0.178160
507.671399	0.178618
507.889301	0.179332
508.107185	0.179424
508.325050	0.180294
508.542898	0.180318
508.760727	0.179821
508.978538	0.179695
509.196330	0.179535
509.414105	0.180106
509.631861	0.180553
509.849599	0.179651
510.067319	0.180723
510.285021	0.180798
510.502704	0.180413
510.720369	0.180728
510.938016	0.181935
511.155645	0.182012
511.373255	0.181919
511.590848	0.182781
511.808422	0.183049
512.025977	0.183167
512.243515	0.183727
512.461034	0.184436
512.678536	0.185339
512.896018	0.185411
513.113483	0.186246
513.330930	0.185858
513.548358	0.186500
513.765768	0.188026
513.983160	0.188318
514.200533	0.189490
514.417889	0.190139
514.635226	0.189951
514.852545	0.190018
515.069845	0.189486
515.287128	0.189874
515.504392	0.189136
515.721638	0.188642
515.938866	0.188890
516.156075	0.188191
516.373267	0.188726
516.590440	0.189119
516.807594	0.189511
517.024731	0.190225
517.241850	0.190182
517.458950	0.191161
517.676032	0.191697
517.893095	0.192716
518.110141	0.193967
518.327168	0.194216
518.544177	0.194671
518.761168	0.194803
518.978141	0.195625
519.195095	0.196470
519.412031	0.196393
519.628949	0.196772
519.845849	0.196873
520.062731	0.196717
520.279594	0.196909
520.496439	0.197788
520.713266	0.198880
520.930074	0.198428
521.146865	0.198644
521.363637	0.198936
521.580391	0.199874
521.797127	0.199737
522.013844	0.199261
522.230543	0.198935
522.447224	0.198997
522.663887	0.198976
522.880532	0.199867
523.097158	0.200664
523.313766	0.201416
523.530356	0.201285
523.746928	0.201118
523.963481	0.202615
524.180017	0.203571
524.396534	0.203584
524.613032	0.204330
524.829513	0.205037
525.045975	0.204921
525.262420	0.204297
525.478845	0.205150
525.695253	0.205795
525.911643	0.205470
526.128014	0.206102
526.344367	0.206915
526.560702	0.207057
526.777018	0.207596
526.993316	0.208206
527.209597	0.209194
527.425858	0.209073
527.642102	0.209501
527.858328	0.209621
528.074535	0.209586
528.290724	0.210604
528.506894	0.211158
528.723047	0.210950
528.939181	0.211859
529.155297	0.212559
529.371395	0.213045
529.587475	0.213810
529.803536	0.214788
530.019579	0.215862
530.235604	0.215901
530.451611	0.216208
530.667600	0.217322
530.883570	0.217236
531.099522	0.217705
531.315456	0.217938
531.531372	0.218074
531.747269	0.218857
531.963148	0.218772
532.179009	0.218883
532.394852	0.218752
532.610676	0.218693
532.826482	0.219630
533.042271	0.219734
533.258040	0.220396
533.473792	0.220736
533.689525	0.220745
533.905240	0.221342
534.120937	0.222200
534.336616	0.223069
534.552277	0.223524
534.767919	0.223928
534.983543	0.224741
535.199149	0.224601
535.414736	0.225649
535.630306	0.225822
535.845857	0.226973
536.061390	0.226568
536.276904	0.226676
536.492401	0.226562
536.707879	0.226435
536.923339	0.226212
537.138781	0.227379
537.354204	0.228157
537.569610	0.228781
537.784997	0.228252
538.000366	0.228653
538.215716	0.229116
538.431049	0.230396
538.646363	0.231115
538.861659	0.232004
539.076937	0.232244
539.292196	0.232409
539.507438	0.232639
539.722661	0.233490
539.937866	0.234496
540.153052	0.235256
540.368221	0.235368
540.583371	0.235453
540.798503	0.236021
541.013617	0.236032
541.228712	0.235891
541.443789	0.236310
541.658848	0.236742
541.873889	0.236506
542.088912	0.236585
542.303916	0.236954
542.518902	0.237352
542.733870	0.237878
542.948820	0.238318
543.163752	0.238352
543.378665	0.239022
543.593560	0.238881
543.808437	0.239305
544.023295	0.239796
544.238136	0.239885
544.452958	0.240082
544.667762	0.240363
544.882548	0.240695
545.097315	0.241485
545.312064	0.240562
545.526795	0.240737
545.741508	0.241156
545.956203	0.241447
546.170879	0.241916
546.385537	0.242678
546.600177	0.242668
546.814799	0.243379
547.029402	0.243242
547.243988	0.244956
547.458555	0.245308
547.673103	0.245689
547.887634	0.245919
548.102146	0.246344
548.316640	0.246492
548.531116	0.247111
548.745574	0.247157
548.960013	0.248274
549.174435	0.248427
549.388838	0.249095
549.603222	0.249139
549.817589	0.249583
550.031937	0.249617
550.246267	0.250014
550.460579	0.250063
550.674873	0.250699
550.889148	0.250783
551.103405	0.251280
551.317644	0.251107
551.531865	0.251761
551.746068	0.251934
551.960252	0.252301
552.174418	0.253023
552.388566	0.254026
552.602696	0.253755
552.816807	0.254194
553.030900	0.254234
553.244975	0.255115
553.459032	0.255642
553.673070	0.256063
553.887091	0.256510
554.101093	0.256407
554.315077	0.256067
554.529042	0.256609
554.742990	0.256358
554.956919	0.256610
555.170830	0.256736
555.384722	0.256856
555.598597	0.257069
555.812453	0.257611
556.026291	0.257425
556.240111	0.257595
556.453913	0.258232
556.667696	0.258937
556.881461	0.258808
557.095208	0.259359
557.308937	0.259543
557.522647	0.259783
557.736339	0.259746
557.950013	0.260444
558.163669	0.260597
558.377307	0.260325
558.590926	0.260207
558.804527	0.260803
559.018110	0.260801
559.231675	0.261456
559.445221	0.261663
559.658749	0.261848
559.872259	0.262041
560.085751	0.262565
560.299225	0.263395
560.512680	0.263890
560.726117	0.264163
560.939536	0.264332
561.152937	0.264308
561.366319	0.264657
561.579683	0.264660
561.793029	0.264941
562.006357	0.265070
562.219667	0.265171
562.432958	0.265389
562.646231	0.265969
562.859486	0.266179
563.072723	0.265791
563.285941	0.266248
563.499141	0.266843
563.712323	0.266627
563.925487	0.266918
564.138632	0.266863
564.351760	0.266947
564.564869	0.266701
564.777960	0.266910
564.991032	0.267527
565.204087	0.267829
565.417123	0.267980
565.630141	0.268582
565.843140	0.268838
566.056122	0.268781
566.269085	0.268639
566.482030	0.268721
566.694957	0.268750
566.907866	0.268993
567.120756	0.268799
567.333628	0.268805
567.546482	0.268623
567.759318	0.268490
567.972135	0.268934
568.184935	0.269466
568.397716	0.270033
568.610478	0.270476
568.823223	0.270301
569.035949	0.270180
569.248657	0.270570
569.461347	0.271076
569.674019	0.271171
569.886672	0.271473
570.099308	0.271962
570.311925	0.271628
570.524523	0.272000
570.737104	0.272585
570.949666	0.272893
571.162210	0.272803
571.374736	0.272996
571.587244	0.273740
571.799733	0.273483
572.012205	0.273354
572.224658	0.274007
572.437092	0.273892
572.649509	0.274232
572.861907	0.275066
573.074287	0.275402
573.286649	0.275135
573.498993	0.275384
573.711318	0.276609
573.923625	0.276842
574.135914	0.277385
574.348185	0.277523
574.560438	0.277540
574.772672	0.277077
574.984888	0.277392
575.197086	0.278253
575.409266	0.278283
575.621427	0.277952
575.833570	0.278034
576.045695	0.277838
576.257802	0.278320
576.469890	0.278480
576.681961	0.279068
576.894013	0.279334
577.106046	0.279474
577.318062	0.279452
577.530059	0.279590
577.742039	0.279570
577.954000	0.279651
578.165942	0.280001
578.377867	0.279750
578.589773	0.280070
578.801661	0.280050
579.013531	0.280153
579.225382	0.280611
579.437216	0.280903
579.649031	0.281594
579.860828	0.281492
580.072606	0.281622
580.284367	0.282420
580.496109	0.282405
580.707833	0.282750
580.919539	0.283174
581.131227	0.283479
581.342896	0.283460
581.554547	0.283338
581.766180	0.283365
581.977795	0.282943
582.189391	0.283131
582.400969	0.282847
582.612529	0.283335
582.824071	0.282873
583.035595	0.283069
583.247100	0.283248
583.458587	0.283881
583.670056	0.284433
583.881506	0.284631
584.092939	0.284758
584.304353	0.285603
584.515749	0.285020
584.727127	0.285690
584.938486	0.285754
585.149828	0.286111
585.361151	0.286442
585.572456	0.287162
585.783742	0.287790
585.995011	0.287710
586.206261	0.287567
586.417493	0.288134
586.628706	0.288156
586.839902	0.288215
587.051079	0.288398
587.262238	0.288331
587.473379	0.288509
587.684502	0.288720
587.895606	0.289396
588.106692	0.289527
588.317760	0.290102
588.528810	0.290732
588.739841	0.290736
588.950855	0.291101
589.161850	0.290916
589.372827	0.290802
589.583785	0.290953
589.794726	0.290668
590.005648	0.291040
590.216552	0.290831
590.427437	0.290695
590.638305	0.291123
590.849154	0.291440
591.059985	0.292002
591.270798	0.292042
591.481592	0.291978
591.692369	0.292364
591.903127	0.292588
592.113867	0.292924
592.324588	0.293189
592.535292	0.293454
592.745977	0.293483
592.956644	0.293616
593.167293	0.294019
593.377923	0.294878
593.588536	0.294988
593.799130	0.295704
594.009706	0.295774
594.220263	0.295743
594.430803	0.296150
594.641324	0.296015
594.851827	0.296588
595.062312	0.296360
595.272778	0.296371
595.483227	0.296602
595.693657	0.296309
595.904069	0.296932
596.114462	0.297074
596.324838	0.296692
596.535195	0.297088
596.745534	0.297278
596.955855	0.297913
597.166157	0.298066
597.376441	0.298333
597.586707	0.298526
597.796955	0.298107
598.007185	0.298570
598.217396	0.298709
598.427589	0.298987
598.637764	0.298925
598.847921	0.298805
599.058060	0.298829
599.268180	0.299326
599.478282	0.299413
599.688366	0.299663
599.898431	0.299805
600.108479	0.300380
600.318508	0.300516
600.528519	0.300584
600.738511	0.300910
600.948486	0.301318
601.158442	0.301443
601.368380	0.301779
601.578300	0.302055
601.788202	0.302122
601.998085	0.302367
602.207950	0.302390
602.417797	0.302458
602.627626	0.302781
602.837436	0.303156
603.047228	0.303025
603.257002	0.302745
603.466758	0.303150
603.676496	0.303496
603.886215	0.303359
604.095916	0.303677
604.305599	0.304278
604.515264	0.304270
604.724910	0.304034
604.934538	0.304275
605.144148	0.304664
605.353740	0.304675
605.563314	0.304699
605.772869	0.305610
605.982406	0.305887
606.191925	0.305498
606.401425	0.305808
606.610908	0.305552
606.820372	0.305943
607.029818	0.306180
607.239246	0.306228
607.448655	0.306755
607.658047	0.306527
607.867420	0.306418
608.076775	0.306645
608.286111	0.306708
608.495430	0.307477
608.704730	0.307545
608.914012	0.307788
609.123275	0.308099
609.332521	0.308176
609.541748	0.308100
609.750957	0.308522
609.960148	0.308601
610.169321	0.308856
610.378475	0.309084
610.587611	0.309196
610.796729	0.308890
611.005829	0.309172
611.214910	0.309044
611.423974	0.309540
611.633019	0.309901
611.842045	0.310280
612.051054	0.310557
612.260044	0.310613
612.469017	0.310755
612.677970	0.311294
612.886906	0.311588
613.095824	0.311947
613.304723	0.311990
613.513604	0.312105
613.722467	0.312411
613.931311	0.312745
614.140138	0.312603
614.348946	0.312972
614.557736	0.313304
614.766507	0.313182
614.975261	0.313581
615.183996	0.313794
615.392713	0.313912
615.601412	0.314141
615.810092	0.313997
616.018754	0.314387
616.227399	0.314575
616.436024	0.314873
616.644632	0.315053
616.853222	0.315207
617.061793	0.315223
617.270346	0.315354
617.478880	0.315410
617.687397	0.315652
617.895895	0.315636
618.104375	0.315954
618.312837	0.315994
618.521281	0.316267
618.729706	0.316170
618.938113	0.316720
619.146502	0.316949
619.354873	0.316981
619.563226	0.317155
619.771560	0.317626
619.979876	0.317532
620.188174	0.317817
620.396453	0.317878
620.604715	0.318268
620.812958	0.317504
621.021183	0.317712
621.229390	0.318062
621.437578	0.318265
621.645748	0.318639
621.853900	0.318683
622.062034	0.318857
622.270150	0.318939
622.478247	0.319092
622.686326	0.319932
622.894387	0.319641
623.102430	0.319495
623.310454	0.319538
623.518461	0.319456
623.726449	0.319703
623.934418	0.319742
624.142370	0.319949
624.350303	0.319640
624.558218	0.319414
624.766115	0.320165
624.973994	0.320575
625.181855	0.320745
625.389697	0.320954
625.597521	0.321339
625.805327	0.321574
626.013114	0.321638
626.220883	0.321884
626.428634	0.322381
626.636367	0.322231
626.844082	0.322543
627.051778	0.322700
627.259457	0.322747
627.467117	0.322679
627.674758	0.322522
627.882382	0.322780
628.089987	0.323052
628.297574	0.323068
628.505143	0.323197
628.712694	0.323106
628.920226	0.323170
629.127740	0.323500
629.335236	0.323700
629.542714	0.323836
629.750174	0.324187
629.957615	0.324543
630.165038	0.324738
630.372443	0.324907
630.579829	0.325391
630.787198	0.325847
630.994548	0.325930
631.201880	0.326238
631.409194	0.326798
631.616489	0.326739
631.823766	0.326975
632.031025	0.327236
632.238266	0.327488
632.445489	0.327411
632.652693	0.327867
632.859879	0.328165
633.067047	0.328219
633.274197	0.328545
633.481329	0.328868
633.688442	0.328960
633.895537	0.329256
634.102614	0.329478
634.309672	0.329846
634.516713	0.329610
634.723735	0.329567
634.930739	0.329755
635.137724	0.329537
635.344692	0.330154
635.551641	0.330203
635.758572	0.330548
635.965485	0.330664
636.172379	0.330743
636.379256	0.331178
636.586114	0.331587
636.792954	0.332007
636.999775	0.332400
637.206579	0.332200
637.413364	0.332555
637.620131	0.332784
637.826880	0.333053
638.033610	0.333365
638.240323	0.333481
638.447017	0.333432
638.653692	0.333268
638.860350	0.333362
639.066990	0.333504
639.273611	0.333581
639.480214	0.333600
639.686798	0.333836
639.893365	0.333871
640.099913	0.333903
640.306443	0.334131
640.512955	0.334259
640.719449	0.334425
640.925924	0.334905
641.132381	0.335426
641.338820	0.335379
641.545241	0.335541
641.751644	0.335557
641.958028	0.335931
642.164394	0.336220
642.370742	0.336542
642.577071	0.336910
642.783383	0.337064
642.989676	0.336755
643.195951	0.337127
643.402207	0.337330
643.608446	0.337758
643.814666	0.337776
644.020868	0.338135
644.227052	0.338361
644.433218	0.338835
644.639365	0.338856
644.845494	0.339203
645.051605	0.339168
645.257698	0.339361
645.463772	0.339572
645.669828	0.340080
645.875866	0.340383
646.081886	0.340570
646.287888	0.340339
646.493871	0.340413
646.699836	0.340803
646.905783	0.341148
647.111712	0.341462
647.317622	0.341482
647.523514	0.341563
647.729388	0.341622
647.935244	0.341961
648.141082	0.342340
648.346901	0.342600
648.552702	0.342869
648.758485	0.343349
648.964250	0.343394
649.169996	0.344034
649.375724	0.344020
649.581434	0.344141
649.787126	0.344280
649.992800	0.344402
650.198455	0.344952
650.404092	0.345090
650.609711	0.345373
650.815311	0.345554
651.020894	0.345516
651.226458	0.345813
651.432004	0.345990
651.637532	0.346196
651.843041	0.346337
652.048532	0.346424
652.254006	0.346653
652.459460	0.346719
652.664897	0.346847
652.870315	0.347158
653.075716	0.347240
653.281097	0.347446
653.486461	0.348146
653.691807	0.348511
653.897134	0.348850
654.102443	0.349061
654.307734	0.349158
654.513006	0.349770
654.718261	0.349903
654.923497	0.350431
655.128715	0.350880
655.333915	0.350944
655.539096	0.351189
655.744259	0.351460
655.949404	0.351769
656.154531	0.352228
656.359640	0.352237
656.564730	0.352448
656.769802	0.352679
656.974856	0.352593
657.179892	0.352571
657.384909	0.352656
657.589908	0.352411
657.794889	0.352535
657.999852	0.352569
658.204797	0.352925
658.409723	0.353267
658.614631	0.353317
658.819521	0.353685
659.024393	0.353819
659.229246	0.353967
659.434081	0.354393
659.638898	0.354804
659.843697	0.354852
660.048478	0.355007
660.253240	0.355125
660.457984	0.355289
660.662710	0.355412
660.867417	0.355781
661.072107	0.356139
661.276778	0.356476
661.481431	0.356638
661.686066	0.357094
661.890682	0.357323
662.095281	0.357595
662.299861	0.358032
662.504422	0.358358
662.708966	0.358724
662.913491	0.359396
663.117999	0.359693
663.322488	0.359583
663.526958	0.359714
663.731411	0.359860
663.935845	0.359948
664.140261	0.360071
664.344659	0.360194
664.549038	0.360331
664.753400	0.360225
664.957743	0.360355
665.162068	0.361039
665.366375	0.361255
665.570663	0.361788
665.774933	0.362151
665.979185	0.362418
666.183419	0.362776
666.387635	0.363057
666.591832	0.363211
666.796011	0.363697
667.000172	0.363812
667.204315	0.364225
667.408439	0.364277
667.612545	0.364618
667.816634	0.364987
668.020703	0.365370
668.224755	0.365645
668.428788	0.365663
668.632803	0.365811
668.836800	0.366024
669.040779	0.366347
669.244739	0.366659
669.448681	0.366776
669.652605	0.367099
669.856511	0.367022
670.060399	0.367058
670.264268	0.367599
670.468119	0.367722
670.671952	0.367756
670.875767	0.367820
671.079563	0.368017
671.283341	0.368342
671.487101	0.368415
671.690843	0.368853
671.894567	0.369355
672.098272	0.369604
672.301959	0.369841
672.505628	0.370251
672.709278	0.370620
672.912911	0.370667
673.116525	0.371281
673.320121	0.371370
673.523699	0.371695
673.727258	0.371876
673.930799	0.372091
674.134322	0.372246
674.337827	0.372523
674.541314	0.372611
674.744782	0.372965
674.948232	0.372610
675.151664	0.373016
675.355078	0.373315
675.558474	0.373618
675.761851	0.373989
675.965210	0.374355
676.168551	0.374487
676.371873	0.374885
676.575178	0.375150
676.778464	0.375407
676.981732	0.375747
677.184981	0.376034
677.388213	0.375937
677.591426	0.375895
677.794621	0.376251
677.997798	0.376610
678.200956	0.376951
678.404097	0.377214
678.607219	0.377738
678.810323	0.377754
679.013408	0.377787
679.216476	0.378397
679.419525	0.378810
679.622556	0.378972
679.825569	0.379610
680.028563	0.379866
680.231540	0.380297
680.434498	0.380532
680.637438	0.380771
680.840359	0.380937
681.043263	0.380944
681.246148	0.381273
681.449015	0.381349
681.651864	0.381269
681.854694	0.381504
682.057506	0.381679
682.260301	0.382032
682.463076	0.382478
682.665834	0.382817
682.868573	0.383060
683.071295	0.383417
683.273998	0.383979
683.476682	0.384104
683.679349	0.384356
683.881997	0.384663
684.084627	0.384872
684.287239	0.385048
684.489833	0.385372
684.692408	0.385967
684.894965	0.385976
685.097504	0.386161
685.300025	0.386314
685.502527	0.386420
685.705012	0.386638
685.907478	0.386771
686.109925	0.386999
686.312355	0.387098
686.514766	0.387090
686.717159	0.387121
686.919534	0.387164
687.121891	0.387369
687.324230	0.387316
687.526550	0.387266
687.728852	0.387433
687.931136	0.387635
688.133401	0.387812
688.335649	0.387843
688.537878	0.388398
688.740089	0.388757
688.942281	0.389224
689.144456	0.389369
689.346612	0.389813
689.548750	0.390110
689.750870	0.390278
689.952971	0.390666
690.155055	0.391048
690.357120	0.391359
690.559167	0.391447
690.761195	0.391516
690.963206	0.392059
691.165198	0.392096
691.367172	0.392456
691.569128	0.392929
691.771065	0.392987
691.972984	0.393095
692.174885	0.393110
692.376768	0.393473
692.578633	0.393728
692.780479	0.393977
692.982308	0.394176
693.184118	0.394446
693.385909	0.394221
