sample name	sample
index	91
start time	 02-15-2021  10:33:36 AM


Wavelength (nm)	Absorbance
494.344910	0.050491
494.563924	0.050491
494.782919	0.050491
495.001897	-0.216993
495.220856	-0.063256
495.439797	-0.076292
495.658719	-0.091598
495.877624	-0.111826
496.096510	-0.095234
496.315378	-0.104909
496.534227	-0.101666
496.753059	-0.105129
496.971872	-0.096365
497.190667	0.005610
497.409444	0.052908
497.628203	0.061786
497.846943	0.072204
498.065665	0.078726
498.284369	0.084910
498.503055	0.085027
498.721723	0.089007
498.940372	0.088987
499.159003	0.087630
499.377616	0.086560
499.596210	0.089614
499.814787	0.090428
500.033345	0.091702
500.251885	0.091350
500.470406	0.095130
500.688910	0.097524
500.907395	0.099418
501.125862	0.099595
501.344311	0.101128
501.562742	0.099462
501.781154	0.101232
501.999548	0.098057
502.217924	0.098896
502.436282	0.098565
502.654621	0.097306
502.872942	0.096571
503.091245	0.097860
503.309530	0.096460
503.527797	0.097915
503.746045	0.095523
503.964275	0.097676
504.182487	0.098128
504.400681	0.095269
504.618856	0.095133
504.837013	0.095434
505.055152	0.095898
505.273273	0.096925
505.491376	0.096809
505.709460	0.098007
505.927526	0.096960
506.145574	0.094604
506.363604	0.096047
506.581615	0.095765
506.799608	0.096798
507.017583	0.096249
507.235540	0.096904
507.453478	0.096257
507.671399	0.095795
507.889301	0.098321
508.107185	0.101657
508.325050	0.104589
508.542898	0.101984
508.760727	0.100850
508.978538	0.101773
509.196330	0.101377
509.414105	0.100503
509.631861	0.103032
509.849599	0.100518
510.067319	0.098893
510.285021	0.097268
510.502704	0.098223
510.720369	0.099701
510.938016	0.100286
511.155645	0.100430
511.373255	0.102803
511.590848	0.101477
511.808422	0.103917
512.025977	0.104565
512.243515	0.104699
512.461034	0.105933
512.678536	0.105720
512.896018	0.106316
513.113483	0.106152
513.330930	0.105275
513.548358	0.104972
513.765768	0.105002
513.983160	0.104707
514.200533	0.103972
514.417889	0.104150
514.635226	0.104339
514.852545	0.102096
515.069845	0.101217
515.287128	0.101268
515.504392	0.100983
515.721638	0.100715
515.938866	0.101229
516.156075	0.102329
516.373267	0.104144
516.590440	0.104152
516.807594	0.106130
517.024731	0.107003
517.241850	0.108976
517.458950	0.110339
517.676032	0.110272
517.893095	0.109395
518.110141	0.109264
518.327168	0.106981
518.544177	0.107513
518.761168	0.106807
518.978141	0.108261
519.195095	0.108431
519.412031	0.108214
519.628949	0.109252
519.845849	0.110597
520.062731	0.110427
520.279594	0.112209
520.496439	0.113266
520.713266	0.113160
520.930074	0.111935
521.146865	0.112492
521.363637	0.112579
521.580391	0.111565
521.797127	0.110175
522.013844	0.111287
522.230543	0.110869
522.447224	0.110718
522.663887	0.112149
522.880532	0.112996
523.097158	0.112545
523.313766	0.113123
523.530356	0.114205
523.746928	0.115954
523.963481	0.116052
524.180017	0.116486
524.396534	0.115564
524.613032	0.114577
524.829513	0.114636
525.045975	0.113707
525.262420	0.112656
525.478845	0.111128
525.695253	0.110357
525.911643	0.109213
526.128014	0.108849
526.344367	0.109835
526.560702	0.110604
526.777018	0.111207
526.993316	0.111861
527.209597	0.113633
527.425858	0.116764
527.642102	0.117638
527.858328	0.118314
528.074535	0.118390
528.290724	0.118337
528.506894	0.119402
528.723047	0.120105
528.939181	0.120462
529.155297	0.119288
529.371395	0.118090
529.587475	0.118559
529.803536	0.118764
530.019579	0.119094
530.235604	0.119115
530.451611	0.119275
530.667600	0.118959
530.883570	0.118971
531.099522	0.120746
531.315456	0.121192
531.531372	0.119878
531.747269	0.121061
531.963148	0.121394
532.179009	0.122003
532.394852	0.122182
532.610676	0.122372
532.826482	0.123669
533.042271	0.123324
533.258040	0.124111
533.473792	0.124990
533.689525	0.124680
533.905240	0.125467
534.120937	0.125871
534.336616	0.125371
534.552277	0.125863
534.767919	0.125031
534.983543	0.124036
535.199149	0.123173
535.414736	0.123649
535.630306	0.123938
535.845857	0.122702
536.061390	0.121894
536.276904	0.122411
536.492401	0.122659
536.707879	0.123284
536.923339	0.124475
537.138781	0.125093
537.354204	0.125468
537.569610	0.124726
537.784997	0.126763
538.000366	0.127709
538.215716	0.127994
538.431049	0.127724
538.646363	0.127987
538.861659	0.127759
539.076937	0.128195
539.292196	0.128764
539.507438	0.130544
539.722661	0.129932
539.937866	0.130748
540.153052	0.130715
540.368221	0.131250
540.583371	0.131104
540.798503	0.131166
541.013617	0.130672
541.228712	0.130524
541.443789	0.129448
541.658848	0.129945
541.873889	0.128778
542.088912	0.129123
542.303916	0.129518
542.518902	0.129362
542.733870	0.129998
542.948820	0.130443
543.163752	0.130923
543.378665	0.132115
543.593560	0.131878
543.808437	0.131963
544.023295	0.131811
544.238136	0.131901
544.452958	0.132665
544.667762	0.133181
544.882548	0.133741
545.097315	0.133655
545.312064	0.133766
545.526795	0.134554
545.741508	0.134830
545.956203	0.135953
546.170879	0.135896
546.385537	0.135816
546.600177	0.135453
546.814799	0.135774
547.029402	0.136338
547.243988	0.135659
547.458555	0.135312
547.673103	0.135336
547.887634	0.134268
548.102146	0.134675
548.316640	0.134807
548.531116	0.134887
548.745574	0.135303
548.960013	0.135498
549.174435	0.135986
549.388838	0.136416
549.603222	0.137454
549.817589	0.138495
550.031937	0.139099
550.246267	0.139581
550.460579	0.139237
550.674873	0.139122
550.889148	0.138984
551.103405	0.139577
551.317644	0.139648
551.531865	0.139853
551.746068	0.139580
551.960252	0.138699
552.174418	0.139185
552.388566	0.140299
552.602696	0.140478
552.816807	0.140936
553.030900	0.140886
553.244975	0.140984
553.459032	0.140248
553.673070	0.140768
553.887091	0.141960
554.101093	0.141430
554.315077	0.141083
554.529042	0.141622
554.742990	0.141247
554.956919	0.141347
555.170830	0.141098
555.384722	0.142134
555.598597	0.142073
555.812453	0.141216
556.026291	0.141310
556.240111	0.142993
556.453913	0.142636
556.667696	0.143140
556.881461	0.143509
557.095208	0.144453
557.308937	0.145428
557.522647	0.145287
557.736339	0.145528
557.950013	0.146361
558.163669	0.145029
558.377307	0.144894
558.590926	0.145397
558.804527	0.145617
559.018110	0.145752
559.231675	0.145186
559.445221	0.145877
559.658749	0.145414
559.872259	0.146539
560.085751	0.146944
560.299225	0.146738
560.512680	0.146776
560.726117	0.146706
560.939536	0.146478
561.152937	0.146384
561.366319	0.147441
561.579683	0.147891
561.793029	0.146207
562.006357	0.146312
562.219667	0.147685
562.432958	0.147704
562.646231	0.147797
562.859486	0.147241
563.072723	0.147527
563.285941	0.146629
563.499141	0.147431
563.712323	0.147833
563.925487	0.148238
564.138632	0.147803
564.351760	0.147815
564.564869	0.148555
564.777960	0.149678
564.991032	0.149807
565.204087	0.149428
565.417123	0.149294
565.630141	0.150270
565.843140	0.149998
566.056122	0.149994
566.269085	0.150484
566.482030	0.150826
566.694957	0.150963
566.907866	0.151215
567.120756	0.151919
567.333628	0.151882
567.546482	0.151279
567.759318	0.151137
567.972135	0.151356
568.184935	0.151078
568.397716	0.150478
568.610478	0.150626
568.823223	0.150100
569.035949	0.149976
569.248657	0.150139
569.461347	0.150467
569.674019	0.152019
569.886672	0.151753
570.099308	0.151951
570.311925	0.152255
570.524523	0.153012
570.737104	0.153253
570.949666	0.153011
571.162210	0.153314
571.374736	0.152866
571.587244	0.151595
571.799733	0.152745
572.012205	0.152910
572.224658	0.152853
572.437092	0.151819
572.649509	0.152689
572.861907	0.153889
573.074287	0.153382
573.286649	0.153829
573.498993	0.154662
573.711318	0.154118
573.923625	0.154217
574.135914	0.154559
574.348185	0.155030
574.560438	0.154581
574.772672	0.153847
574.984888	0.154487
575.197086	0.154402
575.409266	0.153924
575.621427	0.153540
575.833570	0.153325
576.045695	0.153729
576.257802	0.154166
576.469890	0.154837
576.681961	0.155041
576.894013	0.155444
577.106046	0.156369
577.318062	0.157338
577.530059	0.158678
577.742039	0.158884
577.954000	0.158842
578.165942	0.159194
578.377867	0.158861
578.589773	0.158685
578.801661	0.158961
579.013531	0.158529
579.225382	0.158190
579.437216	0.157963
579.649031	0.158725
579.860828	0.158565
580.072606	0.158374
580.284367	0.158566
580.496109	0.159360
580.707833	0.159101
580.919539	0.159398
581.131227	0.160091
581.342896	0.159789
581.554547	0.158530
581.766180	0.158917
581.977795	0.158755
582.189391	0.158727
582.400969	0.157890
582.612529	0.158443
582.824071	0.158066
583.035595	0.158126
583.247100	0.158304
583.458587	0.158981
583.670056	0.158208
583.881506	0.158054
584.092939	0.158483
584.304353	0.159813
584.515749	0.159600
584.727127	0.160615
584.938486	0.160282
585.149828	0.160295
585.361151	0.160714
585.572456	0.161490
585.783742	0.162088
585.995011	0.162182
586.206261	0.161671
586.417493	0.162277
586.628706	0.161935
586.839902	0.162086
587.051079	0.162051
587.262238	0.162351
587.473379	0.163290
587.684502	0.162985
587.895606	0.163144
588.106692	0.163624
588.317760	0.163566
588.528810	0.163426
588.739841	0.163784
588.950855	0.164218
589.161850	0.164215
589.372827	0.163454
589.583785	0.164328
589.794726	0.163905
590.005648	0.163924
590.216552	0.163708
590.427437	0.164699
590.638305	0.164674
590.849154	0.164365
591.059985	0.163878
591.270798	0.164241
591.481592	0.163389
591.692369	0.163842
591.903127	0.163810
592.113867	0.163624
592.324588	0.162858
592.535292	0.162590
592.745977	0.163189
592.956644	0.163957
593.167293	0.164131
593.377923	0.164853
593.588536	0.164567
593.799130	0.164389
594.009706	0.165001
594.220263	0.165757
594.430803	0.165498
594.641324	0.165604
594.851827	0.165961
595.062312	0.165157
595.272778	0.165606
595.483227	0.166138
595.693657	0.166612
595.904069	0.166454
596.114462	0.166143
596.324838	0.166392
596.535195	0.166126
596.745534	0.166293
596.955855	0.167307
597.166157	0.167691
597.376441	0.167938
597.586707	0.168272
597.796955	0.169188
598.007185	0.169361
598.217396	0.169603
598.427589	0.169715
598.637764	0.169743
598.847921	0.169624
599.058060	0.169354
599.268180	0.169481
599.478282	0.169777
599.688366	0.169070
599.898431	0.169083
600.108479	0.169530
600.318508	0.170173
600.528519	0.170293
600.738511	0.170908
600.948486	0.170918
601.158442	0.170984
601.368380	0.170776
601.578300	0.170870
601.788202	0.171275
601.998085	0.172099
602.207950	0.172367
602.417797	0.172793
602.627626	0.172805
602.837436	0.172294
603.047228	0.172113
603.257002	0.172414
603.466758	0.172708
603.676496	0.172610
603.886215	0.171860
604.095916	0.171649
604.305599	0.171490
604.515264	0.171568
604.724910	0.172426
604.934538	0.173241
605.144148	0.173322
605.353740	0.173398
605.563314	0.173731
605.772869	0.174401
605.982406	0.174215
606.191925	0.174033
606.401425	0.173927
606.610908	0.173175
606.820372	0.173455
607.029818	0.173988
607.239246	0.174401
607.448655	0.175265
607.658047	0.175692
607.867420	0.175705
608.076775	0.175932
608.286111	0.176222
608.495430	0.177523
608.704730	0.177004
608.914012	0.176827
609.123275	0.177146
609.332521	0.176426
609.541748	0.176454
609.750957	0.177150
609.960148	0.177035
610.169321	0.177311
610.378475	0.177044
610.587611	0.176972
610.796729	0.177346
611.005829	0.176876
611.214910	0.177004
611.423974	0.176589
611.633019	0.177009
611.842045	0.177667
612.051054	0.177481
612.260044	0.177802
612.469017	0.178191
612.677970	0.178217
612.886906	0.179060
613.095824	0.179797
613.304723	0.180046
613.513604	0.180223
613.722467	0.179990
613.931311	0.180316
614.140138	0.180090
614.348946	0.180857
614.557736	0.180375
614.766507	0.180185
614.975261	0.179992
615.183996	0.180340
615.392713	0.180244
615.601412	0.181124
615.810092	0.181004
616.018754	0.181276
616.227399	0.180762
616.436024	0.181205
616.644632	0.181601
616.853222	0.181649
617.061793	0.181729
617.270346	0.181324
617.478880	0.181040
617.687397	0.181257
617.895895	0.181547
618.104375	0.181476
618.312837	0.181882
618.521281	0.181761
618.729706	0.181849
618.938113	0.181577
619.146502	0.181923
619.354873	0.181446
619.563226	0.181768
619.771560	0.182132
619.979876	0.182502
620.188174	0.182488
620.396453	0.182707
620.604715	0.182875
620.812958	0.183366
621.021183	0.183193
621.229390	0.183783
621.437578	0.183461
621.645748	0.183273
621.853900	0.183781
622.062034	0.183614
622.270150	0.183420
622.478247	0.183244
622.686326	0.182672
622.894387	0.183156
623.102430	0.183043
623.310454	0.183559
623.518461	0.183847
623.726449	0.183817
623.934418	0.184610
624.142370	0.184930
624.350303	0.185345
624.558218	0.186216
624.766115	0.185952
624.973994	0.186349
625.181855	0.186719
625.389697	0.186211
625.597521	0.185921
625.805327	0.185499
626.013114	0.185803
626.220883	0.185601
626.428634	0.185350
626.636367	0.185799
626.844082	0.186050
627.051778	0.186200
627.259457	0.186640
627.467117	0.186998
627.674758	0.187257
627.882382	0.187308
628.089987	0.187347
628.297574	0.187593
628.505143	0.187887
628.712694	0.188082
628.920226	0.187645
629.127740	0.187997
629.335236	0.188112
629.542714	0.188302
629.750174	0.188763
629.957615	0.189307
630.165038	0.189328
630.372443	0.189454
630.579829	0.188953
630.787198	0.189496
630.994548	0.189440
631.201880	0.189646
631.409194	0.189500
631.616489	0.189387
631.823766	0.189297
632.031025	0.189399
632.238266	0.189426
632.445489	0.189797
632.652693	0.189560
632.859879	0.189834
633.067047	0.189382
633.274197	0.189169
633.481329	0.189454
633.688442	0.189500
633.895537	0.189617
634.102614	0.189849
634.309672	0.189781
634.516713	0.189651
634.723735	0.190053
634.930739	0.190492
635.137724	0.191323
635.344692	0.191161
635.551641	0.191354
635.758572	0.191460
635.965485	0.191449
636.172379	0.191407
636.379256	0.192316
636.586114	0.192090
636.792954	0.192564
636.999775	0.192897
637.206579	0.193057
637.413364	0.193366
637.620131	0.193727
637.826880	0.193850
638.033610	0.193891
638.240323	0.193790
638.447017	0.194061
638.653692	0.194208
638.860350	0.194018
639.066990	0.193787
639.273611	0.193887
639.480214	0.193937
639.686798	0.194286
639.893365	0.195092
640.099913	0.195348
640.306443	0.195631
640.512955	0.195855
640.719449	0.195745
640.925924	0.196485
641.132381	0.196601
641.338820	0.196974
641.545241	0.196634
641.751644	0.196430
641.958028	0.196859
642.164394	0.197022
642.370742	0.196964
642.577071	0.197657
642.783383	0.197382
642.989676	0.197289
643.195951	0.197221
643.402207	0.197563
643.608446	0.197473
643.814666	0.197075
644.020868	0.197131
644.227052	0.197530
644.433218	0.197337
644.639365	0.197174
644.845494	0.197767
645.051605	0.197901
645.257698	0.197871
645.463772	0.198027
645.669828	0.198307
645.875866	0.198091
646.081886	0.197817
646.287888	0.198012
646.493871	0.198711
646.699836	0.198898
646.905783	0.199005
647.111712	0.200025
647.317622	0.200762
647.523514	0.200799
647.729388	0.201082
647.935244	0.201595
648.141082	0.201589
648.346901	0.201705
648.552702	0.202004
648.758485	0.202124
648.964250	0.201665
649.169996	0.201866
649.375724	0.201920
649.581434	0.202418
649.787126	0.202493
649.992800	0.202682
650.198455	0.202672
650.404092	0.202360
650.609711	0.202680
650.815311	0.202675
651.020894	0.202471
651.226458	0.202185
651.432004	0.202064
651.637532	0.201917
651.843041	0.202160
652.048532	0.202387
652.254006	0.202749
652.459460	0.202664
652.664897	0.203006
652.870315	0.203310
653.075716	0.203633
653.281097	0.203955
653.486461	0.204361
653.691807	0.204858
653.897134	0.204884
654.102443	0.205303
654.307734	0.205881
654.513006	0.206112
654.718261	0.206196
654.923497	0.206583
655.128715	0.206773
655.333915	0.206917
655.539096	0.206958
655.744259	0.207623
655.949404	0.207744
656.154531	0.208133
656.359640	0.208010
656.564730	0.208405
656.769802	0.208804
656.974856	0.208660
657.179892	0.208497
657.384909	0.208493
657.589908	0.208420
657.794889	0.208269
657.999852	0.207870
658.204797	0.208678
658.409723	0.209096
658.614631	0.209391
658.819521	0.209815
659.024393	0.210397
659.229246	0.210545
659.434081	0.210620
659.638898	0.210929
659.843697	0.211387
660.048478	0.211538
660.253240	0.211046
660.457984	0.211300
660.662710	0.210971
660.867417	0.211769
661.072107	0.212318
661.276778	0.212433
661.481431	0.212540
661.686066	0.212200
661.890682	0.211906
662.095281	0.212213
662.299861	0.212139
662.504422	0.212614
662.708966	0.211918
662.913491	0.211505
663.117999	0.211675
663.322488	0.211965
663.526958	0.212604
663.731411	0.213181
663.935845	0.213436
664.140261	0.214069
664.344659	0.214464
664.549038	0.214982
664.753400	0.215234
664.957743	0.215565
665.162068	0.215772
665.366375	0.215889
665.570663	0.215580
665.774933	0.215638
665.979185	0.215299
666.183419	0.215328
666.387635	0.215592
666.591832	0.215811
666.796011	0.216012
667.000172	0.216158
667.204315	0.216810
667.408439	0.216833
667.612545	0.217118
667.816634	0.217277
668.020703	0.217561
668.224755	0.217800
668.428788	0.217599
668.632803	0.217919
668.836800	0.217762
669.040779	0.217485
669.244739	0.217953
669.448681	0.217782
669.652605	0.218034
669.856511	0.218095
670.060399	0.218251
670.264268	0.219138
670.468119	0.219238
670.671952	0.219463
670.875767	0.219542
671.079563	0.219761
671.283341	0.220637
671.487101	0.220734
671.690843	0.220765
671.894567	0.220759
672.098272	0.220726
672.301959	0.220727
672.505628	0.221056
672.709278	0.221222
672.912911	0.221781
673.116525	0.221492
673.320121	0.221346
673.523699	0.221807
673.727258	0.221866
673.930799	0.222302
674.134322	0.222665
674.337827	0.223050
674.541314	0.223090
674.744782	0.222776
674.948232	0.223401
675.151664	0.224513
675.355078	0.224802
675.558474	0.225018
675.761851	0.224871
675.965210	0.224938
676.168551	0.224680
676.371873	0.225185
676.575178	0.225402
676.778464	0.225243
676.981732	0.224855
677.184981	0.224776
677.388213	0.224869
677.591426	0.225047
677.794621	0.225326
677.997798	0.225926
678.200956	0.226207
678.404097	0.226313
678.607219	0.226878
678.810323	0.227188
679.013408	0.227125
679.216476	0.227034
679.419525	0.226951
679.622556	0.226846
679.825569	0.226813
680.028563	0.226951
680.231540	0.227564
680.434498	0.227755
680.637438	0.227843
680.840359	0.228197
681.043263	0.228723
681.246148	0.229044
681.449015	0.229165
681.651864	0.229445
681.854694	0.230032
682.057506	0.229794
682.260301	0.229554
682.463076	0.229425
682.665834	0.229641
682.868573	0.229775
683.071295	0.229913
683.273998	0.229964
683.476682	0.229951
683.679349	0.229156
683.881997	0.229349
684.084627	0.229545
684.287239	0.230177
684.489833	0.230304
684.692408	0.230319
684.894965	0.230698
685.097504	0.231173
685.300025	0.231435
685.502527	0.232129
685.705012	0.232370
685.907478	0.232853
686.109925	0.233033
686.312355	0.233460
686.514766	0.233805
686.717159	0.233847
686.919534	0.233850
687.121891	0.233899
687.324230	0.233745
687.526550	0.233827
687.728852	0.233708
687.931136	0.233731
688.133401	0.234027
688.335649	0.234253
688.537878	0.234314
688.740089	0.234240
688.942281	0.234560
689.144456	0.234525
689.346612	0.234438
689.548750	0.234649
689.750870	0.234636
689.952971	0.234376
690.155055	0.234468
690.357120	0.234579
690.559167	0.234944
690.761195	0.234989
690.963206	0.235517
691.165198	0.235805
691.367172	0.235990
691.569128	0.236665
691.771065	0.237197
691.972984	0.237356
692.174885	0.237410
692.376768	0.237556
692.578633	0.237744
692.780479	0.237913
692.982308	0.238367
693.184118	0.238422
693.385909	0.238045
