sample name	sample
index	297
start time	 02-25-2021  01:04:41 PM
880	0.372114
Peak Time (s)	92.037
Peak Height 	0.3721
calc peak height	90,93
Baseline Time (s)	8.535
Baseline Value 	-0.002886
subtract baseline	10,4
Abs	0.291006
Peak Time (s)	91.036
Peak Height 	0.291
calc peak height	90,93
Baseline Time (s)	10.036
Baseline Value 	8.6359E-4
subtract baseline	10,3
PK_550	0.134067
Peak Time (s)	90.038
Peak Height 	0.1341
calc peak height	90,93
Baseline Time (s)	8.535
Baseline Value 	-2.8134E-4
subtract baseline	10,2
PK_880	0.279771
Peak Time (s)	92.537
Peak Height 	0.2798
calc peak height	90,93
Baseline Time (s)	9.536
Baseline Value 	2.4579E-4
subtract baseline	10,1


Time (s)	A880-A510	A880-A775	A880-A975	A880	I510	I775	I975	I880	
0.035500	0.000801	0.000167	0.002844	0.002424	6875.296181	45706.284712	4017.488189	24189.120767
0.536000	-0.002285	-0.000322	-0.004800	0.004553	6828.497138	45449.380346	3993.194379	24085.197853
1.036500	-0.000564	0.000770	-0.005195	0.004559	6843.822207	45555.737720	3992.210284	24084.910488
1.536500	-0.000670	-0.000020	0.003834	0.001305	6872.114425	45798.054646	4022.801563	24243.919218
2.037000	-0.000088	0.000813	-0.006364	0.007622	6820.732748	45260.694463	3981.870094	23936.332195
2.537000	0.000042	0.000586	-0.000083	0.001790	6874.164332	45810.041402	4011.737998	24220.151221
3.037500	0.001392	0.001236	-0.000659	-0.000514	6907.280940	46102.446841	4016.069464	24333.345976
3.535000	0.000961	0.000445	0.001086	0.001372	6886.243118	45837.337845	4015.715894	24240.646562
4.035000	-0.003381	-0.000542	-0.002587	0.004326	6820.754043	45450.059507	3999.209334	24096.252454
4.535000	0.000374	0.000954	-0.000834	0.001728	6877.717689	45852.420918	4010.017465	24223.177060
5.036000	0.001828	0.000014	0.002763	0.000743	6899.810234	45856.882114	4021.518604	24271.517832
5.536000	0.002306	0.001104	-0.002099	0.001134	6900.608032	45926.018676	4008.344114	24252.324074
6.036500	0.001966	0.000892	-0.000339	0.001012	6898.627791	45917.139864	4013.047708	24258.330666
6.537000	0.000753	0.000613	-0.001825	0.000819	6889.375219	45908.649221	4009.815271	24267.802063
7.039500	0.000613	0.000203	-0.000640	0.000991	6886.541693	45851.060838	4012.345145	24259.324352
7.537500	-0.002118	0.000623	-0.003475	0.000425	6866.996599	45948.549746	4006.682176	24287.157083
8.035000	0.001559	0.000702	0.001006	0.000941	6895.579339	45905.303384	4016.596292	24261.812319
8.535000	0.001567	0.000000	0.000361	0.000000	6904.192962	45928.954592	4017.341235	24308.043417
9.035500	-0.001502	-0.000292	-0.000641	-0.000535	6881.212201	45952.967728	4016.165173	24334.363514
9.536000	0.000000	0.000423	0.000385	0.000354	6886.759733	45935.776198	4016.510120	24290.611630
10.036000	-0.000151	0.000448	0.000000	0.000814	6881.236806	45892.720011	4014.390933	24268.033804
10.536000	0.001317	-0.000019	-0.002201	-0.000370	6905.285827	45963.705256	4011.845137	24326.278470
11.036500	-0.000142	0.000345	-0.000386	0.000194	6886.922237	45943.848443	4014.976958	24298.497477
11.539500	0.002654	-0.000215	0.002899	-0.000235	6916.237260	45930.991417	4024.332538	24319.621090
12.036500	-0.002061	-0.000043	0.001594	0.000319	6868.461214	45893.129347	4019.639084	24292.341331
12.537500	0.000316	0.000372	-0.001788	0.000521	6888.112339	45914.211145	4010.649020	24282.406026
13.035000	0.001399	0.000129	-0.001045	-0.000379	6906.111837	45979.171005	4014.761407	24326.681103
13.534500	0.001311	0.000643	0.003732	0.000751	6895.046864	45918.305467	4023.945831	24271.120499
14.035500	-0.000598	-0.000112	-0.000596	0.002561	6861.451093	45665.380140	4008.532536	24182.417362
14.535500	0.000684	0.000855	0.002144	0.002570	6872.926453	45759.657300	4015.365094	24181.994879
15.035500	0.000150	0.000154	0.001782	0.000421	6887.515287	45902.538692	4019.857200	24287.340722
15.536500	0.002652	0.000401	-0.001302	0.001001	6904.951085	45869.619846	4010.664874	24258.835178
16.039500	-0.004782	0.000035	-0.003659	0.005483	6798.046758	45393.454260	3993.713236	24039.974876
16.537000	0.002264	0.000212	-0.003369	0.000635	6904.756267	45887.076679	4006.424314	24276.809887
17.037000	0.002261	0.000980	-0.000406	-0.002309	6931.602399	46255.539458	4021.224386	24421.965611
17.537500	-0.001869	0.000312	-0.002625	0.001598	6858.684813	45801.942919	4005.880582	24229.583933
18.035000	-0.002849	0.000242	0.002839	0.003901	6829.283473	45568.537580	4013.768895	24116.987090
18.535500	0.002224	0.000623	0.000657	0.002478	6887.667218	45745.843139	4011.868203	24186.466721
19.035500	0.000372	0.000039	-0.001636	0.001812	6876.948943	45753.931643	4007.810659	24219.102940
19.536000	-0.000144	0.000322	0.003301	0.002171	6869.045864	45746.431332	4019.272964	24201.473254
20.036500	-0.000317	0.001036	0.001539	0.002590	6863.724969	45775.575487	4013.797522	24181.011962
20.536500	0.001253	0.000209	0.001641	0.002100	6882.297359	45742.299308	4015.280420	24204.951990
21.037000	0.000039	0.001035	0.001945	0.002679	6866.123996	45766.646211	4014.592953	24176.658030
21.537000	-0.000483	0.001060	-0.002717	0.002474	6863.269769	45789.344495	4003.473340	24186.674097
22.037500	-0.003103	0.000227	-0.000320	0.002159	6842.574396	45738.225988	4010.225200	24202.068188
22.535000	-0.000490	0.000826	0.001171	0.002529	6862.713133	45760.895505	4013.029151	24183.998215
23.035000	-0.000236	0.000290	-0.004397	0.001860	6871.025858	45773.883910	4000.830923	24216.725338
23.535000	-0.001017	0.000355	-0.003322	0.001492	6867.295520	45816.608143	4004.408357	24234.740144
24.036000	0.001387	0.000722	0.003820	0.002953	6875.804792	45708.874776	4018.612024	24163.251787
24.536000	-0.000673	0.000895	-0.000175	0.002212	6863.917415	45798.845521	4010.456313	24199.498430
25.036000	0.000098	0.000435	-0.001262	0.001763	6874.908424	45797.790112	4008.862748	24221.474227
25.536500	0.001273	0.000494	0.001574	0.002044	6882.989374	45775.845185	4015.251346	24207.697298
26.037000	-0.000612	0.000953	-0.001125	0.002357	6863.155536	45790.285682	4007.721853	24192.369777
26.537000	-0.000202	0.000497	-0.001924	0.001900	6870.975214	45790.433742	4006.872113	24214.783241
27.037500	0.001416	0.000044	-0.000556	-0.000845	6910.513488	46017.000756	4017.159337	24349.660416
27.535000	0.002569	0.000936	-0.001708	-0.000161	6914.784058	46037.635939	4012.555136	24315.972158
28.035500	-0.000816	0.000831	-0.001628	0.006444	6824.736908	45377.312628	3996.348440	23993.335676
28.535500	0.001874	0.000546	0.001131	0.000776	6899.926838	45906.207529	4017.324779	24269.879820
29.035500	0.000934	0.000245	0.004559	0.000936	6889.956163	45860.648639	4025.570209	24262.046649
29.536000	0.001844	0.000574	0.000722	0.000523	6901.955648	45933.965565	4016.932580	24282.323638
30.039000	-0.001633	-0.000011	0.002523	0.006018	6821.253068	45336.672023	4007.690524	24014.006691
30.536500	-0.000001	0.000552	0.001906	0.003165	6861.393730	45671.263837	4013.276857	24152.911540
31.037000	-0.001540	-0.000301	-0.001568	0.002321	6855.146476	45670.434381	4006.710355	24194.177712
31.537500	-0.000450	0.000225	0.002046	0.000833	6878.368399	45868.927116	4019.486036	24267.122726
32.037500	-0.000711	0.000912	-0.000242	0.005943	6830.141500	45434.187335	4001.010945	24017.665728
32.535000	0.001235	0.000123	-0.004523	0.000889	6893.102691	45853.237190	4002.924944	24264.344598
33.035500	0.000664	0.000062	0.002854	-0.000289	6898.611980	45963.614802	4024.354934	24322.249291
33.536000	-0.002426	0.000703	0.000457	0.002140	6848.817154	45787.049636	4012.215835	24203.039282
34.036000	-0.002669	0.000437	0.000197	0.004540	6825.189341	45525.063598	4005.581028	24085.858180
34.539000	0.000448	0.000329	-0.001453	0.002531	6871.144834	45711.743345	4006.474130	24183.887729
35.036500	-0.001033	0.000196	-0.000928	0.002510	6858.001345	45700.632480	4007.832675	24184.914441
35.536500	-0.000650	0.000676	-0.000424	0.003103	6856.109249	45689.573673	4007.610583	24155.913618
36.034500	-0.001590	0.000092	-0.000569	0.004018	6839.486615	45542.378506	4004.975844	24111.283773
36.537500	-0.000798	0.000862	-0.001162	0.002983	6855.864133	45719.698566	4006.073153	24161.796519
37.034500	-0.000516	0.000401	-0.002183	0.002683	6861.087546	45703.794039	4004.281234	24176.434981
37.535000	-0.001090	0.000018	0.003747	0.002510	6857.483051	45683.149774	4019.545923	24184.918175
38.035500	-0.000185	0.000377	-0.003107	0.002246	6868.002209	45744.422596	4003.071158	24197.807962
38.536000	-0.000593	0.000485	-0.001329	0.002645	6860.741637	45715.841623	4006.499521	24178.310898
39.036500	0.000835	0.001289	-0.000241	0.003615	6864.867490	45699.504378	4006.794272	24130.948140
39.536500	-0.001431	0.000652	0.005901	0.002744	6852.321745	45722.552907	4024.390773	24173.460941
40.036500	0.000967	0.000113	0.000968	0.002767	6873.693915	45667.276650	4011.924320	24172.343356
40.537000	0.001032	0.000620	0.003071	0.003277	6869.679725	45666.959930	4015.917088	24147.436596
41.036500	0.000967	0.001042	-0.002480	0.003207	6869.726860	45715.374188	4002.243640	24150.853061
41.537500	-0.000586	-0.000057	0.001194	0.002279	6864.090690	45698.446057	4013.711126	24196.197537
42.034500	-0.000794	0.000370	0.000316	0.003934	6847.363360	45577.870899	4007.383913	24115.362345
42.535500	0.000344	0.001772	0.002627	0.003530	6861.210968	45755.419074	4014.168686	24135.092861
43.036000	-0.003338	0.000306	0.002245	0.002686	6835.762700	45694.135394	4015.326019	24176.282656
43.537500	0.003160	0.001208	0.007099	-0.001729	6934.522537	46220.546103	4038.830578	24393.298531
44.036000	-0.001903	0.000525	-0.004040	0.007239	6808.002413	45269.889664	3988.472366	23954.829524
44.539000	0.002773	0.001939	0.003556	0.002558	6891.917135	45867.750326	4018.943286	24182.563097
45.037000	0.000500	0.000482	0.004352	0.000840	6886.891653	45893.581236	4025.288901	24266.745962
45.537000	-0.000353	0.000324	0.000784	0.000864	6878.961448	45875.591580	4016.233098	24265.569629
46.034500	-0.004161	0.001082	-0.001352	0.007348	6787.052982	45313.583997	3994.800630	23949.548238
46.535500	0.000696	0.000392	-0.001824	0.000789	6889.129905	45889.731526	4009.890633	24269.261065
47.035500	0.000378	0.000556	-0.003418	0.003604	6860.847025	45628.578258	3998.942091	24131.476297
47.535500	-0.000975	0.000362	-0.001490	0.003100	6853.216977	45659.002897	4004.965395	24156.060803
48.035500	-0.003384	0.000399	-0.004497	0.006723	6799.452132	45307.883809	3988.616772	23979.814585
48.538500	-0.000128	0.000618	0.002001	0.000573	6883.621456	45933.427927	4020.024673	24279.860723
49.036500	0.001771	0.000703	0.002261	0.000623	6900.390882	45936.893864	4020.556234	24277.431651
49.536500	0.001989	0.001099	0.002737	-0.001107	6918.121797	46147.640031	4026.128210	24362.552792
50.036000	-0.003096	0.000080	-0.002825	0.007877	6791.785324	45164.592240	3989.884257	23923.986054
50.540000	0.009968	-0.001805	0.012706	0.057572	6481.435965	40439.368103	3909.384132	21655.256459
51.035000	-0.013898	-0.015272	-0.001431	0.115089	5878.817973	34789.381975	3759.777745	19333.883605
51.537500	-0.020466	-0.041603	-0.012010	-0.173307	8549.826340	61147.981637	4506.976705	34786.807682
52.035500	-0.018756	-0.164387	-0.016872	-0.327664	10969.121767	65535.000000	5156.690474	48377.934379
52.535500	-0.025327	-0.169012	0.003859	-0.332289	10933.297378	65535.000000	5290.818721	48864.382257
53.038000	-0.036176	-0.126415	0.000817	-0.289692	10009.458933	65535.000000	5054.891614	44573.952290
53.536000	-0.025939	-0.113498	0.008514	-0.276775	9966.042392	65535.000000	5029.455636	43353.887502
54.036500	-0.020458	-0.089968	0.003086	-0.252496	9669.052139	65427.275844	4890.368256	41156.641964
54.536500	-0.010007	-0.099821	0.003536	-0.263098	10002.551137	65535.000000	4941.007087	42101.047429
55.037000	-0.002538	-0.077339	0.012161	-0.237523	9714.781934	65091.126468	4863.871772	39861.582290
55.534000	0.005487	-0.041677	0.020336	-0.184113	9043.998066	62603.460568	4672.157853	35589.091235
56.034500	0.014083	-0.020471	0.025647	-0.123807	8360.492015	57469.247891	4464.440620	31356.260347
56.535500	0.023721	-0.010542	0.042343	-0.068660	7822.706757	52080.209219	4334.065990	27967.739976
57.035000	0.040338	-0.000526	0.048038	-0.027009	7550.056392	48630.150962	4222.167364	25679.088922
57.538500	0.054228	0.009030	0.061048	0.013160	7280.240443	45522.335655	4143.579138	23670.290880
58.039000	0.068842	0.017649	0.083156	0.054708	7020.139825	42415.262040	4090.269040	21779.062488
58.536000	0.084602	0.026357	0.090631	0.104396	6714.646724	38863.358856	3982.407886	19742.505167
59.037000	0.099608	0.035251	0.110549	0.144671	6502.128570	36361.252166	3934.020031	18254.448245
59.536500	0.125718	0.047929	0.137973	0.176131	6458.693205	34947.943698	3924.692699	17184.355327
60.037000	0.144986	0.061682	0.156735	0.229952	6190.728738	32129.627577	3847.222748	15524.197840
60.538500	0.168550	0.076273	0.186671	0.266963	6092.074141	30662.445614	3832.331994	14496.265239
61.034500	0.185035	0.087347	0.197930	0.295518	6006.088315	29569.968027	3796.939296	13760.949705
61.534500	0.206426	0.105666	0.212836	0.302033	6112.405867	30302.814038	3813.932247	13599.832208
62.035500	0.216749	0.111789	0.215970	0.305280	6164.279010	30484.482610	3813.704526	13520.455810
62.535500	0.226202	0.117017	0.227516	0.314416	6166.620921	30237.965178	3818.643810	13300.210897
63.094000	0.231848	0.122018	0.234088	0.320240	6165.306508	30186.338714	3820.182601	13162.214093
63.538500	0.236218	0.125989	0.240773	0.325169	6161.176061	30126.379958	3823.806702	13046.874677
64.037000	0.241099	0.130608	0.242974	0.330847	6155.296109	30060.280552	3816.646342	12915.610155
64.537000	0.247157	0.131567	0.248342	0.335170	6168.112168	29851.202450	3818.793553	12816.817675
65.037500	0.246645	0.133566	0.259062	0.338432	6140.311464	29773.183323	3834.259746	12742.915467
65.537500	0.254517	0.136211	0.257259	0.342014	6171.929267	29715.360050	3823.063635	12662.392302
66.034500	0.252495	0.138200	0.256041	0.349030	6105.669173	29407.589223	3806.212456	12506.600580
66.535500	0.257837	0.140533	0.265061	0.346892	6160.413540	29681.170168	3829.127134	12553.818261
67.038500	0.263032	0.141591	0.261521	0.349101	6182.526095	29610.498091	3817.248152	12505.048842
67.536000	0.262017	0.142974	0.274031	0.351837	6154.767587	29527.553592	3837.537111	12444.976445
68.036500	0.264753	0.144786	0.271341	0.355837	6145.467384	29394.143784	3823.599414	12357.848477
68.536500	0.266903	0.143269	0.268051	0.354468	6171.420014	29385.131249	3819.636459	12387.572621
69.037000	0.269394	0.144559	0.273564	0.356209	6176.989038	29357.734391	3827.436053	12349.791410
69.537000	0.268861	0.145633	0.273188	0.356769	6168.888325	29388.919582	3825.494030	12337.656404
70.037500	0.271434	0.146401	0.278311	0.361923	6149.843540	29123.514996	3825.430615	12226.808900
70.535000	0.273286	0.146022	0.274230	0.359821	6179.059895	29227.450435	3821.338368	12271.856386
71.035500	0.272485	0.146524	0.272845	0.361364	6161.709721	29164.613167	3815.322431	12238.763665
71.538500	0.274310	0.148276	0.276266	0.363680	6158.083586	29130.623055	3817.588572	12189.312434
72.038000	0.270836	0.146143	0.270382	0.367194	6106.956905	28792.624594	3798.494990	12114.775317
72.536000	0.274333	0.147974	0.275135	0.364638	6151.190711	29054.771015	3813.308420	12168.928388
73.036500	0.274772	0.148833	0.278324	0.365952	6144.766575	29027.538092	3817.149277	12141.063229
73.536500	0.273973	0.149119	0.273726	0.366308	6136.295348	29023.278113	3807.039285	12133.521503
74.036500	0.274807	0.148041	0.276699	0.370973	6108.343998	28681.039466	3803.610165	12035.295170
74.537000	0.275196	0.147833	0.276311	0.366073	6146.991240	28960.332867	3812.779113	12138.490011
75.034500	0.277622	0.148522	0.275603	0.367190	6156.619317	28934.701451	3809.057496	12114.855962
75.535000	0.276405	0.148086	0.277035	0.367061	6148.613171	28916.395240	3812.241166	12117.595283
76.041000	0.274700	0.146711	0.276138	0.368606	6124.799187	28742.461886	3807.267919	12084.995196
76.535500	0.277358	0.146772	0.280236	0.366963	6156.351177	28843.785985	3818.998965	12119.653915
77.038500	0.281007	0.147440	0.281727	0.367570	6178.859494	28847.472602	3820.820629	12106.851296
77.536000	0.281725	0.146672	0.279386	0.367915	6181.622958	28781.212739	3815.301017	12099.560474
78.036500	0.278284	0.146150	0.274066	0.368622	6150.952662	28708.290370	3803.042094	12084.665450
78.537000	0.277750	0.145859	0.281372	0.367185	6157.598395	28776.252907	3820.881411	12114.961155
79.037000	0.279857	0.145219	0.284187	0.366474	6178.455629	28780.498146	3828.178207	12129.997499
79.537000	0.280413	0.145237	0.278680	0.366313	6183.776821	28791.128557	3817.137262	12133.407259
80.035000	0.277689	0.143780	0.275852	0.368968	6144.033798	28547.838949	3805.955886	12077.383112
80.538000	0.281694	0.144960	0.287924	0.366842	6189.381814	28743.275997	3835.206263	12122.230440
81.035500	0.279858	0.143062	0.282740	0.365070	6188.899884	28735.836369	3828.089109	12159.767362
81.536000	0.283713	0.144868	0.284995	0.366730	6205.288717	28744.439000	3829.326538	12124.584939
82.036000	0.281094	0.144116	0.279764	0.366212	6189.597284	28730.525686	3819.572907	12135.538830
82.536000	0.282168	0.142915	0.280864	0.365084	6206.040220	28726.220205	3824.169293	12159.453952
83.037000	0.282109	0.143199	0.284618	0.365746	6200.649017	28703.790411	3830.588239	12145.413158
83.537000	0.281389	0.141018	0.284718	0.364704	6203.051700	28636.422551	3832.972501	12167.522812
84.037000	0.283277	0.141843	0.285501	0.365727	6209.535423	28624.721276	3832.471287	12145.819006
84.537000	0.279660	0.139793	0.286773	0.364220	6193.760886	28592.708094	3838.292038	12177.821364
85.035000	0.280768	0.139880	0.287365	0.364815	6197.583123	28562.709289	3838.285272	12165.171979
85.538000	0.282770	0.139579	0.292146	0.365268	6209.173704	28518.305308	3847.424631	12155.548013
86.035000	0.280665	0.138935	0.285589	0.366758	6182.346397	28393.084712	3830.504322	12123.992021
86.535500	0.278850	0.136889	0.287415	0.364459	6185.945951	28407.919932	3839.138783	12172.737948
87.036000	0.280519	0.137995	0.289359	0.366048	6186.546066	28379.677743	3839.886274	12139.031252
87.536000	0.278744	0.138123	0.287786	0.365981	6173.859951	28391.081488	3836.720782	12140.442877
88.037000	0.279835	0.136111	0.287024	0.366956	6174.710666	28216.769560	3833.084665	12119.801611
88.536500	0.281227	0.136460	0.288999	0.367303	6182.470115	28216.925366	3836.491408	12112.473487
89.037500	0.282185	0.137665	0.297955	0.368655	6179.545382	28208.419085	3852.578950	12083.978979
89.535000	0.282429	0.135397	0.290286	0.367880	6187.123255	28121.791961	3837.983774	12100.302928
90.037500	0.278340	0.134067	0.284032	0.368590	6151.603717	28003.911805	3823.472961	12085.348040
90.535500	0.279545	0.133891	0.286736	0.368467	6161.394545	28000.847770	3829.333906	12087.932026
91.036000	0.276229	0.132043	0.291006	0.367548	6143.740263	27947.335618	3840.194469	12107.309577
91.536000	0.278545	0.132402	0.288751	0.368849	6151.203409	27893.220751	3832.737257	12079.882993
92.036500	0.276179	0.131428	0.289085	0.372114	6110.026060	27651.126282	3826.638298	12011.435757
92.536500	0.279771	0.131438	0.288263	0.371127	6143.470838	27707.878508	3826.980904	12032.076511
93.100000	0.278375	0.129980	0.294563	0.371577	6129.941470	27599.406800	3839.201441	12022.656675
93.534500	0.279211	0.130388	0.290342	0.372649	6128.220376	27561.839477	3828.137566	12000.278819
94.034500	0.278138	0.129521	0.290074	0.376040	6095.774340	27321.878695	3820.565779	11929.818501
94.537500	0.281647	0.130594	0.296890	0.374295	6133.996372	27480.372357	3838.378588	11965.999148
95.035000	0.277714	0.127862	0.288212	0.373615	6110.276165	27364.858820	3821.726728	11980.153078
95.535000	0.278076	0.127635	0.285056	0.375032	6102.620424	27272.704233	3812.341471	11950.698276
