sample name	sample
index	60
start time	 02-11-2021  03:05:09 PM


Wavelength (nm)	Absorbance
494.344910	NaN
494.563924	NaN
494.782919	NaN
495.001897	NaN
495.220856	-1.101437
495.439797	-0.890285
495.658719	-0.790050
495.877624	-0.671162
496.096510	-0.372238
496.315378	-0.293839
496.534227	0.000000
496.753059	-0.068403
496.971872	0.040598
497.190667	0.124109
497.409444	0.133775
497.628203	0.136472
497.846943	0.139146
498.065665	0.134264
498.284369	0.130386
498.503055	0.127193
498.721723	0.128943
498.940372	0.128187
499.159003	0.128170
499.377616	0.128616
499.596210	0.127044
499.814787	0.124448
500.033345	0.126370
500.251885	0.127213
500.470406	0.128388
500.688910	0.130818
500.907395	0.130141
501.125862	0.128446
501.344311	0.128058
501.562742	0.128967
501.781154	0.132537
501.999548	0.132731
502.217924	0.134394
502.436282	0.134539
502.654621	0.131102
502.872942	0.129593
503.091245	0.130934
503.309530	0.133235
503.527797	0.131998
503.746045	0.130968
503.964275	0.130859
504.182487	0.131732
504.400681	0.131402
504.618856	0.131694
504.837013	0.134719
505.055152	0.135125
505.273273	0.133582
505.491376	0.134191
505.709460	0.134398
505.927526	0.133457
506.145574	0.132277
506.363604	0.133040
506.581615	0.133179
506.799608	0.132604
507.017583	0.133312
507.235540	0.134777
507.453478	0.134324
507.671399	0.132412
507.889301	0.133883
508.107185	0.134728
508.325050	0.131477
508.542898	0.131866
508.760727	0.131954
508.978538	0.130710
509.196330	0.129192
509.414105	0.130511
509.631861	0.132558
509.849599	0.132682
510.067319	0.133424
510.285021	0.136090
510.502704	0.138380
510.720369	0.139375
510.938016	0.141252
511.155645	0.143101
511.373255	0.141966
511.590848	0.141572
511.808422	0.141323
512.025977	0.139746
512.243515	0.139129
512.461034	0.137804
512.678536	0.137198
512.896018	0.136007
513.113483	0.134556
513.330930	0.135153
513.548358	0.136107
513.765768	0.136692
513.983160	0.138860
514.200533	0.140429
514.417889	0.141022
514.635226	0.140717
514.852545	0.139865
515.069845	0.142170
515.287128	0.144348
515.504392	0.143556
515.721638	0.143646
515.938866	0.143893
516.156075	0.142808
516.373267	0.142221
516.590440	0.143011
516.807594	0.143757
517.024731	0.141922
517.241850	0.140392
517.458950	0.142194
517.676032	0.143328
517.893095	0.141634
518.110141	0.144398
518.327168	0.146577
518.544177	0.146902
518.761168	0.147903
518.978141	0.149195
519.195095	0.149636
519.412031	0.148848
519.628949	0.147154
519.845849	0.148242
520.062731	0.146941
520.279594	0.144872
520.496439	0.145293
520.713266	0.146088
520.930074	0.147226
521.146865	0.147924
521.363637	0.147039
521.580391	0.148777
521.797127	0.148438
522.013844	0.148995
522.230543	0.148877
522.447224	0.147824
522.663887	0.147975
522.880532	0.146889
523.097158	0.147185
523.313766	0.147796
523.530356	0.147860
523.746928	0.149084
523.963481	0.149010
524.180017	0.150174
524.396534	0.151937
524.613032	0.153183
524.829513	0.153853
525.045975	0.153342
525.262420	0.154117
525.478845	0.154915
525.695253	0.154633
525.911643	0.154337
526.128014	0.155623
526.344367	0.154458
526.560702	0.152703
526.777018	0.153174
526.993316	0.153762
527.209597	0.153514
527.425858	0.152906
527.642102	0.153027
527.858328	0.153501
528.074535	0.153116
528.290724	0.153917
528.506894	0.154724
528.723047	0.154767
528.939181	0.155839
529.155297	0.155799
529.371395	0.156822
529.587475	0.156769
529.803536	0.157961
530.019579	0.157249
530.235604	0.158053
530.451611	0.159488
530.667600	0.158955
530.883570	0.158285
531.099522	0.159958
531.315456	0.159509
531.531372	0.160212
531.747269	0.159705
531.963148	0.159783
532.179009	0.160268
532.394852	0.160197
532.610676	0.160326
532.826482	0.161192
533.042271	0.160305
533.258040	0.159607
533.473792	0.160675
533.689525	0.161179
533.905240	0.162101
534.120937	0.161574
534.336616	0.160951
534.552277	0.162384
534.767919	0.162398
534.983543	0.163109
535.199149	0.164253
535.414736	0.163689
535.630306	0.163667
535.845857	0.164293
536.061390	0.166261
536.276904	0.166508
536.492401	0.165914
536.707879	0.165969
536.923339	0.165645
537.138781	0.166305
537.354204	0.166628
537.569610	0.167287
537.784997	0.167102
538.000366	0.164897
538.215716	0.165178
538.431049	0.166058
538.646363	0.166298
538.861659	0.166844
539.076937	0.166037
539.292196	0.165765
539.507438	0.164850
539.722661	0.164674
539.937866	0.165625
540.153052	0.165506
540.368221	0.165642
540.583371	0.166013
540.798503	0.166343
541.013617	0.166794
541.228712	0.166652
541.443789	0.168136
541.658848	0.168957
541.873889	0.168970
542.088912	0.170827
542.303916	0.171434
542.518902	0.171996
542.733870	0.172264
542.948820	0.173482
543.163752	0.174168
543.378665	0.175023
543.593560	0.175678
543.808437	0.176157
544.023295	0.175535
544.238136	0.174856
544.452958	0.175408
544.667762	0.176158
544.882548	0.175642
545.097315	0.175993
545.312064	0.175821
545.526795	0.176222
545.741508	0.176621
545.956203	0.176064
546.170879	0.176522
546.385537	0.175742
546.600177	0.175038
546.814799	0.175417
547.029402	0.175211
547.243988	0.174297
547.458555	0.173434
547.673103	0.174143
547.887634	0.174966
548.102146	0.175236
548.316640	0.175560
548.531116	0.176503
548.745574	0.177446
548.960013	0.178471
549.174435	0.178913
549.388838	0.180240
549.603222	0.180605
549.817589	0.181328
550.031937	0.180881
550.246267	0.181333
550.460579	0.181815
550.674873	0.182489
550.889148	0.182304
551.103405	0.182853
551.317644	0.182443
551.531865	0.182087
551.746068	0.181888
551.960252	0.183284
552.174418	0.182408
552.388566	0.182421
552.602696	0.181231
552.816807	0.181758
553.030900	0.182771
553.244975	0.183487
553.459032	0.184144
553.673070	0.184139
553.887091	0.183666
554.101093	0.184746
554.315077	0.184465
554.529042	0.185171
554.742990	0.185042
554.956919	0.184686
555.170830	0.185328
555.384722	0.185977
555.598597	0.185785
555.812453	0.186386
556.026291	0.186355
556.240111	0.185629
556.453913	0.185285
556.667696	0.185326
556.881461	0.185029
557.095208	0.184252
557.308937	0.183502
557.522647	0.183205
557.736339	0.183284
557.950013	0.183674
558.163669	0.185314
558.377307	0.185136
558.590926	0.185393
558.804527	0.186493
559.018110	0.187236
559.231675	0.186627
559.445221	0.187573
559.658749	0.187542
559.872259	0.188187
560.085751	0.187744
560.299225	0.187896
560.512680	0.188388
560.726117	0.187904
560.939536	0.187777
561.152937	0.188609
561.366319	0.189230
561.579683	0.190006
561.793029	0.189393
562.006357	0.189605
562.219667	0.190500
562.432958	0.190520
562.646231	0.190517
562.859486	0.190589
563.072723	0.190873
563.285941	0.190546
563.499141	0.190385
563.712323	0.191075
563.925487	0.191674
564.138632	0.191436
564.351760	0.191110
564.564869	0.191596
564.777960	0.191296
564.991032	0.191285
565.204087	0.191895
565.417123	0.191823
565.630141	0.191463
565.843140	0.191049
566.056122	0.191286
566.269085	0.191741
566.482030	0.191960
566.694957	0.192416
566.907866	0.193411
567.120756	0.193689
567.333628	0.194084
567.546482	0.194360
567.759318	0.194962
567.972135	0.195477
568.184935	0.195528
568.397716	0.195913
568.610478	0.196119
568.823223	0.194850
569.035949	0.194116
569.248657	0.194141
569.461347	0.194785
569.674019	0.194821
569.886672	0.194653
570.099308	0.194720
570.311925	0.194578
570.524523	0.194583
570.737104	0.195566
570.949666	0.196559
571.162210	0.197282
571.374736	0.196640
571.587244	0.196398
571.799733	0.196431
572.012205	0.196895
572.224658	0.196768
572.437092	0.197114
572.649509	0.197089
572.861907	0.196948
573.074287	0.196479
573.286649	0.196784
573.498993	0.196847
573.711318	0.197322
573.923625	0.197977
574.135914	0.197801
574.348185	0.198324
574.560438	0.198840
574.772672	0.198114
574.984888	0.197939
575.197086	0.198409
575.409266	0.198818
575.621427	0.199249
575.833570	0.198979
576.045695	0.199528
576.257802	0.199577
576.469890	0.199189
576.681961	0.200157
576.894013	0.200664
577.106046	0.200435
577.318062	0.200530
577.530059	0.200306
577.742039	0.200209
577.954000	0.200398
578.165942	0.199762
578.377867	0.200641
578.589773	0.200612
578.801661	0.200211
579.013531	0.200489
579.225382	0.200230
579.437216	0.200199
579.649031	0.200422
579.860828	0.200428
580.072606	0.201507
580.284367	0.201399
580.496109	0.201462
580.707833	0.201852
580.919539	0.202472
581.131227	0.203495
581.342896	0.203720
581.554547	0.203252
581.766180	0.203999
581.977795	0.204036
582.189391	0.203907
582.400969	0.203769
582.612529	0.203874
582.824071	0.204420
583.035595	0.204273
583.247100	0.204413
583.458587	0.204790
583.670056	0.204426
583.881506	0.204491
584.092939	0.204835
584.304353	0.205588
584.515749	0.206071
584.727127	0.205764
584.938486	0.206065
585.149828	0.206947
585.361151	0.207293
585.572456	0.207504
585.783742	0.207396
585.995011	0.207006
586.206261	0.206931
586.417493	0.206856
586.628706	0.206817
586.839902	0.207382
587.051079	0.206458
587.262238	0.206658
587.473379	0.206302
587.684502	0.205991
587.895606	0.206675
588.106692	0.206725
588.317760	0.207249
588.528810	0.207703
588.739841	0.207503
588.950855	0.208847
589.161850	0.209304
589.372827	0.209511
589.583785	0.210366
589.794726	0.210236
590.005648	0.210300
590.216552	0.210092
590.427437	0.209941
590.638305	0.210131
590.849154	0.210276
591.059985	0.209992
591.270798	0.210565
591.481592	0.210794
591.692369	0.211260
591.903127	0.211935
592.113867	0.211959
592.324588	0.212111
592.535292	0.211063
592.745977	0.210485
592.956644	0.210486
593.167293	0.210719
593.377923	0.210766
593.588536	0.210188
593.799130	0.210280
594.009706	0.210871
594.220263	0.210631
594.430803	0.211524
594.641324	0.211692
594.851827	0.212113
595.062312	0.212089
595.272778	0.211513
595.483227	0.212250
595.693657	0.212600
595.904069	0.213166
596.114462	0.213956
596.324838	0.214370
596.535195	0.214279
596.745534	0.215071
596.955855	0.214896
597.166157	0.215510
597.376441	0.215266
597.586707	0.215189
597.796955	0.214535
598.007185	0.214841
598.217396	0.214437
598.427589	0.214845
598.637764	0.214292
598.847921	0.215004
599.058060	0.214785
599.268180	0.214767
599.478282	0.214648
599.688366	0.214730
599.898431	0.214179
600.108479	0.214708
600.318508	0.214742
600.528519	0.215001
600.738511	0.215384
600.948486	0.215842
601.158442	0.216299
601.368380	0.216410
601.578300	0.216691
601.788202	0.217128
601.998085	0.217270
602.207950	0.217333
602.417797	0.217134
602.627626	0.217268
602.837436	0.217808
603.047228	0.217578
603.257002	0.217393
603.466758	0.217977
603.676496	0.217366
603.886215	0.216995
604.095916	0.217293
604.305599	0.217508
604.515264	0.216994
604.724910	0.216774
604.934538	0.217297
605.144148	0.217687
605.353740	0.217227
605.563314	0.218426
605.772869	0.219094
605.982406	0.219724
606.191925	0.220451
606.401425	0.221251
606.610908	0.221031
606.820372	0.220977
607.029818	0.221772
607.239246	0.222217
607.448655	0.222224
607.658047	0.222781
607.867420	0.222444
608.076775	0.222130
608.286111	0.222071
608.495430	0.221928
608.704730	0.222265
608.914012	0.222397
609.123275	0.222575
609.332521	0.223011
609.541748	0.222527
609.750957	0.222303
609.960148	0.222617
610.169321	0.222386
610.378475	0.222992
610.587611	0.222856
610.796729	0.222534
611.005829	0.222255
611.214910	0.221734
611.423974	0.221802
611.633019	0.222166
611.842045	0.222475
612.051054	0.222988
612.260044	0.222805
612.469017	0.223164
612.677970	0.223304
612.886906	0.223927
613.095824	0.224239
613.304723	0.224329
613.513604	0.224808
613.722467	0.224952
613.931311	0.224822
614.140138	0.225810
614.348946	0.226083
614.557736	0.226009
614.766507	0.226053
614.975261	0.226727
615.183996	0.227515
615.392713	0.227398
615.601412	0.227135
615.810092	0.226797
616.018754	0.227038
616.227399	0.226950
616.436024	0.226828
616.644632	0.227019
616.853222	0.226745
617.061793	0.226422
617.270346	0.226353
617.478880	0.226715
617.687397	0.226931
617.895895	0.226589
618.104375	0.226773
618.312837	0.227477
618.521281	0.227687
618.729706	0.227809
618.938113	0.227888
619.146502	0.228309
619.354873	0.228359
619.563226	0.229169
619.771560	0.228960
619.979876	0.229160
620.188174	0.229528
620.396453	0.229421
620.604715	0.229573
620.812958	0.230019
621.021183	0.230371
621.229390	0.230921
621.437578	0.231282
621.645748	0.231407
621.853900	0.232183
622.062034	0.231985
622.270150	0.232477
622.478247	0.232713
622.686326	0.232777
622.894387	0.232876
623.102430	0.232971
623.310454	0.232567
623.518461	0.233208
623.726449	0.232372
623.934418	0.232049
624.142370	0.232352
624.350303	0.232603
624.558218	0.232783
624.766115	0.232515
624.973994	0.232166
625.181855	0.232422
625.389697	0.232533
625.597521	0.233210
625.805327	0.234048
626.013114	0.233569
626.220883	0.233400
626.428634	0.233329
626.636367	0.233591
626.844082	0.234545
627.051778	0.234318
627.259457	0.234705
627.467117	0.234930
627.674758	0.234887
627.882382	0.235000
628.089987	0.235724
628.297574	0.236139
628.505143	0.236522
628.712694	0.236618
628.920226	0.237173
629.127740	0.237389
629.335236	0.237304
629.542714	0.237443
629.750174	0.237396
629.957615	0.237028
630.165038	0.237011
630.372443	0.237182
630.579829	0.237011
630.787198	0.237108
630.994548	0.236670
631.201880	0.236760
631.409194	0.236971
631.616489	0.237697
631.823766	0.237642
632.031025	0.238094
632.238266	0.238756
632.445489	0.238831
632.652693	0.238744
632.859879	0.238733
633.067047	0.239103
633.274197	0.238501
633.481329	0.238584
633.688442	0.239032
633.895537	0.238775
634.102614	0.238014
634.309672	0.238051
634.516713	0.238228
634.723735	0.238583
634.930739	0.238672
635.137724	0.239195
635.344692	0.238697
635.551641	0.238981
635.758572	0.238931
635.965485	0.239365
636.172379	0.239483
636.379256	0.240073
636.586114	0.240323
636.792954	0.240547
636.999775	0.241139
637.206579	0.241738
637.413364	0.241705
637.620131	0.241761
637.826880	0.241942
638.033610	0.241973
638.240323	0.241844
638.447017	0.242126
638.653692	0.242481
638.860350	0.242393
639.066990	0.242761
639.273611	0.242819
639.480214	0.243393
639.686798	0.243586
639.893365	0.244123
640.099913	0.244361
640.306443	0.243963
640.512955	0.243709
640.719449	0.243865
640.925924	0.244204
641.132381	0.244382
641.338820	0.244472
641.545241	0.244690
641.751644	0.244616
641.958028	0.244481
642.164394	0.244796
642.370742	0.244690
642.577071	0.244871
642.783383	0.244980
642.989676	0.245161
643.195951	0.245415
643.402207	0.245649
643.608446	0.245529
643.814666	0.245974
644.020868	0.246595
644.227052	0.247155
644.433218	0.248067
644.639365	0.248358
644.845494	0.248555
645.051605	0.248756
645.257698	0.248542
645.463772	0.249236
645.669828	0.249292
645.875866	0.249576
646.081886	0.249890
646.287888	0.249369
646.493871	0.249271
646.699836	0.249190
646.905783	0.249201
647.111712	0.249745
647.317622	0.249714
647.523514	0.249768
647.729388	0.249983
647.935244	0.249871
648.141082	0.250250
648.346901	0.250349
648.552702	0.250856
648.758485	0.251025
648.964250	0.251008
649.169996	0.251479
649.375724	0.251609
649.581434	0.251416
649.787126	0.251822
649.992800	0.251762
650.198455	0.251865
650.404092	0.252009
650.609711	0.252401
650.815311	0.252606
651.020894	0.252601
651.226458	0.253436
651.432004	0.253722
651.637532	0.253646
651.843041	0.253877
652.048532	0.254876
652.254006	0.254978
652.459460	0.255159
652.664897	0.255655
652.870315	0.255794
653.075716	0.255492
653.281097	0.255397
653.486461	0.255725
653.691807	0.255462
653.897134	0.255273
654.102443	0.255697
654.307734	0.255856
654.513006	0.255459
654.718261	0.255628
654.923497	0.256063
655.128715	0.256770
655.333915	0.256822
655.539096	0.257507
655.744259	0.257619
655.949404	0.257687
656.154531	0.257464
656.359640	0.258092
656.564730	0.258092
656.769802	0.257969
656.974856	0.257814
657.179892	0.258193
657.384909	0.258224
657.589908	0.258199
657.794889	0.258277
657.999852	0.258988
658.204797	0.259006
658.409723	0.259347
658.614631	0.259616
658.819521	0.259960
659.024393	0.260187
659.229246	0.260767
659.434081	0.260997
659.638898	0.261405
659.843697	0.261489
660.048478	0.261340
660.253240	0.261576
660.457984	0.261680
660.662710	0.261464
660.867417	0.261300
661.072107	0.261434
661.276778	0.261686
661.481431	0.261476
661.686066	0.261840
661.890682	0.262223
662.095281	0.262058
662.299861	0.262541
662.504422	0.263356
662.708966	0.264149
662.913491	0.264213
663.117999	0.264112
663.322488	0.264417
663.526958	0.264469
663.731411	0.264564
663.935845	0.265149
664.140261	0.265438
664.344659	0.265436
664.549038	0.265501
664.753400	0.265582
664.957743	0.266159
665.162068	0.266124
665.366375	0.266340
665.570663	0.266767
665.774933	0.267077
665.979185	0.267180
666.183419	0.267217
666.387635	0.267519
666.591832	0.268029
666.796011	0.268164
667.000172	0.268655
667.204315	0.268988
667.408439	0.269479
667.612545	0.269735
667.816634	0.270037
668.020703	0.270269
668.224755	0.270577
668.428788	0.270148
668.632803	0.270327
668.836800	0.270763
669.040779	0.271109
669.244739	0.271153
669.448681	0.271094
669.652605	0.271028
669.856511	0.271490
670.060399	0.271286
670.264268	0.271742
670.468119	0.271456
670.671952	0.271457
670.875767	0.271066
671.079563	0.271222
671.283341	0.271495
671.487101	0.271605
671.690843	0.271756
671.894567	0.271682
672.098272	0.271754
672.301959	0.272434
672.505628	0.272661
672.709278	0.273063
672.912911	0.273092
673.116525	0.273410
673.320121	0.273939
673.523699	0.274123
673.727258	0.275023
673.930799	0.275707
674.134322	0.275736
674.337827	0.275849
674.541314	0.276531
674.744782	0.276988
674.948232	0.277120
675.151664	0.276983
675.355078	0.277045
675.558474	0.277136
675.761851	0.276987
675.965210	0.277454
676.168551	0.277892
676.371873	0.277828
676.575178	0.277658
676.778464	0.277726
676.981732	0.277997
677.184981	0.278483
677.388213	0.278467
677.591426	0.278994
677.794621	0.278788
677.997798	0.278999
678.200956	0.279095
678.404097	0.279558
678.607219	0.279905
678.810323	0.280192
679.013408	0.280053
679.216476	0.280446
679.419525	0.280594
679.622556	0.281141
679.825569	0.280778
680.028563	0.281214
680.231540	0.281265
680.434498	0.281340
680.637438	0.281602
680.840359	0.281968
681.043263	0.282086
681.246148	0.282238
681.449015	0.282176
681.651864	0.283203
681.854694	0.283646
682.057506	0.284035
682.260301	0.284373
682.463076	0.284352
682.665834	0.284482
682.868573	0.284282
683.071295	0.284538
683.273998	0.285158
683.476682	0.284878
683.679349	0.284310
683.881997	0.284262
684.084627	0.284392
684.287239	0.284793
684.489833	0.285152
684.692408	0.285837
684.894965	0.285798
685.097504	0.285644
685.300025	0.285907
685.502527	0.286160
685.705012	0.286286
685.907478	0.286298
686.109925	0.286236
686.312355	0.286135
686.514766	0.285675
686.717159	0.286117
686.919534	0.286627
687.121891	0.286860
687.324230	0.287371
687.526550	0.288038
687.728852	0.288064
687.931136	0.288454
688.133401	0.288812
688.335649	0.289191
688.537878	0.289144
688.740089	0.289263
688.942281	0.289438
689.144456	0.289447
689.346612	0.289468
689.548750	0.289728
689.750870	0.290140
689.952971	0.290043
690.155055	0.290101
690.357120	0.290415
690.559167	0.290060
690.761195	0.290149
690.963206	0.290507
691.165198	0.290169
691.367172	0.290420
691.569128	0.290190
691.771065	0.290746
691.972984	0.291066
692.174885	0.290868
692.376768	0.291164
692.578633	0.291087
692.780479	0.290881
692.982308	0.291185
693.184118	0.291210
693.385909	0.291330
693.587683	0.290907
