sample name	sample
index	1349
start time	 05-03-2021  01:01:47 PM


Wavelength (nm)	Absorbance
494.344910	1.006625
494.563924	1.006625
494.782919	1.006625
495.001897	-0.299424
495.220856	0.318908
495.439797	0.422568
495.658719	0.260919
495.877624	0.218187
496.096510	0.181996
496.315378	0.051911
496.534227	0.154040
496.753059	0.074132
496.971872	-0.030640
497.190667	0.134287
497.409444	0.144875
497.628203	0.152855
497.846943	0.158246
498.065665	0.158800
498.284369	0.160031
498.503055	0.160430
498.721723	0.160868
498.940372	0.161530
499.159003	0.163989
499.377616	0.164173
499.596210	0.163282
499.814787	0.161666
500.033345	0.162909
500.251885	0.163280
500.470406	0.163390
500.688910	0.162887
500.907395	0.164386
501.125862	0.162406
501.344311	0.162001
501.562742	0.163374
501.781154	0.163475
501.999548	0.163977
502.217924	0.163707
502.436282	0.163568
502.654621	0.164327
502.872942	0.164275
503.091245	0.164816
503.309530	0.166291
503.527797	0.166129
503.746045	0.166212
503.964275	0.166150
504.182487	0.166729
504.400681	0.166876
504.618856	0.167490
504.837013	0.167014
505.055152	0.167117
505.273273	0.166164
505.491376	0.165952
505.709460	0.165716
505.927526	0.165162
506.145574	0.165514
506.363604	0.165182
506.581615	0.165455
506.799608	0.165439
507.017583	0.165828
507.235540	0.166070
507.453478	0.166070
507.671399	0.167858
507.889301	0.169562
508.107185	0.168075
508.325050	0.169101
508.542898	0.168970
508.760727	0.168570
508.978538	0.169065
509.196330	0.169301
509.414105	0.169478
509.631861	0.168309
509.849599	0.167939
510.067319	0.167831
510.285021	0.167490
510.502704	0.167005
510.720369	0.166607
510.938016	0.165990
511.155645	0.166330
511.373255	0.166055
511.590848	0.167089
511.808422	0.166720
512.025977	0.168619
512.243515	0.168502
512.461034	0.167953
512.678536	0.169309
512.896018	0.170342
513.113483	0.169427
513.330930	0.170432
513.548358	0.168435
513.765768	0.168520
513.983160	0.168007
514.200533	0.168356
514.417889	0.169071
514.635226	0.169602
514.852545	0.167662
515.069845	0.169137
515.287128	0.169704
515.504392	0.171246
515.721638	0.171930
515.938866	0.171709
516.156075	0.171927
516.373267	0.172333
516.590440	0.172514
516.807594	0.172883
517.024731	0.173032
517.241850	0.172684
517.458950	0.172637
517.676032	0.171764
517.893095	0.172042
518.110141	0.172693
518.327168	0.173154
518.544177	0.172427
518.761168	0.173505
518.978141	0.173529
519.195095	0.173753
519.412031	0.174599
519.628949	0.175416
519.845849	0.175894
520.062731	0.175709
520.279594	0.175709
520.496439	0.176469
520.713266	0.176829
520.930074	0.177139
521.146865	0.176992
521.363637	0.176818
521.580391	0.175621
521.797127	0.175124
522.013844	0.175568
522.230543	0.175629
522.447224	0.175710
522.663887	0.174978
522.880532	0.175593
523.097158	0.175670
523.313766	0.175757
523.530356	0.176884
523.746928	0.177208
523.963481	0.177605
524.180017	0.177039
524.396534	0.176444
524.613032	0.176994
524.829513	0.176414
525.045975	0.176710
525.262420	0.177467
525.478845	0.177829
525.695253	0.179057
525.911643	0.178625
526.128014	0.179168
526.344367	0.179552
526.560702	0.180473
526.777018	0.180738
526.993316	0.181733
527.209597	0.181289
527.425858	0.181605
527.642102	0.181063
527.858328	0.181783
528.074535	0.181887
528.290724	0.182911
528.506894	0.183690
528.723047	0.184236
528.939181	0.184022
529.155297	0.184294
529.371395	0.184330
529.587475	0.185019
529.803536	0.184929
530.019579	0.185167
530.235604	0.185606
530.451611	0.184966
530.667600	0.184257
530.883570	0.184006
531.099522	0.184308
531.315456	0.184871
531.531372	0.184909
531.747269	0.185374
531.963148	0.185817
532.179009	0.185442
532.394852	0.185465
532.610676	0.186859
532.826482	0.187859
533.042271	0.188726
533.258040	0.189419
533.473792	0.189587
533.689525	0.189420
533.905240	0.189447
534.120937	0.190016
534.336616	0.190673
534.552277	0.190948
534.767919	0.190865
534.983543	0.190770
535.199149	0.190644
535.414736	0.191269
535.630306	0.191691
535.845857	0.192855
536.061390	0.192728
536.276904	0.192713
536.492401	0.192850
536.707879	0.193577
536.923339	0.193618
537.138781	0.193671
537.354204	0.194034
537.569610	0.194190
537.784997	0.194869
538.000366	0.195248
538.215716	0.195508
538.431049	0.195446
538.646363	0.195310
538.861659	0.195905
539.076937	0.196834
539.292196	0.197020
539.507438	0.197871
539.722661	0.197115
539.937866	0.197295
540.153052	0.197651
540.368221	0.197932
540.583371	0.198489
540.798503	0.198162
541.013617	0.198074
541.228712	0.198026
541.443789	0.198176
541.658848	0.198176
541.873889	0.198396
542.088912	0.198814
542.303916	0.199263
542.518902	0.199188
542.733870	0.199714
542.948820	0.199454
543.163752	0.199426
543.378665	0.199506
543.593560	0.199872
543.808437	0.199921
544.023295	0.199853
544.238136	0.199897
544.452958	0.200670
544.667762	0.201719
544.882548	0.201929
545.097315	0.202365
545.312064	0.202991
545.526795	0.204034
545.741508	0.203940
545.956203	0.204501
546.170879	0.204092
546.385537	0.204108
546.600177	0.203996
546.814799	0.204845
547.029402	0.204973
547.243988	0.204465
547.458555	0.204136
547.673103	0.205009
547.887634	0.204854
548.102146	0.205710
548.316640	0.205546
548.531116	0.205283
548.745574	0.205088
548.960013	0.205420
549.174435	0.205657
549.388838	0.205956
549.603222	0.205842
549.817589	0.206156
550.031937	0.206499
550.246267	0.206970
550.460579	0.206883
550.674873	0.207351
550.889148	0.207348
551.103405	0.207790
551.317644	0.208062
551.531865	0.208427
551.746068	0.208704
551.960252	0.208626
552.174418	0.208588
552.388566	0.209186
552.602696	0.209052
552.816807	0.209409
553.030900	0.209674
553.244975	0.209634
553.459032	0.210093
553.673070	0.210203
553.887091	0.210394
554.101093	0.210821
554.315077	0.211622
554.529042	0.212381
554.742990	0.212319
554.956919	0.212993
555.170830	0.213448
555.384722	0.213564
555.598597	0.214003
555.812453	0.214378
556.026291	0.214532
556.240111	0.214502
556.453913	0.214005
556.667696	0.214642
556.881461	0.214679
557.095208	0.215127
557.308937	0.214845
557.522647	0.215243
557.736339	0.215413
557.950013	0.215427
558.163669	0.215449
558.377307	0.215904
558.590926	0.216116
558.804527	0.216148
559.018110	0.215556
559.231675	0.216073
559.445221	0.215753
559.658749	0.216282
559.872259	0.216228
560.085751	0.216121
560.299225	0.216584
560.512680	0.216555
560.726117	0.216261
560.939536	0.216483
561.152937	0.216369
561.366319	0.216484
561.579683	0.216117
561.793029	0.216412
562.006357	0.216318
562.219667	0.216205
562.432958	0.216258
562.646231	0.216621
562.859486	0.217369
563.072723	0.217913
563.285941	0.218381
563.499141	0.218701
563.712323	0.219291
563.925487	0.219662
564.138632	0.219892
564.351760	0.220239
564.564869	0.219803
564.777960	0.219541
564.991032	0.219927
565.204087	0.219742
565.417123	0.219936
565.630141	0.219678
565.843140	0.219984
566.056122	0.219840
566.269085	0.220042
566.482030	0.220719
566.694957	0.221033
566.907866	0.220441
567.120756	0.220544
567.333628	0.220456
567.546482	0.220894
567.759318	0.220846
567.972135	0.221034
568.184935	0.221023
568.397716	0.221262
568.610478	0.221211
568.823223	0.221605
569.035949	0.221721
569.248657	0.221940
569.461347	0.221641
569.674019	0.221361
569.886672	0.221480
570.099308	0.221311
570.311925	0.221317
570.524523	0.221633
570.737104	0.221726
570.949666	0.222171
571.162210	0.222580
571.374736	0.222805
571.587244	0.223207
571.799733	0.223212
572.012205	0.223459
572.224658	0.223558
572.437092	0.223413
572.649509	0.223586
572.861907	0.223571
573.074287	0.222980
573.286649	0.223134
573.498993	0.223623
573.711318	0.224319
573.923625	0.224761
574.135914	0.224909
574.348185	0.225025
574.560438	0.225072
574.772672	0.225096
574.984888	0.225393
575.197086	0.225633
575.409266	0.225831
575.621427	0.225455
575.833570	0.225210
576.045695	0.225084
576.257802	0.225458
576.469890	0.225603
576.681961	0.225752
576.894013	0.226144
577.106046	0.226135
577.318062	0.225871
577.530059	0.226073
577.742039	0.226508
577.954000	0.226918
578.165942	0.227086
578.377867	0.227493
578.589773	0.227920
578.801661	0.227685
579.013531	0.228043
579.225382	0.228120
579.437216	0.228337
579.649031	0.228441
579.860828	0.228217
580.072606	0.228488
580.284367	0.228278
580.496109	0.228063
580.707833	0.228409
580.919539	0.228140
581.131227	0.228218
581.342896	0.228235
581.554547	0.227989
581.766180	0.228251
581.977795	0.227977
582.189391	0.228468
582.400969	0.228824
582.612529	0.228979
582.824071	0.229312
583.035595	0.229548
583.247100	0.229841
583.458587	0.229818
583.670056	0.229903
583.881506	0.230344
584.092939	0.230385
584.304353	0.230109
584.515749	0.230179
584.727127	0.230415
584.938486	0.230549
585.149828	0.230402
585.361151	0.231221
585.572456	0.231333
585.783742	0.231359
585.995011	0.231252
586.206261	0.231869
586.417493	0.231948
586.628706	0.231598
586.839902	0.232072
587.051079	0.232444
587.262238	0.232567
587.473379	0.232700
587.684502	0.232558
587.895606	0.232813
588.106692	0.232470
588.317760	0.232513
588.528810	0.232887
588.739841	0.232800
588.950855	0.232683
589.161850	0.232455
589.372827	0.233083
589.583785	0.233200
589.794726	0.233448
590.005648	0.233547
590.216552	0.234038
590.427437	0.234679
590.638305	0.235043
590.849154	0.235419
591.059985	0.235680
591.270798	0.235797
591.481592	0.236462
591.692369	0.236357
591.903127	0.236556
592.113867	0.236865
592.324588	0.236363
592.535292	0.236433
592.745977	0.236571
592.956644	0.236969
593.167293	0.236591
593.377923	0.236616
593.588536	0.237033
593.799130	0.237501
594.009706	0.237482
594.220263	0.237425
594.430803	0.237257
594.641324	0.237267
594.851827	0.237094
595.062312	0.237386
595.272778	0.237466
595.483227	0.237345
595.693657	0.237226
595.904069	0.236902
596.114462	0.237614
596.324838	0.238154
596.535195	0.238512
596.745534	0.238741
596.955855	0.239071
597.166157	0.239157
597.376441	0.239412
597.586707	0.239611
597.796955	0.239844
598.007185	0.239948
598.217396	0.239805
598.427589	0.240058
598.637764	0.240187
598.847921	0.240264
599.058060	0.240038
599.268180	0.240049
599.478282	0.240372
599.688366	0.240743
599.898431	0.240940
600.108479	0.240605
600.318508	0.240408
600.528519	0.240493
600.738511	0.240597
600.948486	0.241207
601.158442	0.241258
601.368380	0.241259
601.578300	0.241467
601.788202	0.241599
601.998085	0.242156
602.207950	0.242308
602.417797	0.242352
602.627626	0.242400
602.837436	0.242227
603.047228	0.242522
603.257002	0.242857
603.466758	0.242670
603.676496	0.242921
603.886215	0.243222
604.095916	0.243533
604.305599	0.243973
604.515264	0.244019
604.724910	0.244407
604.934538	0.244818
605.144148	0.244897
605.353740	0.245715
605.563314	0.245712
605.772869	0.245879
605.982406	0.245680
606.191925	0.245897
606.401425	0.246035
606.610908	0.246181
606.820372	0.246240
607.029818	0.246165
607.239246	0.245741
607.448655	0.245771
607.658047	0.245612
607.867420	0.245974
608.076775	0.245718
608.286111	0.246058
608.495430	0.245870
608.704730	0.245951
608.914012	0.246215
609.123275	0.246553
609.332521	0.246738
609.541748	0.246846
609.750957	0.246781
609.960148	0.247282
610.169321	0.247287
610.378475	0.247927
610.587611	0.247817
610.796729	0.247783
611.005829	0.247599
611.214910	0.247520
611.423974	0.247859
611.633019	0.248215
611.842045	0.247853
612.051054	0.247658
612.260044	0.247132
612.469017	0.246926
612.677970	0.247223
612.886906	0.247827
613.095824	0.248084
613.304723	0.247866
613.513604	0.247774
613.722467	0.248275
613.931311	0.248265
614.140138	0.248573
614.348946	0.248938
614.557736	0.248757
614.766507	0.248501
614.975261	0.248419
615.183996	0.248620
615.392713	0.248814
615.601412	0.248714
615.810092	0.249235
616.018754	0.249340
616.227399	0.249641
616.436024	0.249893
616.644632	0.249807
616.853222	0.249736
617.061793	0.250067
617.270346	0.250087
617.478880	0.250328
617.687397	0.250435
617.895895	0.250770
618.104375	0.250718
618.312837	0.250883
618.521281	0.251349
618.729706	0.251583
618.938113	0.251741
619.146502	0.251631
619.354873	0.251781
619.563226	0.252114
619.771560	0.252111
619.979876	0.252380
620.188174	0.252533
620.396453	0.252364
620.604715	0.252847
620.812958	0.252801
621.021183	0.253051
621.229390	0.252738
621.437578	0.252741
621.645748	0.252840
621.853900	0.252698
622.062034	0.252723
622.270150	0.253053
622.478247	0.252836
622.686326	0.253165
622.894387	0.253521
623.102430	0.253903
623.310454	0.254105
623.518461	0.254031
623.726449	0.254270
623.934418	0.254458
624.142370	0.254740
624.350303	0.255184
624.558218	0.254679
624.766115	0.254847
624.973994	0.254780
625.181855	0.254637
625.389697	0.255003
625.597521	0.255307
625.805327	0.255087
626.013114	0.255055
626.220883	0.254754
626.428634	0.255363
626.636367	0.255470
626.844082	0.255841
627.051778	0.255955
627.259457	0.255879
627.467117	0.255779
627.674758	0.256602
627.882382	0.256937
628.089987	0.257463
628.297574	0.257620
628.505143	0.257724
628.712694	0.257902
628.920226	0.258330
629.127740	0.258795
629.335236	0.259145
629.542714	0.258939
629.750174	0.258750
629.957615	0.258954
630.165038	0.259299
630.372443	0.259526
630.579829	0.259417
630.787198	0.259563
630.994548	0.259513
631.201880	0.259672
631.409194	0.260148
631.616489	0.260575
631.823766	0.260634
632.031025	0.260596
632.238266	0.260801
632.445489	0.261150
632.652693	0.261230
632.859879	0.261221
633.067047	0.261378
633.274197	0.261265
633.481329	0.261224
633.688442	0.261061
633.895537	0.261159
634.102614	0.261051
634.309672	0.260845
634.516713	0.260867
634.723735	0.260873
634.930739	0.261019
635.137724	0.260993
635.344692	0.261365
635.551641	0.261856
635.758572	0.261683
635.965485	0.261811
636.172379	0.262186
636.379256	0.262354
636.586114	0.262635
636.792954	0.262535
636.999775	0.262635
637.206579	0.262382
637.413364	0.262238
637.620131	0.262711
637.826880	0.262871
638.033610	0.262949
638.240323	0.262773
638.447017	0.262919
638.653692	0.263149
638.860350	0.263426
639.066990	0.263938
639.273611	0.264322
639.480214	0.264278
639.686798	0.264176
639.893365	0.264310
640.099913	0.264742
640.306443	0.265045
640.512955	0.265326
640.719449	0.265359
640.925924	0.265360
641.132381	0.265480
641.338820	0.265652
641.545241	0.266239
641.751644	0.266459
641.958028	0.266725
642.164394	0.267042
642.370742	0.267394
642.577071	0.267630
642.783383	0.268016
642.989676	0.268125
643.195951	0.268515
643.402207	0.268430
643.608446	0.268760
643.814666	0.269072
644.020868	0.268876
644.227052	0.268789
644.433218	0.268891
644.639365	0.268853
644.845494	0.268986
645.051605	0.268793
645.257698	0.269013
645.463772	0.269214
645.669828	0.269115
645.875866	0.269109
646.081886	0.269230
646.287888	0.269567
646.493871	0.269725
646.699836	0.269872
646.905783	0.270376
647.111712	0.270364
647.317622	0.270328
647.523514	0.270483
647.729388	0.270894
647.935244	0.270918
648.141082	0.270986
648.346901	0.271078
648.552702	0.271140
648.758485	0.271073
648.964250	0.271463
649.169996	0.271748
649.375724	0.272073
649.581434	0.272383
649.787126	0.272561
649.992800	0.272692
650.198455	0.272823
650.404092	0.273022
650.609711	0.273416
650.815311	0.273489
651.020894	0.273698
651.226458	0.273714
651.432004	0.273743
651.637532	0.273951
651.843041	0.274107
652.048532	0.274300
652.254006	0.274696
652.459460	0.274782
652.664897	0.275063
652.870315	0.275316
653.075716	0.275361
653.281097	0.275453
653.486461	0.275807
653.691807	0.276279
653.897134	0.276467
654.102443	0.276707
654.307734	0.276807
654.513006	0.276854
654.718261	0.276794
654.923497	0.277065
655.128715	0.277428
655.333915	0.277623
655.539096	0.277314
655.744259	0.277873
655.949404	0.277751
656.154531	0.278164
656.359640	0.278466
656.564730	0.278801
656.769802	0.278872
656.974856	0.279113
657.179892	0.279203
657.384909	0.279604
657.589908	0.279326
657.794889	0.279466
657.999852	0.279342
658.204797	0.279362
658.409723	0.279213
658.614631	0.279381
658.819521	0.278997
659.024393	0.279151
659.229246	0.279214
659.434081	0.279237
659.638898	0.279493
659.843697	0.279713
660.048478	0.279925
660.253240	0.280205
660.457984	0.280403
660.662710	0.280962
660.867417	0.281111
661.072107	0.281419
661.276778	0.281688
661.481431	0.281635
661.686066	0.281716
661.890682	0.281805
662.095281	0.282050
662.299861	0.282134
662.504422	0.282302
662.708966	0.282517
662.913491	0.282663
663.117999	0.282873
663.322488	0.283425
663.526958	0.283705
663.731411	0.283949
663.935845	0.284264
664.140261	0.284516
664.344659	0.284697
664.549038	0.285106
664.753400	0.285204
664.957743	0.285256
665.162068	0.285299
665.366375	0.285482
665.570663	0.285497
665.774933	0.285512
665.979185	0.285837
666.183419	0.286103
666.387635	0.285943
666.591832	0.286133
666.796011	0.286445
667.000172	0.286544
667.204315	0.286606
667.408439	0.286967
667.612545	0.287222
667.816634	0.287179
668.020703	0.287288
668.224755	0.287526
668.428788	0.287626
668.632803	0.287857
668.836800	0.287987
669.040779	0.288368
669.244739	0.288595
669.448681	0.289136
669.652605	0.289462
669.856511	0.289725
670.060399	0.290083
670.264268	0.290378
670.468119	0.290867
670.671952	0.291390
670.875767	0.291500
671.079563	0.291714
671.283341	0.291617
671.487101	0.291850
671.690843	0.292275
671.894567	0.292476
672.098272	0.292585
672.301959	0.292547
672.505628	0.292546
672.709278	0.292937
672.912911	0.293152
673.116525	0.293405
673.320121	0.293682
673.523699	0.293584
673.727258	0.293768
673.930799	0.294025
674.134322	0.294585
674.337827	0.294846
674.541314	0.295028
674.744782	0.295288
674.948232	0.295376
675.151664	0.295629
675.355078	0.296063
675.558474	0.296161
675.761851	0.296531
675.965210	0.296678
676.168551	0.296586
676.371873	0.296871
676.575178	0.297045
676.778464	0.297434
676.981732	0.297358
677.184981	0.297335
677.388213	0.297641
677.591426	0.297674
677.794621	0.297457
677.997798	0.298073
678.200956	0.297941
678.404097	0.298167
678.607219	0.297972
678.810323	0.298272
679.013408	0.298742
679.216476	0.298821
679.419525	0.298881
679.622556	0.299154
679.825569	0.299269
680.028563	0.299387
680.231540	0.299423
680.434498	0.299758
680.637438	0.300157
680.840359	0.300249
681.043263	0.300673
681.246148	0.301033
681.449015	0.301006
681.651864	0.300981
681.854694	0.301486
682.057506	0.301890
682.260301	0.302158
682.463076	0.302170
682.665834	0.301971
682.868573	0.301815
683.071295	0.302063
683.273998	0.302539
683.476682	0.302766
683.679349	0.302656
683.881997	0.302857
684.084627	0.303117
684.287239	0.303480
684.489833	0.303740
684.692408	0.303956
684.894965	0.304136
685.097504	0.304205
685.300025	0.304360
685.502527	0.304689
685.705012	0.304667
685.907478	0.304656
686.109925	0.304616
686.312355	0.304937
686.514766	0.305065
686.717159	0.304948
686.919534	0.305211
687.121891	0.305383
687.324230	0.305772
687.526550	0.305989
687.728852	0.306228
687.931136	0.306390
688.133401	0.306665
688.335649	0.306860
688.537878	0.307252
688.740089	0.307434
688.942281	0.307702
689.144456	0.307688
689.346612	0.307874
689.548750	0.307956
689.750870	0.308385
689.952971	0.308551
690.155055	0.308758
690.357120	0.309001
690.559167	0.309231
690.761195	0.309557
690.963206	0.309680
691.165198	0.310111
691.367172	0.310410
691.569128	0.310341
691.771065	0.310548
691.972984	0.310705
692.174885	0.310901
692.376768	0.311156
692.578633	0.311123
692.780479	0.311200
692.982308	0.311160
693.184118	0.311330
693.385909	0.311710
