sample name	sample
index	302
start time	 02-25-2021  02:13:05 PM


Wavelength (nm)	Absorbance
494.344910	-0.292899
494.563924	-0.292899
494.782919	-0.292899
495.001897	-0.206118
495.220856	-0.183501
495.439797	-0.181894
495.658719	-0.142003
495.877624	-0.098968
496.096510	-0.094748
496.315378	-0.047944
496.534227	0.057243
496.753059	0.058885
496.971872	0.004737
497.190667	0.118608
497.409444	0.129543
497.628203	0.133581
497.846943	0.131906
498.065665	0.131688
498.284369	0.133190
498.503055	0.133589
498.721723	0.134376
498.940372	0.134422
499.159003	0.133679
499.377616	0.133006
499.596210	0.132222
499.814787	0.133560
500.033345	0.133528
500.251885	0.132706
500.470406	0.131143
500.688910	0.130100
500.907395	0.130374
501.125862	0.131186
501.344311	0.131541
501.562742	0.131620
501.781154	0.131151
501.999548	0.131446
502.217924	0.130915
502.436282	0.132586
502.654621	0.133923
502.872942	0.133655
503.091245	0.133944
503.309530	0.135096
503.527797	0.135138
503.746045	0.134890
503.964275	0.136530
504.182487	0.137663
504.400681	0.137715
504.618856	0.137214
504.837013	0.137949
505.055152	0.137318
505.273273	0.136942
505.491376	0.137044
505.709460	0.137122
505.927526	0.136774
506.145574	0.136197
506.363604	0.136066
506.581615	0.137229
506.799608	0.137751
507.017583	0.138629
507.235540	0.138243
507.453478	0.138391
507.671399	0.139087
507.889301	0.138547
508.107185	0.139702
508.325050	0.139330
508.542898	0.138367
508.760727	0.137641
508.978538	0.137086
509.196330	0.138221
509.414105	0.137384
509.631861	0.137755
509.849599	0.139086
510.067319	0.138723
510.285021	0.139926
510.502704	0.140781
510.720369	0.141296
510.938016	0.140993
511.155645	0.141429
511.373255	0.142570
511.590848	0.141879
511.808422	0.141226
512.025977	0.142065
512.243515	0.141908
512.461034	0.141606
512.678536	0.142055
512.896018	0.143080
513.113483	0.142816
513.330930	0.144027
513.548358	0.145200
513.765768	0.145206
513.983160	0.145582
514.200533	0.144995
514.417889	0.144596
514.635226	0.144861
514.852545	0.145001
515.069845	0.145053
515.287128	0.144671
515.504392	0.144036
515.721638	0.144116
515.938866	0.144104
516.156075	0.144760
516.373267	0.145457
516.590440	0.145113
516.807594	0.144998
517.024731	0.145559
517.241850	0.145420
517.458950	0.146368
517.676032	0.146598
517.893095	0.146910
518.110141	0.146258
518.327168	0.145939
518.544177	0.146051
518.761168	0.146451
518.978141	0.145671
519.195095	0.146181
519.412031	0.146258
519.628949	0.146872
519.845849	0.147633
520.062731	0.148804
520.279594	0.149428
520.496439	0.150590
520.713266	0.151835
520.930074	0.152589
521.146865	0.152892
521.363637	0.153180
521.580391	0.153444
521.797127	0.153513
522.013844	0.153724
522.230543	0.154140
522.447224	0.153612
522.663887	0.153210
522.880532	0.153806
523.097158	0.153482
523.313766	0.153689
523.530356	0.153560
523.746928	0.153813
523.963481	0.154461
524.180017	0.154726
524.396534	0.154847
524.613032	0.155233
524.829513	0.155171
525.045975	0.155578
525.262420	0.155963
525.478845	0.155979
525.695253	0.155952
525.911643	0.155849
526.128014	0.156013
526.344367	0.156624
526.560702	0.156920
526.777018	0.157032
526.993316	0.157335
527.209597	0.156897
527.425858	0.157666
527.642102	0.158575
527.858328	0.159049
528.074535	0.159554
528.290724	0.159768
528.506894	0.159811
528.723047	0.161110
528.939181	0.161429
529.155297	0.162314
529.371395	0.162487
529.587475	0.161891
529.803536	0.161335
530.019579	0.161338
530.235604	0.161745
530.451611	0.162083
530.667600	0.161815
530.883570	0.162088
531.099522	0.162297
531.315456	0.162838
531.531372	0.163279
531.747269	0.164534
531.963148	0.164931
532.179009	0.164959
532.394852	0.164590
532.610676	0.164926
532.826482	0.165033
533.042271	0.165339
533.258040	0.165113
533.473792	0.165542
533.689525	0.165315
533.905240	0.165462
534.120937	0.166015
534.336616	0.166853
534.552277	0.166621
534.767919	0.167576
534.983543	0.167809
535.199149	0.168505
535.414736	0.168121
535.630306	0.168989
535.845857	0.170165
536.061390	0.170442
536.276904	0.170351
536.492401	0.170701
536.707879	0.170577
536.923339	0.171247
537.138781	0.171229
537.354204	0.171566
537.569610	0.171587
537.784997	0.171557
538.000366	0.171538
538.215716	0.172160
538.431049	0.172879
538.646363	0.173168
538.861659	0.173541
539.076937	0.174275
539.292196	0.175308
539.507438	0.175223
539.722661	0.174985
539.937866	0.175387
540.153052	0.175868
540.368221	0.176195
540.583371	0.176882
540.798503	0.176717
541.013617	0.176734
541.228712	0.176412
541.443789	0.176729
541.658848	0.177521
541.873889	0.177928
542.088912	0.178299
542.303916	0.179106
542.518902	0.179230
542.733870	0.179637
542.948820	0.179780
543.163752	0.180281
543.378665	0.180621
543.593560	0.180767
543.808437	0.180503
544.023295	0.180836
544.238136	0.180118
544.452958	0.179970
544.667762	0.179592
544.882548	0.180309
545.097315	0.180049
545.312064	0.180443
545.526795	0.180504
545.741508	0.180865
545.956203	0.181071
546.170879	0.181520
546.385537	0.182891
546.600177	0.183283
546.814799	0.182955
547.029402	0.183896
547.243988	0.184713
547.458555	0.185019
547.673103	0.185653
547.887634	0.185739
548.102146	0.185932
548.316640	0.185515
548.531116	0.186384
548.745574	0.186803
548.960013	0.186795
549.174435	0.186839
549.388838	0.187164
549.603222	0.187677
549.817589	0.188043
550.031937	0.188194
550.246267	0.188434
550.460579	0.188673
550.674873	0.188957
550.889148	0.189114
551.103405	0.188899
551.317644	0.189082
551.531865	0.189339
551.746068	0.189460
551.960252	0.189572
552.174418	0.189207
552.388566	0.188905
552.602696	0.189137
552.816807	0.189200
553.030900	0.189484
553.244975	0.189671
553.459032	0.189358
553.673070	0.189553
553.887091	0.189865
554.101093	0.190728
554.315077	0.191371
554.529042	0.191240
554.742990	0.191982
554.956919	0.191910
555.170830	0.191949
555.384722	0.192567
555.598597	0.192268
555.812453	0.193030
556.026291	0.193083
556.240111	0.192780
556.453913	0.192711
556.667696	0.192836
556.881461	0.193359
557.095208	0.193549
557.308937	0.193443
557.522647	0.193685
557.736339	0.193497
557.950013	0.193363
558.163669	0.193498
558.377307	0.194057
558.590926	0.193941
558.804527	0.194172
559.018110	0.194619
559.231675	0.194271
559.445221	0.194617
559.658749	0.194586
559.872259	0.194991
560.085751	0.195069
560.299225	0.195336
560.512680	0.195552
560.726117	0.195472
560.939536	0.195639
561.152937	0.196738
561.366319	0.196962
561.579683	0.197325
561.793029	0.197466
562.006357	0.198093
562.219667	0.198335
562.432958	0.198985
562.646231	0.198800
562.859486	0.199063
563.072723	0.199008
563.285941	0.199339
563.499141	0.199093
563.712323	0.199346
563.925487	0.199772
564.138632	0.199797
564.351760	0.199567
564.564869	0.200428
564.777960	0.200471
564.991032	0.200649
565.204087	0.200680
565.417123	0.201411
565.630141	0.201407
565.843140	0.201369
566.056122	0.202081
566.269085	0.202380
566.482030	0.202218
566.694957	0.202339
566.907866	0.202012
567.120756	0.202251
567.333628	0.202414
567.546482	0.202120
567.759318	0.202120
567.972135	0.202008
568.184935	0.202190
568.397716	0.202467
568.610478	0.202725
568.823223	0.203338
569.035949	0.203356
569.248657	0.203358
569.461347	0.203993
569.674019	0.204544
569.886672	0.205024
570.099308	0.205196
570.311925	0.205461
570.524523	0.205684
570.737104	0.205338
570.949666	0.205361
571.162210	0.205329
571.374736	0.205375
571.587244	0.204933
571.799733	0.204392
572.012205	0.204067
572.224658	0.203902
572.437092	0.203639
572.649509	0.204178
572.861907	0.204646
573.074287	0.204665
573.286649	0.204892
573.498993	0.205409
573.711318	0.205791
573.923625	0.206347
574.135914	0.206662
574.348185	0.206559
574.560438	0.206719
574.772672	0.207014
574.984888	0.207191
575.197086	0.207382
575.409266	0.207518
575.621427	0.207710
575.833570	0.207274
576.045695	0.207436
576.257802	0.208053
576.469890	0.208023
576.681961	0.207765
576.894013	0.207723
577.106046	0.207814
577.318062	0.207985
577.530059	0.208290
577.742039	0.209067
577.954000	0.209105
578.165942	0.209325
578.377867	0.209587
578.589773	0.209843
578.801661	0.210226
579.013531	0.210105
579.225382	0.210253
579.437216	0.210096
579.649031	0.209983
579.860828	0.210389
580.072606	0.210373
580.284367	0.210339
580.496109	0.210561
580.707833	0.210805
580.919539	0.211335
581.131227	0.211502
581.342896	0.211737
581.554547	0.211805
581.766180	0.211599
581.977795	0.211409
582.189391	0.211688
582.400969	0.212069
582.612529	0.211901
582.824071	0.212176
583.035595	0.212192
583.247100	0.212467
583.458587	0.212893
583.670056	0.213115
583.881506	0.213709
584.092939	0.214010
584.304353	0.213921
584.515749	0.214285
584.727127	0.214336
584.938486	0.214286
585.149828	0.214411
585.361151	0.214310
585.572456	0.214757
585.783742	0.214951
585.995011	0.215313
586.206261	0.215711
586.417493	0.215965
586.628706	0.215931
586.839902	0.216517
587.051079	0.216784
587.262238	0.216997
587.473379	0.217053
587.684502	0.216586
587.895606	0.216253
588.106692	0.216402
588.317760	0.216823
588.528810	0.217362
588.739841	0.217514
588.950855	0.217656
589.161850	0.218141
589.372827	0.218358
589.583785	0.218870
589.794726	0.219127
590.005648	0.218948
590.216552	0.218993
590.427437	0.218798
590.638305	0.218537
590.849154	0.218266
591.059985	0.218143
591.270798	0.218432
591.481592	0.218964
591.692369	0.218856
591.903127	0.219123
592.113867	0.218922
592.324588	0.219259
592.535292	0.219365
592.745977	0.219649
592.956644	0.219511
593.167293	0.219334
593.377923	0.219061
593.588536	0.219375
593.799130	0.219583
594.009706	0.220121
594.220263	0.220208
594.430803	0.220345
594.641324	0.220731
594.851827	0.221041
595.062312	0.221382
595.272778	0.221913
595.483227	0.222331
595.693657	0.222334
595.904069	0.222091
596.114462	0.222418
596.324838	0.222784
596.535195	0.222570
596.745534	0.222949
596.955855	0.222726
597.166157	0.222639
597.376441	0.222893
597.586707	0.223160
597.796955	0.223510
598.007185	0.223290
598.217396	0.223370
598.427589	0.223643
598.637764	0.223423
598.847921	0.223880
599.058060	0.223875
599.268180	0.223931
599.478282	0.224145
599.688366	0.224160
599.898431	0.224419
600.108479	0.224729
600.318508	0.225008
600.528519	0.225503
600.738511	0.225584
600.948486	0.225899
601.158442	0.226055
601.368380	0.226140
601.578300	0.226727
601.788202	0.226743
601.998085	0.226937
602.207950	0.227089
602.417797	0.226841
602.627626	0.226649
602.837436	0.226891
603.047228	0.226541
603.257002	0.226845
603.466758	0.226545
603.676496	0.226900
603.886215	0.226657
604.095916	0.226614
604.305599	0.226945
604.515264	0.227413
604.724910	0.227150
604.934538	0.227730
605.144148	0.227635
605.353740	0.227835
605.563314	0.227907
605.772869	0.227960
605.982406	0.228097
606.191925	0.228394
606.401425	0.228294
606.610908	0.228583
606.820372	0.228393
607.029818	0.228340
607.239246	0.228295
607.448655	0.228251
607.658047	0.228395
607.867420	0.228321
608.076775	0.227966
608.286111	0.228025
608.495430	0.228597
608.704730	0.228852
608.914012	0.229114
609.123275	0.229119
609.332521	0.229411
609.541748	0.229582
609.750957	0.229861
609.960148	0.230252
610.169321	0.230382
610.378475	0.230335
610.587611	0.230598
610.796729	0.230798
611.005829	0.231096
611.214910	0.231029
611.423974	0.231381
611.633019	0.231283
611.842045	0.231349
612.051054	0.231488
612.260044	0.231322
612.469017	0.231390
612.677970	0.231440
612.886906	0.231662
613.095824	0.231757
613.304723	0.231892
613.513604	0.232409
613.722467	0.232469
613.931311	0.232927
614.140138	0.233150
614.348946	0.233248
614.557736	0.233438
614.766507	0.233802
614.975261	0.233934
615.183996	0.233915
615.392713	0.233917
615.601412	0.234464
615.810092	0.234297
616.018754	0.234414
616.227399	0.234462
616.436024	0.234746
616.644632	0.234572
616.853222	0.234754
617.061793	0.235191
617.270346	0.235121
617.478880	0.235145
617.687397	0.235131
617.895895	0.235126
618.104375	0.235145
618.312837	0.235044
618.521281	0.235227
618.729706	0.235610
618.938113	0.235349
619.146502	0.235392
619.354873	0.235419
619.563226	0.235874
619.771560	0.236329
619.979876	0.236539
620.188174	0.236565
620.396453	0.236693
620.604715	0.236611
620.812958	0.236902
621.021183	0.237388
621.229390	0.237240
621.437578	0.237104
621.645748	0.236951
621.853900	0.237119
622.062034	0.237223
622.270150	0.237621
622.478247	0.237533
622.686326	0.237880
622.894387	0.237927
623.102430	0.238349
623.310454	0.238475
623.518461	0.238769
623.726449	0.238730
623.934418	0.238945
624.142370	0.238618
624.350303	0.238876
624.558218	0.238830
624.766115	0.238962
624.973994	0.238865
625.181855	0.239020
625.389697	0.239048
625.597521	0.239026
625.805327	0.239061
626.013114	0.239352
626.220883	0.239600
626.428634	0.239547
626.636367	0.239684
626.844082	0.239821
627.051778	0.239998
627.259457	0.240004
627.467117	0.240391
627.674758	0.240699
627.882382	0.240678
628.089987	0.240712
628.297574	0.240875
628.505143	0.240891
628.712694	0.241134
628.920226	0.241448
629.127740	0.241675
629.335236	0.242037
629.542714	0.242003
629.750174	0.242408
629.957615	0.242534
630.165038	0.242967
630.372443	0.243137
630.579829	0.243264
630.787198	0.243471
630.994548	0.243340
631.201880	0.243235
631.409194	0.243394
631.616489	0.243574
631.823766	0.243665
632.031025	0.243511
632.238266	0.243748
632.445489	0.243944
632.652693	0.243812
632.859879	0.244107
633.067047	0.244181
633.274197	0.244422
633.481329	0.244404
633.688442	0.244562
633.895537	0.244745
634.102614	0.244937
634.309672	0.244951
634.516713	0.245161
634.723735	0.245510
634.930739	0.245753
635.137724	0.245730
635.344692	0.246185
635.551641	0.246429
635.758572	0.246737
635.965485	0.246821
636.172379	0.247038
636.379256	0.247106
636.586114	0.247197
636.792954	0.247385
636.999775	0.247519
637.206579	0.247216
637.413364	0.247509
637.620131	0.247589
637.826880	0.247707
638.033610	0.247981
638.240323	0.248046
638.447017	0.247886
638.653692	0.248153
638.860350	0.248297
639.066990	0.248684
639.273611	0.248366
639.480214	0.248270
639.686798	0.248454
639.893365	0.248360
640.099913	0.248646
640.306443	0.248991
640.512955	0.249009
640.719449	0.249084
640.925924	0.249200
641.132381	0.249676
641.338820	0.249951
641.545241	0.249650
641.751644	0.249834
641.958028	0.249953
642.164394	0.250108
642.370742	0.250317
642.577071	0.250636
642.783383	0.250661
642.989676	0.250834
643.195951	0.251001
643.402207	0.251492
643.608446	0.251597
643.814666	0.251867
644.020868	0.251939
644.227052	0.251795
644.433218	0.251934
644.639365	0.251995
644.845494	0.251731
645.051605	0.251733
645.257698	0.251964
645.463772	0.252225
645.669828	0.252309
645.875866	0.252650
646.081886	0.253290
646.287888	0.253322
646.493871	0.253567
646.699836	0.254052
646.905783	0.254294
647.111712	0.254330
647.317622	0.254478
647.523514	0.254875
647.729388	0.254931
647.935244	0.254678
648.141082	0.254988
648.346901	0.255331
648.552702	0.255629
648.758485	0.255951
648.964250	0.256460
649.169996	0.256656
649.375724	0.256513
649.581434	0.256823
649.787126	0.257218
649.992800	0.257133
650.198455	0.257289
650.404092	0.257344
650.609711	0.257433
650.815311	0.257205
651.020894	0.257227
651.226458	0.257647
651.432004	0.257917
651.637532	0.258012
651.843041	0.258087
652.048532	0.258077
652.254006	0.258096
652.459460	0.257998
652.664897	0.258294
652.870315	0.258508
653.075716	0.258565
653.281097	0.258434
653.486461	0.258606
653.691807	0.259036
653.897134	0.259394
654.102443	0.259660
654.307734	0.259910
654.513006	0.259999
654.718261	0.260298
654.923497	0.260334
655.128715	0.260437
655.333915	0.260442
655.539096	0.260582
655.744259	0.260510
655.949404	0.260511
656.154531	0.260715
656.359640	0.260747
656.564730	0.260911
656.769802	0.261031
656.974856	0.261259
657.179892	0.261777
657.384909	0.262052
657.589908	0.262244
657.794889	0.262616
657.999852	0.262683
658.204797	0.263055
658.409723	0.263294
658.614631	0.263422
658.819521	0.263778
659.024393	0.263767
659.229246	0.264007
659.434081	0.264321
659.638898	0.264481
659.843697	0.264875
660.048478	0.265299
660.253240	0.265172
660.457984	0.265556
660.662710	0.265770
660.867417	0.266030
661.072107	0.266134
661.276778	0.266223
661.481431	0.266331
661.686066	0.266432
661.890682	0.266472
662.095281	0.266850
662.299861	0.266904
662.504422	0.267011
662.708966	0.267050
662.913491	0.267115
663.117999	0.267136
663.322488	0.267027
663.526958	0.267329
663.731411	0.267348
663.935845	0.267487
664.140261	0.267740
664.344659	0.267781
664.549038	0.267964
664.753400	0.267996
664.957743	0.268392
665.162068	0.268742
665.366375	0.268817
665.570663	0.268752
665.774933	0.268821
665.979185	0.268806
666.183419	0.269059
666.387635	0.269289
666.591832	0.269479
666.796011	0.269500
667.000172	0.269620
667.204315	0.269810
667.408439	0.270434
667.612545	0.270799
667.816634	0.271187
668.020703	0.271236
668.224755	0.271346
668.428788	0.271761
668.632803	0.272071
668.836800	0.272507
669.040779	0.272661
669.244739	0.272627
669.448681	0.272852
669.652605	0.273021
669.856511	0.273257
670.060399	0.273501
670.264268	0.273609
670.468119	0.273635
670.671952	0.273933
670.875767	0.274241
671.079563	0.274402
671.283341	0.274398
671.487101	0.274631
671.690843	0.274977
671.894567	0.275160
672.098272	0.275423
672.301959	0.275663
672.505628	0.275800
672.709278	0.275881
672.912911	0.276093
673.116525	0.276393
673.320121	0.276471
673.523699	0.276557
673.727258	0.276702
673.930799	0.276751
674.134322	0.277176
674.337827	0.277296
674.541314	0.277541
674.744782	0.277727
674.948232	0.277950
675.151664	0.278051
675.355078	0.278274
675.558474	0.278579
675.761851	0.278793
675.965210	0.278865
676.168551	0.278912
676.371873	0.279055
676.575178	0.279310
676.778464	0.279486
676.981732	0.279982
677.184981	0.279934
677.388213	0.279981
677.591426	0.280432
677.794621	0.280758
677.997798	0.281025
678.200956	0.281206
678.404097	0.281428
678.607219	0.281566
678.810323	0.281623
679.013408	0.281866
679.216476	0.282323
679.419525	0.282394
679.622556	0.282580
679.825569	0.282956
680.028563	0.283004
680.231540	0.283212
680.434498	0.283382
680.637438	0.283408
680.840359	0.283636
681.043263	0.283870
681.246148	0.284072
681.449015	0.284363
681.651864	0.284322
681.854694	0.284687
682.057506	0.284823
682.260301	0.285162
682.463076	0.285502
682.665834	0.285901
682.868573	0.285697
683.071295	0.285803
683.273998	0.285854
683.476682	0.286128
683.679349	0.286326
683.881997	0.286515
684.084627	0.286554
684.287239	0.286702
684.489833	0.286800
684.692408	0.287133
684.894965	0.287269
685.097504	0.287637
685.300025	0.287857
685.502527	0.288123
685.705012	0.288304
685.907478	0.288708
686.109925	0.288935
686.312355	0.289137
686.514766	0.289219
686.717159	0.289398
686.919534	0.289273
687.121891	0.289361
687.324230	0.289406
687.526550	0.289665
687.728852	0.289456
687.931136	0.289514
688.133401	0.289583
688.335649	0.289833
688.537878	0.290017
688.740089	0.290393
688.942281	0.290534
689.144456	0.290571
689.346612	0.290722
689.548750	0.290904
689.750870	0.291188
689.952971	0.291447
690.155055	0.291621
690.357120	0.291908
690.559167	0.291972
690.761195	0.292180
690.963206	0.292461
691.165198	0.292652
691.367172	0.293034
691.569128	0.293010
691.771065	0.293119
691.972984	0.293230
692.174885	0.293324
692.376768	0.293245
692.578633	0.293323
692.780479	0.293469
692.982308	0.293457
693.184118	0.293424
693.385909	0.293645
