sample name	sample
index	136
start time	 02-15-2021  01:36:22 PM
880	0.477353
Peak Time (s)	91.538
Peak Height 	0.4774
calc peak height	90,93
Baseline Time (s)	11.536
Baseline Value 	7.7899E-4
subtract baseline	10,4
Abs	0.341280
Peak Time (s)	92.035
Peak Height 	0.3413
calc peak height	90,93
Baseline Time (s)	8.537
Baseline Value 	-0.002155
subtract baseline	10,3
PK_550	0.166140
Peak Time (s)	91.538
Peak Height 	0.1661
calc peak height	90,93
Baseline Time (s)	9.537
Baseline Value 	0.001959
subtract baseline	10,2
PK_880	0.320740
Peak Time (s)	91.538
Peak Height 	0.3207
calc peak height	90,93
Baseline Time (s)	11.536
Baseline Value 	-3.9123E-4
subtract baseline	10,1


Time (s)	A880-A510	A880-A775	A880-A975	A880	I510	I775	I975	I880	
0.034000	0.000736	-0.003155	-0.004962	0.003663	4218.630643	15085.564758	3256.982950	8669.060003
0.534500	0.000638	-0.002353	-0.002782	0.000540	4226.859078	15194.407276	3260.275703	8709.809390
1.038000	0.000511	-0.000357	0.019150	0.002431	4221.361794	15197.305618	3273.089116	8685.093371
1.537000	0.001086	-0.000795	0.010105	0.000020	4229.505345	15252.435446	3268.781767	8716.620454
2.038000	0.001012	-0.000937	-0.012198	0.004244	4217.805473	15130.838350	3252.201516	8661.511541
2.536000	-0.001878	-0.001220	-0.004968	-0.000637	4223.210016	15258.929181	3259.646092	8725.243547
3.036500	0.007095	-0.000870	-0.002584	-0.003198	4255.014830	15340.700936	3262.745689	8758.965075
3.536000	-0.002195	0.000050	-0.016317	-0.000221	4221.216138	15282.853584	3252.411282	8719.776423
4.036500	-0.001556	-0.001376	-0.003655	-0.001079	4225.291891	15266.928293	3260.741903	8731.044206
4.534000	0.000029	-0.001007	0.000483	-0.000938	4229.233549	15273.336316	3263.255097	8729.196923
5.034500	0.004188	-0.001112	0.013703	-0.000626	4239.802066	15261.641780	3271.530272	8725.100724
5.537000	-0.001292	0.000757	0.001240	0.000366	4222.075796	15286.203468	3262.909255	8712.080776
6.035000	0.003335	-0.000591	0.005050	0.000011	4235.695087	15258.382113	3265.549417	8716.733407
6.535500	0.002523	0.000075	0.005452	-0.000017	4233.543152	15277.855135	3265.823494	8717.107460
7.036000	0.002647	-0.001191	-0.015025	-0.001029	4236.666161	15270.712085	3253.688682	8730.386492
7.535500	-0.001258	-0.000653	-0.015138	-0.000246	4223.831328	15263.837762	3253.142540	8720.103581
8.036500	0.002087	0.000922	0.008247	0.001247	4228.886109	15266.164591	3266.801271	8700.560378
8.537000	-0.002581	-0.001731	0.000000	-0.001605	4223.930490	15271.729572	3263.371169	8737.962901
9.036000	-0.001957	0.000614	-0.006770	0.000265	4220.542405	15285.030321	3257.965684	8713.407150
9.537000	0.005503	0.000000	0.014557	0.000365	4240.694284	15265.016145	3271.440261	8712.094042
10.034500	0.002368	-0.001052	0.006853	-0.001015	4235.859963	15274.231983	3267.357327	8730.207152
10.538000	0.002215	0.000593	-0.000773	0.000928	4230.109610	15265.885097	3261.290300	8704.733702
11.035500	-0.000284	-0.000097	0.001632	-0.000040	4225.925752	15273.657302	3263.413394	8717.403663
11.535500	0.000000	0.000678	-0.009190	0.000000	4226.591679	15294.279612	3256.634026	8716.881676
12.035500	0.000424	-0.001569	-0.003711	-0.001103	4230.768472	15262.217706	3260.722142	8731.366400
12.535500	-0.000724	-0.001103	-0.003144	-0.000901	4227.076326	15269.606211	3260.950775	8728.707122
13.036500	0.004146	0.000147	-0.013393	-0.003212	4246.840251	15369.786112	3256.023885	8759.141107
13.536500	-0.006088	-0.000981	-0.005891	0.003530	4200.633911	15149.405030	3256.491583	8670.788078
14.036500	0.001733	-0.001566	0.011612	-0.000646	4233.100353	15249.490704	3270.185395	8725.356080
14.537000	-0.000152	-0.000831	0.008727	0.001416	4222.320615	15212.419601	3267.000675	8698.353721
15.040500	0.000999	0.000375	0.002260	-0.000381	4230.362236	15296.473305	3264.026101	8721.875359
15.551000	-0.005372	0.000585	-0.011455	0.005298	4197.828302	15143.815641	3252.012852	8647.841700
16.041000	0.002830	0.000087	-0.016775	0.002961	4226.236729	15194.948961	3250.213049	8678.199851
16.535500	0.001028	-0.000921	-0.009921	-0.002027	4234.959741	15306.325420	3257.434570	8743.524479
17.036000	0.000386	-0.001671	-0.013152	-0.002210	4233.695972	15290.378266	3255.556410	8745.929004
17.536500	-0.000736	-0.000605	0.006354	0.004388	4212.690068	15136.036331	3263.598821	8659.638809
18.036500	0.002937	-0.000118	-0.000322	0.000773	4232.509823	15250.286266	3261.670621	8706.754581
18.537000	-0.001095	-0.001148	0.002482	-0.000894	4226.043591	15268.125518	3264.492526	8728.613270
19.037000	0.000299	-0.000469	0.015807	-0.000378	4228.441828	15272.707692	3272.740280	8721.845939
19.534500	-0.001000	-0.000738	0.000751	0.000906	4221.400778	15229.242079	3262.261535	8705.014477
20.034500	0.000625	-0.000504	0.010694	-0.000911	4230.790656	15286.665886	3269.762848	8728.835747
20.535000	0.003085	-0.000443	0.000530	0.000350	4234.079826	15253.032612	3262.472507	8712.297777
21.035500	-0.001578	-0.001671	0.005263	-0.001114	4225.325538	15259.642950	3266.402996	8731.498844
21.535500	0.002143	-0.000792	-0.012016	0.000519	4231.030139	15238.555732	3254.580355	8710.077738
22.035500	0.000554	-0.000983	-0.012558	-0.000351	4229.063584	15257.562930	3254.781343	8721.486176
22.536500	0.002842	0.000743	0.013718	0.000739	4232.344700	15275.354043	3270.652869	8707.198298
23.037000	0.000124	-0.000345	-0.005681	0.000060	4226.766190	15263.895550	3258.768775	8716.094466
23.536500	-0.001575	0.000387	0.004666	0.000089	4222.060035	15283.609156	3265.255491	8715.714937
24.037000	0.003292	0.001278	0.008075	0.001417	4231.719782	15271.360118	3266.582862	8698.340905
24.537500	0.007083	-0.000903	0.007453	-0.000578	4247.681035	15266.147452	3267.461539	8724.462263
25.035000	0.005907	-0.000157	0.006813	0.000067	4242.635938	15268.978759	3266.639289	8716.008435
25.535000	0.004319	-0.000965	-0.002501	-0.000986	4241.159020	15275.861121	3261.407353	8729.828525
26.035500	0.002770	-0.000784	0.012338	-0.000989	4236.894231	15280.993659	3270.878490	8729.862970
26.535500	-0.002491	-0.000987	0.011719	-0.000567	4221.352308	15263.486178	3270.203504	8724.316041
27.036500	0.000928	0.000617	-0.006612	-0.000034	4229.221493	15293.546270	3258.249608	8717.333695
27.536500	0.002570	-0.001875	0.010002	-0.001628	4238.104738	15268.358741	3269.779373	8738.271499
28.036500	0.004377	0.001356	0.008134	-0.002462	4245.403404	15382.786053	3269.111668	8749.253513
28.541500	0.001895	0.000489	0.013223	-0.001749	4236.577769	15338.170620	3271.948153	8739.853619
29.037500	0.007815	-0.000260	0.007351	-0.001100	4251.169271	15298.817053	3267.731038	8731.317428
29.535000	0.004434	0.000168	0.003844	-0.002505	4245.678016	15350.442730	3266.385266	8749.817315
30.035000	0.003046	-0.000309	-0.004865	-0.001825	4239.956171	15317.817440	3260.451593	8740.852507
30.535500	0.001215	0.000384	0.013714	-0.001749	4234.707165	15335.186657	3272.268295	8739.851572
31.036000	0.005779	-0.000863	0.010073	-0.002389	4249.091942	15318.106639	3270.317699	8748.286993
31.546000	0.001253	0.000143	-0.004884	0.003153	4221.417675	15191.137337	3257.345764	8675.689414
32.038500	-0.003641	-0.001083	0.013090	0.000855	4214.386507	15221.019870	3270.170367	8705.678325
32.536500	0.004661	-0.000539	0.008065	-0.000564	4240.936731	15275.959065	3267.845768	8724.283947
33.072000	0.008856	0.000569	0.001537	-0.000818	4253.287313	15314.198573	3263.845632	8727.615376
33.537000	-0.002505	-0.001261	-0.014083	0.003258	4210.970703	15149.196820	3251.657853	8674.333108
34.037000	-0.002104	-0.000411	-0.001358	0.002671	4213.631200	15189.127667	3259.833860	8681.965585
34.535000	0.000908	0.000948	-0.000719	-0.000658	4230.873218	15320.372457	3262.320217	8725.511445
35.035500	-0.002038	0.001591	0.004941	0.000724	4219.077839	15299.597876	3265.026565	8707.397372
35.535500	0.001460	0.000254	-0.001436	0.001314	4226.990553	15245.573263	3260.633044	8699.679346
36.035500	0.005269	0.000460	0.007548	0.000683	4239.170873	15269.006005	3266.714720	8707.934221
36.536000	0.002338	0.000179	-0.003957	0.000710	4231.044764	15260.391381	3259.437083	8707.587061
37.041500	0.001651	0.000385	0.016104	0.000283	4230.330565	15278.115440	3272.502334	8713.178418
37.537000	-0.001993	0.000145	0.001806	0.000270	4220.432075	15271.750117	3263.327515	8713.338144
38.037000	0.002651	0.001124	0.003234	0.002013	4228.332981	15250.330743	3263.128042	8690.546114
38.534500	0.004656	0.000815	0.004023	0.000602	4237.704529	15281.216829	3264.520997	8708.992400
39.034500	-0.000622	-0.001024	0.012628	0.000141	4224.510447	15242.621545	3270.333932	8715.033882
39.535000	0.000956	0.000155	-0.009859	-0.000004	4229.213736	15279.714529	3256.225010	8716.936843
40.035500	0.001610	-0.000410	0.013924	0.000580	4229.405342	15247.515806	3270.889318	8709.281683
40.535500	0.003034	0.000067	-0.005276	0.000683	4233.024017	15257.993304	3258.633234	8707.936238
41.036000	0.000684	-0.000927	0.012813	0.000273	4227.714041	15241.658751	3270.368187	8713.308158
41.536000	0.001272	0.000069	0.016504	0.000822	4227.818985	15254.157510	3272.411273	8706.109019
42.036500	0.004632	0.000728	0.000752	0.000824	4237.028473	15272.577906	3262.313830	8706.089076
42.537000	-0.000275	-0.000484	0.004873	-0.000458	4227.092285	15274.528946	3265.736186	8722.895693
43.037500	0.001612	-0.001739	-0.004769	-0.000149	4231.407323	15230.779022	3259.466380	8718.841638
43.537500	0.001404	0.000086	-0.008595	-0.000168	4230.888287	15282.373643	3257.104892	8719.078764
44.035000	-0.000477	0.000156	0.024917	0.000791	4223.135706	15257.453542	3277.976863	8706.520221
44.535500	0.001851	-0.001459	0.005037	-0.000862	4234.019004	15258.518656	3266.097727	8728.195148
45.034500	0.002562	-0.000020	0.011809	-0.004730	4246.658823	15408.064255	3272.971460	8779.236679
45.535000	-0.000123	-0.001907	0.001974	0.002260	4220.108203	15158.967929	3262.178892	8687.331067
46.036000	0.000783	-0.001217	0.014936	-0.003157	4237.392465	15329.777774	3273.989878	8758.426782
46.536000	0.002278	0.000052	0.004776	-0.001191	4236.094851	15310.155868	3266.141312	8732.515299
47.037000	0.001359	-0.000383	-0.003293	-0.001733	4235.059744	15313.169274	3261.378727	8739.650604
47.537000	0.001931	-0.000607	0.002002	0.004608	4219.309713	15129.889674	3260.723347	8656.787498
48.040000	0.006849	0.002600	0.006572	-0.000436	4246.640048	15360.695556	3266.806383	8722.602889
48.556000	-0.000790	-0.000758	0.006155	-0.002248	4230.575137	15317.088712	3267.699933	8746.425634
49.035500	0.001856	-0.000556	0.007227	0.000005	4231.651401	15259.531401	3266.943198	8716.809662
49.535500	0.005081	-0.000332	-0.003181	0.004633	4227.815526	15136.821749	3257.483853	8656.463349
50.055000	0.005037	0.001414	0.006651	-0.000019	4240.470760	15315.509196	3266.590454	8717.135284
50.536500	0.005182	-0.001306	-0.005215	-0.003109	4249.435726	15325.930554	3261.036276	8757.792019
51.036000	-0.000670	-0.001121	0.008049	-0.002466	4231.501644	15313.043388	3269.059235	8749.303959
51.536500	0.000465	-0.001630	-0.005267	0.000948	4225.274005	15203.162967	3258.473955	8704.461925
52.037000	0.001556	-0.001293	0.004719	-0.003701	4241.024481	15342.955401	3267.711432	8765.610006
52.537000	-0.026628	-0.020211	0.019148	0.124543	3878.216883	11823.482516	3203.447007	7297.353385
53.037500	-0.006815	-0.012338	0.011749	0.190050	3794.654295	10739.029767	3170.300396	6698.925434
53.534500	0.022517	-0.002537	0.019546	-0.036177	4398.082438	16256.021867	3299.787932	9211.478786
54.035500	0.033328	-0.002556	0.023288	-0.049008	4473.980984	16649.971206	3311.878487	9397.034360
54.535500	0.018101	-0.007063	0.033849	-0.026158	4353.733362	15822.629843	3302.869041	9070.350347
55.036000	0.031209	-0.001601	0.042756	-0.019420	4373.124203	15785.323686	3304.441261	8977.266027
55.536500	0.045595	0.004273	0.061015	0.006018	4339.662773	15226.445013	3299.268764	8638.532258
56.036500	0.073895	0.016362	0.089038	0.041769	4317.581840	14583.290801	3293.796111	8194.792491
56.536000	0.093560	0.024056	0.097736	0.083813	4253.490777	13709.843700	3271.266178	7717.606617
57.037000	0.122189	0.038671	0.131380	0.127625	4211.850618	13019.830668	3264.733174	7267.132642
57.539500	0.144076	0.051183	0.159209	0.169450	4159.335511	12372.221908	3255.987288	6877.480102
58.034500	0.161415	0.061069	0.173297	0.198242	4130.240850	11977.142397	3247.097908	6630.246517
58.535000	0.182216	0.072965	0.214454	0.234817	4091.406004	11486.629334	3249.835586	6338.910404
59.035000	0.203476	0.084608	0.199835	0.269548	4059.338683	11052.293999	3221.814065	6084.076199
59.535500	0.210956	0.090338	0.200739	0.308581	3988.010073	10465.087443	3202.242026	5820.971805
60.035500	0.222091	0.104165	0.235988	0.314462	3999.531086	10601.134209	3217.163730	5783.343980
60.536000	0.236308	0.113666	0.243366	0.332057	3992.109344	10462.593473	3211.857948	5673.756853
61.036500	0.247653	0.118904	0.247574	0.362943	3950.284299	10040.233304	3198.577817	5491.802353
61.537000	0.259976	0.124565	0.276821	0.391340	3917.261814	9686.120219	3198.988417	5335.552021
62.040000	0.269429	0.128615	0.288955	0.401362	3916.115735	9596.145885	3200.012240	5282.802693
62.534500	0.281364	0.135515	0.297033	0.412679	3917.360137	9530.378030	3198.443481	5224.678557
63.035000	0.282025	0.137248	0.271425	0.411633	3920.812206	9571.685236	3186.925351	5229.991217
63.534500	0.290558	0.141887	0.294979	0.412474	3936.523847	9628.547803	3197.553976	5225.719497
64.035500	0.288064	0.144702	0.293965	0.396048	3965.701366	9924.394496	3205.088873	5310.617437
64.535000	0.288520	0.145558	0.294757	0.389683	3980.331357	10038.846728	3208.680441	5344.389892
65.036000	0.292891	0.148922	0.286570	0.393025	3982.557455	10039.202688	3202.924156	5326.596356
65.550000	0.297870	0.151931	0.291640	0.398002	3982.562149	10007.822488	3202.970065	5300.350588
66.036500	0.294694	0.146307	0.287909	0.393864	3984.651089	9984.219529	3203.170743	5322.152636
66.534500	0.298278	0.152710	0.301841	0.401217	3976.498052	9969.159216	3206.440361	5283.553174
67.036500	0.296608	0.156269	0.293753	0.404789	3965.281938	9968.965507	3200.679274	5265.041074
67.537500	0.296329	0.154282	0.309249	0.404876	3964.503557	9936.227351	3208.326112	5264.591699
68.037500	0.296723	0.153888	0.303375	0.406444	3962.012432	9905.403466	3204.599159	5256.516255
68.535000	0.298306	0.152974	0.317543	0.408375	3961.275209	9860.957132	3210.761689	5246.606824
69.035500	0.302191	0.155846	0.306719	0.414432	3956.686251	9811.539175	3202.305373	5215.811991
69.535500	0.299863	0.157707	0.288540	0.423551	3932.880567	9700.272817	3189.308477	5170.255151
70.036000	0.303215	0.157511	0.307381	0.421802	3943.410743	9723.917818	3199.035669	5178.917379
70.536500	0.311146	0.160124	0.327483	0.427502	3948.054446	9676.978247	3206.118722	5150.806761
71.036000	0.306976	0.159362	0.321812	0.428214	3937.920822	9654.681554	3202.950304	5147.323153
71.534000	0.306285	0.157252	0.298602	0.429448	3933.956040	9604.388730	3191.238864	5141.296321
72.034500	0.305180	0.160661	0.310598	0.434122	3922.159377	9585.467904	3194.678210	5118.624010
72.535000	0.308754	0.158999	0.312839	0.434156	3929.367972	9560.172983	3195.725925	5118.459320
73.035000	0.305115	0.155543	0.320549	0.434060	3922.153053	9510.372753	3199.476100	5118.920785
73.535500	0.307172	0.157708	0.295893	0.442177	3909.949906	9423.078279	3184.174367	5080.116414
74.035500	0.301631	0.157348	0.337325	0.437659	3907.907361	9483.942278	3205.961319	5101.628576
74.536500	0.301012	0.159548	0.332043	0.439725	3902.567790	9485.910273	3202.321072	5091.764986
75.036000	0.304299	0.159457	0.328199	0.443035	3902.523026	9436.085196	3198.834991	5076.059861
75.536500	0.301665	0.158203	0.315510	0.448737	3886.151189	9335.351104	3190.132759	5049.279230
76.036500	0.301015	0.159723	0.327389	0.445650	3890.905320	9401.897786	3197.186583	5063.736099
76.536000	0.305875	0.163554	0.325028	0.450357	3891.203599	9389.174721	3193.824631	5041.735579
77.034500	0.294846	0.157630	0.315286	0.446944	3876.433090	9352.910825	3190.860574	5057.661768
77.535000	0.304305	0.160579	0.311620	0.452049	3884.847102	9321.942121	3186.824376	5033.889799
78.035000	0.306635	0.159186	0.300231	0.451999	3889.479985	9302.703860	3181.724900	5034.119164
78.535500	0.312842	0.162971	0.320536	0.455339	3895.097133	9309.080499	3189.404496	5018.716077
79.036000	0.303705	0.158768	0.321370	0.453733	3880.423317	9272.054055	3190.533599	5026.109656
79.535500	0.308967	0.160159	0.310837	0.457560	3883.200171	9237.510594	3183.977597	5008.535770
80.036000	0.309565	0.162386	0.330855	0.458301	3882.922199	9258.544730	3192.828590	5005.150436
80.535500	0.306791	0.158277	0.320329	0.454189	3885.518465	9258.598197	3189.839746	5024.006688
81.039500	0.304614	0.159856	0.307815	0.457403	3875.106868	9235.453389	3182.695464	5009.254968
81.537500	0.310211	0.162497	0.314322	0.463235	3874.655572	9190.517666	3182.996515	4982.763200
82.037500	0.307155	0.160685	0.324529	0.459776	3875.427974	9213.653410	3189.199463	4998.430664
82.534000	0.313825	0.163481	0.317203	0.463082	3881.914019	9206.479378	3184.356868	4983.451534
83.035500	0.309634	0.163080	0.326974	0.464129	3871.837561	9186.145003	3188.321388	4978.730652
83.536000	0.310454	0.162648	0.327249	0.470771	3860.781135	9087.779361	3185.420214	4949.053915
84.036000	0.309147	0.161270	0.327222	0.463399	3872.302593	9171.026608	3188.770685	4982.020539
84.536500	0.313843	0.163440	0.339163	0.466159	3876.013316	9162.771642	3193.039562	4969.610625
85.035500	0.307304	0.162946	0.320114	0.466120	3863.618119	9156.438875	3184.299770	4969.788704
85.537000	0.304316	0.163876	0.326300	0.473424	3844.364287	9068.161593	3183.797730	4937.325178
86.037000	0.312662	0.162708	0.304520	0.465951	3874.146912	9155.472730	3177.483668	4970.545623
86.537500	0.310748	0.159959	0.332136	0.466104	3870.193544	9115.125846	3189.790084	4969.859062
87.035000	0.309166	0.162868	0.324332	0.468039	3863.509272	9128.633414	3185.336228	4961.203662
87.538000	0.301384	0.160988	0.333612	0.474586	3836.830635	9012.733467	3186.576136	4932.209637
88.035500	0.317990	0.167483	0.334851	0.473826	3869.278153	9112.386770	3187.488018	4935.553248
88.538500	0.312780	0.163515	0.334214	0.471046	3864.659056	9095.951325	3188.469926	4947.832551
89.036000	0.306283	0.161126	0.330161	0.470489	3853.478072	9070.696212	3186.870353	4950.304127
89.536500	0.320311	0.160861	0.333354	0.471273	3878.620056	9056.291055	3187.971191	4946.827377
90.036500	0.313710	0.162890	0.325822	0.472499	3863.670047	9067.317013	3183.998408	4941.406698
90.542500	0.316058	0.160324	0.329426	0.471205	3870.592023	9049.863165	3186.210016	4947.129056
91.037000	0.317707	0.164222	0.333886	0.474481	3867.493471	9058.393176	3186.748858	4932.672065
91.537500	0.320740	0.166140	0.334535	0.477353	3867.799704	9045.320340	3185.739237	4920.086752
92.035000	0.317113	0.162619	0.341280	0.474216	3866.866972	9040.056148	3190.267542	4933.835254
92.535000	0.319691	0.163406	0.323757	0.475955	3868.462617	9027.045166	3181.534136	4926.200219
93.035500	0.314727	0.161754	0.343778	0.474312	3862.162101	9026.918896	3191.383941	4933.412801
93.536500	0.316392	0.161227	0.344141	0.474069	3865.776675	9023.040438	3191.667194	4934.484544
94.035500	0.322969	0.165182	0.327904	0.478657	3869.559732	9014.413545	3182.175917	4914.396640
94.539000	0.319811	0.162970	0.308220	0.476735	3867.208334	9010.474625	3174.433284	4922.788022
95.039500	0.320803	0.165147	0.331470	0.478288	3866.140519	9018.971640	3183.934924	4916.006134
95.600000	0.309394	0.159575	0.319163	0.479802	3841.963234	8923.127378	3177.827547	4909.416492
96.034500	0.320827	0.159220	0.342904	0.473991	3874.386197	8996.786166	3191.126544	4934.825870
96.534500	0.326285	0.163655	0.301995	0.479068	3875.117195	8988.070356	3170.814072	4912.609190
97.040500	0.318887	0.161996	0.327497	0.478363	3862.367294	8975.133880	3182.125808	4915.676722
97.535500	0.319668	0.161931	0.329722	0.484080	3853.091500	8897.405124	3180.578755	4890.929810
98.035500	0.317053	0.161033	0.316222	0.478865	3857.965001	8955.338572	3176.957735	4913.490702
98.569000	0.319760	0.162562	0.338678	0.480112	3860.715422	8959.150672	3186.366816	4908.072009
99.036000	0.322901	0.163650	0.341161	0.483699	3859.873156	8925.516922	3185.865758	4892.567822
