sample name	sample
index	455
start time	 03-11-2021  11:26:27 AM


Wavelength (nm)	Absorbance
494.344910	0.192830
494.563924	0.192830
494.782919	0.192830
495.001897	0.450184
495.220856	0.037152
495.439797	0.056054
495.658719	0.043218
495.877624	0.028516
496.096510	-0.030259
496.315378	-0.041663
496.534227	-0.020176
496.753059	-0.026615
496.971872	0.034100
497.190667	0.072794
497.409444	0.067113
497.628203	0.063302
497.846943	0.064960
498.065665	0.066007
498.284369	0.065115
498.503055	0.064473
498.721723	0.064118
498.940372	0.063061
499.159003	0.062091
499.377616	0.062379
499.596210	0.063754
499.814787	0.063120
500.033345	0.063266
500.251885	0.064369
500.470406	0.064979
500.688910	0.064841
500.907395	0.065889
501.125862	0.065992
501.344311	0.066578
501.562742	0.067000
501.781154	0.068055
501.999548	0.067730
502.217924	0.066991
502.436282	0.067166
502.654621	0.068927
502.872942	0.068614
503.091245	0.068929
503.309530	0.067187
503.527797	0.066721
503.746045	0.065533
503.964275	0.066463
504.182487	0.066276
504.400681	0.066520
504.618856	0.065514
504.837013	0.066147
505.055152	0.066981
505.273273	0.068151
505.491376	0.067961
505.709460	0.068153
505.927526	0.067318
506.145574	0.067532
506.363604	0.066975
506.581615	0.067156
506.799608	0.066888
507.017583	0.066531
507.235540	0.066716
507.453478	0.066691
507.671399	0.066844
507.889301	0.066964
508.107185	0.066625
508.325050	0.066838
508.542898	0.066856
508.760727	0.067549
508.978538	0.067759
509.196330	0.067708
509.414105	0.068481
509.631861	0.068732
509.849599	0.069344
510.067319	0.069948
510.285021	0.069173
510.502704	0.069046
510.720369	0.068325
510.938016	0.067692
511.155645	0.067535
511.373255	0.067375
511.590848	0.067664
511.808422	0.067309
512.025977	0.067223
512.243515	0.067378
512.461034	0.067587
512.678536	0.067977
512.896018	0.068734
513.113483	0.069589
513.330930	0.069379
513.548358	0.069325
513.765768	0.069024
513.983160	0.069184
514.200533	0.069727
514.417889	0.070051
514.635226	0.069651
514.852545	0.069403
515.069845	0.069240
515.287128	0.069313
515.504392	0.069258
515.721638	0.069938
515.938866	0.070427
516.156075	0.070720
516.373267	0.070561
516.590440	0.070805
516.807594	0.070164
517.024731	0.070718
517.241850	0.070807
517.458950	0.070825
517.676032	0.070730
517.893095	0.070396
518.110141	0.070417
518.327168	0.070631
518.544177	0.070414
518.761168	0.071197
518.978141	0.070731
519.195095	0.070677
519.412031	0.070656
519.628949	0.070372
519.845849	0.070734
520.062731	0.070751
520.279594	0.070438
520.496439	0.071202
520.713266	0.071809
520.930074	0.071651
521.146865	0.072157
521.363637	0.071992
521.580391	0.072471
521.797127	0.072865
522.013844	0.072855
522.230543	0.073427
522.447224	0.073080
522.663887	0.072776
522.880532	0.072922
523.097158	0.073050
523.313766	0.073643
523.530356	0.073323
523.746928	0.073230
523.963481	0.073854
524.180017	0.074211
524.396534	0.075054
524.613032	0.074681
524.829513	0.074788
525.045975	0.074258
525.262420	0.074617
525.478845	0.074510
525.695253	0.074233
525.911643	0.074240
526.128014	0.073595
526.344367	0.073149
526.560702	0.073533
526.777018	0.073340
526.993316	0.073826
527.209597	0.073753
527.425858	0.074389
527.642102	0.074481
527.858328	0.074355
528.074535	0.074513
528.290724	0.074567
528.506894	0.075100
528.723047	0.075644
528.939181	0.075726
529.155297	0.075963
529.371395	0.076397
529.587475	0.076911
529.803536	0.077748
530.019579	0.078334
530.235604	0.078124
530.451611	0.077555
530.667600	0.077827
530.883570	0.078151
531.099522	0.078152
531.315456	0.078085
531.531372	0.078397
531.747269	0.077918
531.963148	0.078059
532.179009	0.078620
532.394852	0.078731
532.610676	0.078846
532.826482	0.078775
533.042271	0.079163
533.258040	0.079198
533.473792	0.079168
533.689525	0.079622
533.905240	0.079203
534.120937	0.079479
534.336616	0.080034
534.552277	0.079807
534.767919	0.080283
534.983543	0.079984
535.199149	0.079921
535.414736	0.079549
535.630306	0.079411
535.845857	0.079874
536.061390	0.079854
536.276904	0.079839
536.492401	0.079995
536.707879	0.080081
536.923339	0.080413
537.138781	0.080980
537.354204	0.081579
537.569610	0.081532
537.784997	0.081626
538.000366	0.082076
538.215716	0.082321
538.431049	0.082549
538.646363	0.082305
538.861659	0.082730
539.076937	0.082642
539.292196	0.082305
539.507438	0.082708
539.722661	0.082998
539.937866	0.082734
540.153052	0.082961
540.368221	0.083187
540.583371	0.083648
540.798503	0.083798
541.013617	0.083571
541.228712	0.083762
541.443789	0.083421
541.658848	0.082926
541.873889	0.083187
542.088912	0.082639
542.303916	0.082565
542.518902	0.082403
542.733870	0.082444
542.948820	0.082929
543.163752	0.083506
543.378665	0.083663
543.593560	0.084359
543.808437	0.084817
544.023295	0.085331
544.238136	0.085512
544.452958	0.085697
544.667762	0.085366
544.882548	0.085552
545.097315	0.085872
545.312064	0.085948
545.526795	0.086528
545.741508	0.086104
545.956203	0.086582
546.170879	0.086953
546.385537	0.087201
546.600177	0.087684
546.814799	0.088107
547.029402	0.088159
547.243988	0.088660
547.458555	0.088332
547.673103	0.088481
547.887634	0.088432
548.102146	0.088485
548.316640	0.088180
548.531116	0.088030
548.745574	0.087446
548.960013	0.087333
549.174435	0.087399
549.388838	0.087514
549.603222	0.087791
549.817589	0.087712
550.031937	0.087563
550.246267	0.087767
550.460579	0.087987
550.674873	0.088186
550.889148	0.088282
551.103405	0.088445
551.317644	0.088545
551.531865	0.088666
551.746068	0.088622
551.960252	0.088844
552.174418	0.089109
552.388566	0.089429
552.602696	0.089514
552.816807	0.089380
553.030900	0.089350
553.244975	0.089208
553.459032	0.089448
553.673070	0.089942
553.887091	0.089943
554.101093	0.090110
554.315077	0.089966
554.529042	0.090278
554.742990	0.090253
554.956919	0.090087
555.170830	0.090426
555.384722	0.090468
555.598597	0.090293
555.812453	0.090475
556.026291	0.090484
556.240111	0.090471
556.453913	0.090497
556.667696	0.090896
556.881461	0.090927
557.095208	0.090931
557.308937	0.091108
557.522647	0.091573
557.736339	0.091706
557.950013	0.092177
558.163669	0.092597
558.377307	0.092744
558.590926	0.092780
558.804527	0.093065
559.018110	0.093173
559.231675	0.093116
559.445221	0.092960
559.658749	0.092875
559.872259	0.092736
560.085751	0.092960
560.299225	0.093008
560.512680	0.092835
560.726117	0.092779
560.939536	0.092957
561.152937	0.092779
561.366319	0.093095
561.579683	0.093212
561.793029	0.093242
562.006357	0.092738
562.219667	0.092988
562.432958	0.093332
562.646231	0.093395
562.859486	0.093199
563.072723	0.093649
563.285941	0.093555
563.499141	0.093520
563.712323	0.093448
563.925487	0.093707
564.138632	0.093785
564.351760	0.093770
564.564869	0.093832
564.777960	0.093884
564.991032	0.093808
565.204087	0.093858
565.417123	0.094162
565.630141	0.094247
565.843140	0.094453
566.056122	0.094260
566.269085	0.094695
566.482030	0.094868
566.694957	0.095217
566.907866	0.095051
567.120756	0.095144
567.333628	0.095203
567.546482	0.095320
567.759318	0.095525
567.972135	0.095406
568.184935	0.095092
568.397716	0.095023
568.610478	0.094944
568.823223	0.095358
569.035949	0.095282
569.248657	0.095314
569.461347	0.095203
569.674019	0.095196
569.886672	0.095591
570.099308	0.095713
570.311925	0.095798
570.524523	0.095932
570.737104	0.095739
570.949666	0.095787
571.162210	0.095754
571.374736	0.096101
571.587244	0.096184
571.799733	0.095887
572.012205	0.095941
572.224658	0.096056
572.437092	0.096192
572.649509	0.096337
572.861907	0.096545
573.074287	0.096596
573.286649	0.096546
573.498993	0.096624
573.711318	0.097023
573.923625	0.097075
574.135914	0.097269
574.348185	0.097236
574.560438	0.097535
574.772672	0.097552
574.984888	0.097549
575.197086	0.097577
575.409266	0.097479
575.621427	0.097689
575.833570	0.097645
576.045695	0.097909
576.257802	0.097564
576.469890	0.097401
576.681961	0.097622
576.894013	0.097683
577.106046	0.097573
577.318062	0.097431
577.530059	0.096983
577.742039	0.096778
577.954000	0.096698
578.165942	0.097170
578.377867	0.097013
578.589773	0.097132
578.801661	0.097249
579.013531	0.097311
579.225382	0.097530
579.437216	0.097938
579.649031	0.098169
579.860828	0.098262
580.072606	0.097980
580.284367	0.098319
580.496109	0.098225
580.707833	0.098002
580.919539	0.098281
581.131227	0.098460
581.342896	0.098444
581.554547	0.098820
581.766180	0.098492
581.977795	0.098762
582.189391	0.098805
582.400969	0.098561
582.612529	0.098659
582.824071	0.098677
583.035595	0.098699
583.247100	0.098808
583.458587	0.098804
583.670056	0.099401
583.881506	0.099549
584.092939	0.099689
584.304353	0.099997
584.515749	0.100179
584.727127	0.100096
584.938486	0.099951
585.149828	0.099595
585.361151	0.099510
585.572456	0.099270
585.783742	0.099412
585.995011	0.099043
586.206261	0.098886
586.417493	0.098953
586.628706	0.099117
586.839902	0.099222
587.051079	0.099888
587.262238	0.100124
587.473379	0.100292
587.684502	0.100220
587.895606	0.100609
588.106692	0.100781
588.317760	0.100905
588.528810	0.100982
588.739841	0.101148
588.950855	0.101195
589.161850	0.101082
589.372827	0.101275
589.583785	0.101387
589.794726	0.101501
590.005648	0.101507
590.216552	0.101339
590.427437	0.101780
590.638305	0.102045
590.849154	0.101912
591.059985	0.102212
591.270798	0.101921
591.481592	0.101934
591.692369	0.101814
591.903127	0.102116
592.113867	0.102390
592.324588	0.102276
592.535292	0.102520
592.745977	0.102666
592.956644	0.102892
593.167293	0.103002
593.377923	0.102931
593.588536	0.103044
593.799130	0.103041
594.009706	0.103294
594.220263	0.103430
594.430803	0.103027
594.641324	0.103088
594.851827	0.102739
595.062312	0.102800
595.272778	0.103092
595.483227	0.103169
595.693657	0.103317
595.904069	0.103364
596.114462	0.103325
596.324838	0.103272
596.535195	0.103245
596.745534	0.103547
596.955855	0.103902
597.166157	0.103922
597.376441	0.104119
597.586707	0.104243
597.796955	0.104443
598.007185	0.104262
598.217396	0.104838
598.427589	0.105006
598.637764	0.104996
598.847921	0.104961
599.058060	0.105167
599.268180	0.105072
599.478282	0.105083
599.688366	0.104981
599.898431	0.105189
600.108479	0.105452
600.318508	0.105611
600.528519	0.105708
600.738511	0.105846
600.948486	0.105726
601.158442	0.105725
601.368380	0.105817
601.578300	0.105861
601.788202	0.105704
601.998085	0.105275
602.207950	0.104998
602.417797	0.105153
602.627626	0.105277
602.837436	0.105413
603.047228	0.105694
603.257002	0.105674
603.466758	0.105547
603.676496	0.105785
603.886215	0.105730
604.095916	0.106078
604.305599	0.105844
604.515264	0.105851
604.724910	0.105898
604.934538	0.105820
605.144148	0.105926
605.353740	0.106130
605.563314	0.106113
605.772869	0.106090
605.982406	0.106044
606.191925	0.106180
606.401425	0.106187
606.610908	0.106032
606.820372	0.106212
607.029818	0.106278
607.239246	0.106300
607.448655	0.106512
607.658047	0.106761
607.867420	0.106739
608.076775	0.106762
608.286111	0.106882
608.495430	0.107099
608.704730	0.107145
608.914012	0.106926
609.123275	0.107174
609.332521	0.107485
609.541748	0.107646
609.750957	0.107643
609.960148	0.107891
610.169321	0.107825
610.378475	0.108070
610.587611	0.108324
610.796729	0.108718
611.005829	0.108534
611.214910	0.108374
611.423974	0.108136
611.633019	0.108334
611.842045	0.108133
612.051054	0.108094
612.260044	0.107974
612.469017	0.107749
612.677970	0.107881
612.886906	0.108052
613.095824	0.107904
613.304723	0.108034
613.513604	0.107962
613.722467	0.108119
613.931311	0.108447
614.140138	0.108554
614.348946	0.108728
614.557736	0.108762
614.766507	0.108591
614.975261	0.108904
615.183996	0.109034
615.392713	0.109256
615.601412	0.109476
615.810092	0.109537
616.018754	0.109572
616.227399	0.109493
616.436024	0.109297
616.644632	0.109703
616.853222	0.109683
617.061793	0.109814
617.270346	0.109755
617.478880	0.109803
617.687397	0.109419
617.895895	0.109606
618.104375	0.109773
618.312837	0.109906
618.521281	0.109684
618.729706	0.109628
618.938113	0.109742
619.146502	0.109878
619.354873	0.109874
619.563226	0.110125
619.771560	0.110363
619.979876	0.110437
620.188174	0.110611
620.396453	0.111061
620.604715	0.111363
620.812958	0.111287
621.021183	0.111386
621.229390	0.111505
621.437578	0.111625
621.645748	0.111518
621.853900	0.111654
622.062034	0.111678
622.270150	0.111618
622.478247	0.111557
622.686326	0.111779
622.894387	0.111686
623.102430	0.111708
623.310454	0.112165
623.518461	0.112012
623.726449	0.112108
623.934418	0.112039
624.142370	0.111980
624.350303	0.111935
624.558218	0.112102
624.766115	0.112239
624.973994	0.112129
625.181855	0.112053
625.389697	0.112237
625.597521	0.112334
625.805327	0.112619
626.013114	0.112582
626.220883	0.112480
626.428634	0.112489
626.636367	0.112489
626.844082	0.112547
627.051778	0.112518
627.259457	0.112658
627.467117	0.112814
627.674758	0.112745
627.882382	0.112917
628.089987	0.113399
628.297574	0.113275
628.505143	0.113400
628.712694	0.113628
628.920226	0.113796
629.127740	0.113460
629.335236	0.113298
629.542714	0.113510
629.750174	0.113615
629.957615	0.113479
630.165038	0.113555
630.372443	0.113841
630.579829	0.113936
630.787198	0.113745
630.994548	0.114109
631.201880	0.114021
631.409194	0.113668
631.616489	0.113714
631.823766	0.113968
632.031025	0.114064
632.238266	0.114161
632.445489	0.114262
632.652693	0.114534
632.859879	0.114697
633.067047	0.114912
633.274197	0.115341
633.481329	0.115338
633.688442	0.115358
633.895537	0.115464
634.102614	0.115501
634.309672	0.115449
634.516713	0.115581
634.723735	0.115817
634.930739	0.116010
635.137724	0.115893
635.344692	0.116192
635.551641	0.116391
635.758572	0.116407
635.965485	0.116409
636.172379	0.116679
636.379256	0.116434
636.586114	0.116384
636.792954	0.116270
636.999775	0.116507
637.206579	0.116426
637.413364	0.116290
637.620131	0.116426
637.826880	0.116400
638.033610	0.116485
638.240323	0.116719
638.447017	0.116650
638.653692	0.116762
638.860350	0.116725
639.066990	0.116734
639.273611	0.117039
639.480214	0.117387
639.686798	0.117754
639.893365	0.117773
640.099913	0.117764
640.306443	0.117812
640.512955	0.117898
640.719449	0.118098
640.925924	0.118233
641.132381	0.118084
641.338820	0.117894
641.545241	0.117769
641.751644	0.117799
641.958028	0.117982
642.164394	0.118068
642.370742	0.118095
642.577071	0.118359
642.783383	0.118541
642.989676	0.118724
643.195951	0.119035
643.402207	0.119110
643.608446	0.119242
643.814666	0.119247
644.020868	0.119447
644.227052	0.119676
644.433218	0.119345
644.639365	0.119486
644.845494	0.119604
645.051605	0.119339
645.257698	0.119514
645.463772	0.119608
645.669828	0.119607
645.875866	0.119541
646.081886	0.119434
646.287888	0.119590
646.493871	0.119517
646.699836	0.119386
646.905783	0.119563
647.111712	0.119296
647.317622	0.119415
647.523514	0.119517
647.729388	0.119655
647.935244	0.119778
648.141082	0.120127
648.346901	0.120259
648.552702	0.120640
648.758485	0.120551
648.964250	0.120806
649.169996	0.120708
649.375724	0.120712
649.581434	0.120987
649.787126	0.121076
649.992800	0.120860
650.198455	0.120814
650.404092	0.120636
650.609711	0.120941
650.815311	0.121020
651.020894	0.120964
651.226458	0.121263
651.432004	0.121046
651.637532	0.121139
651.843041	0.121012
652.048532	0.121076
652.254006	0.121114
652.459460	0.121232
652.664897	0.121257
652.870315	0.121478
653.075716	0.121492
653.281097	0.121728
653.486461	0.121741
653.691807	0.122097
653.897134	0.122246
654.102443	0.122551
654.307734	0.122688
654.513006	0.122960
654.718261	0.123014
654.923497	0.122988
655.128715	0.123041
655.333915	0.123130
655.539096	0.123169
655.744259	0.123228
655.949404	0.123166
656.154531	0.123200
656.359640	0.123067
656.564730	0.123211
656.769802	0.123538
656.974856	0.123590
657.179892	0.123750
657.384909	0.123873
657.589908	0.123768
657.794889	0.123793
657.999852	0.123810
658.204797	0.123999
658.409723	0.124146
658.614631	0.123736
658.819521	0.124060
659.024393	0.124264
659.229246	0.124331
659.434081	0.124788
659.638898	0.124796
659.843697	0.124766
660.048478	0.124848
660.253240	0.124981
660.457984	0.125442
660.662710	0.125346
660.867417	0.125327
661.072107	0.125456
661.276778	0.125426
661.481431	0.125764
661.686066	0.125942
661.890682	0.125966
662.095281	0.125899
662.299861	0.126113
662.504422	0.126114
662.708966	0.126095
662.913491	0.126155
663.117999	0.126346
663.322488	0.126166
663.526958	0.126182
663.731411	0.126365
663.935845	0.126378
664.140261	0.126248
664.344659	0.126334
664.549038	0.126535
664.753400	0.126587
664.957743	0.126473
665.162068	0.126777
665.366375	0.126930
665.570663	0.126888
665.774933	0.127025
665.979185	0.126905
666.183419	0.126946
666.387635	0.127019
666.591832	0.126917
666.796011	0.127061
667.000172	0.126932
667.204315	0.126756
667.408439	0.126945
667.612545	0.127082
667.816634	0.127586
668.020703	0.128039
668.224755	0.128149
668.428788	0.128345
668.632803	0.128444
668.836800	0.128542
669.040779	0.128802
669.244739	0.128740
669.448681	0.128724
669.652605	0.128694
669.856511	0.128574
670.060399	0.128774
670.264268	0.129096
670.468119	0.129193
670.671952	0.129413
670.875767	0.129359
671.079563	0.129491
671.283341	0.129582
671.487101	0.129595
671.690843	0.129639
671.894567	0.129590
672.098272	0.129565
672.301959	0.129377
672.505628	0.129352
672.709278	0.129717
672.912911	0.130006
673.116525	0.130131
673.320121	0.130260
673.523699	0.130111
673.727258	0.130136
673.930799	0.130188
674.134322	0.130550
674.337827	0.130696
674.541314	0.130831
674.744782	0.130977
674.948232	0.131269
675.151664	0.131252
675.355078	0.131605
675.558474	0.131661
675.761851	0.131696
675.965210	0.131648
676.168551	0.131907
676.371873	0.131796
676.575178	0.131666
676.778464	0.131603
676.981732	0.131750
677.184981	0.131801
677.388213	0.132017
677.591426	0.132089
677.794621	0.132494
677.997798	0.132535
678.200956	0.132542
678.404097	0.132874
678.607219	0.132994
678.810323	0.132990
679.013408	0.132873
679.216476	0.132836
679.419525	0.132894
679.622556	0.132825
679.825569	0.132796
680.028563	0.133060
680.231540	0.132981
680.434498	0.132841
680.637438	0.132977
680.840359	0.133198
681.043263	0.133340
681.246148	0.133627
681.449015	0.133646
681.651864	0.133679
681.854694	0.133675
682.057506	0.133566
682.260301	0.133804
682.463076	0.134071
682.665834	0.134179
682.868573	0.134481
683.071295	0.134478
683.273998	0.134497
683.476682	0.134549
683.679349	0.134625
683.881997	0.134817
684.084627	0.135007
684.287239	0.135006
684.489833	0.135071
684.692408	0.134998
684.894965	0.135090
685.097504	0.135352
685.300025	0.135804
685.502527	0.135981
685.705012	0.136173
685.907478	0.136209
686.109925	0.136045
686.312355	0.136185
686.514766	0.136254
686.717159	0.136303
686.919534	0.136171
687.121891	0.135886
687.324230	0.135929
687.526550	0.136145
687.728852	0.136118
687.931136	0.136512
688.133401	0.136413
688.335649	0.136453
688.537878	0.136363
688.740089	0.136461
688.942281	0.136751
689.144456	0.136728
689.346612	0.136659
689.548750	0.136753
689.750870	0.136819
689.952971	0.136898
690.155055	0.136955
690.357120	0.137076
690.559167	0.137157
690.761195	0.137145
690.963206	0.137285
691.165198	0.137238
691.367172	0.137559
691.569128	0.137483
691.771065	0.137833
691.972984	0.137884
692.174885	0.138182
692.376768	0.138433
692.578633	0.138624
692.780479	0.138745
692.982308	0.138870
693.184118	0.138994
693.385909	0.138966
