sample name	sample
index	1159
start time	 04-22-2021  03:56:35 PM


Wavelength (nm)	Absorbance
494.344910	0.117694
494.563924	0.117694
494.782919	0.117694
495.001897	NaN
495.220856	0.065183
495.439797	0.135220
495.658719	0.076007
495.877624	-0.095927
496.096510	-0.066759
496.315378	0.101105
496.534227	0.411641
496.753059	0.653993
496.971872	0.205394
497.190667	0.219940
497.409444	0.210090
497.628203	0.212193
497.846943	0.214256
498.065665	0.213983
498.284369	0.212396
498.503055	0.212418
498.721723	0.212069
498.940372	0.213837
499.159003	0.212541
499.377616	0.213874
499.596210	0.213149
499.814787	0.215236
500.033345	0.215013
500.251885	0.216641
500.470406	0.216853
500.688910	0.216890
500.907395	0.216412
501.125862	0.217827
501.344311	0.217619
501.562742	0.219264
501.781154	0.217612
501.999548	0.217092
502.217924	0.218210
502.436282	0.218078
502.654621	0.218329
502.872942	0.217811
503.091245	0.217464
503.309530	0.216355
503.527797	0.215617
503.746045	0.217442
503.964275	0.217827
504.182487	0.216394
504.400681	0.217596
504.618856	0.216926
504.837013	0.216602
505.055152	0.216605
505.273273	0.216230
505.491376	0.217217
505.709460	0.216730
505.927526	0.218130
506.145574	0.218037
506.363604	0.217690
506.581615	0.218634
506.799608	0.220561
507.017583	0.219875
507.235540	0.221181
507.453478	0.221386
507.671399	0.220815
507.889301	0.220476
508.107185	0.220010
508.325050	0.218647
508.542898	0.219332
508.760727	0.218752
508.978538	0.220189
509.196330	0.220105
509.414105	0.220158
509.631861	0.220991
509.849599	0.220576
510.067319	0.221837
510.285021	0.221876
510.502704	0.221457
510.720369	0.222007
510.938016	0.221339
511.155645	0.222267
511.373255	0.222470
511.590848	0.222502
511.808422	0.223419
512.025977	0.223735
512.243515	0.224772
512.461034	0.224483
512.678536	0.224056
512.896018	0.224868
513.113483	0.224815
513.330930	0.224753
513.548358	0.224669
513.765768	0.224260
513.983160	0.224217
514.200533	0.224005
514.417889	0.223975
514.635226	0.224548
514.852545	0.225326
515.069845	0.226058
515.287128	0.225209
515.504392	0.225296
515.721638	0.225322
515.938866	0.225251
516.156075	0.226038
516.373267	0.226902
516.590440	0.227149
516.807594	0.226902
517.024731	0.226349
517.241850	0.227661
517.458950	0.227697
517.676032	0.227663
517.893095	0.227137
518.110141	0.227239
518.327168	0.228499
518.544177	0.228250
518.761168	0.228173
518.978141	0.228005
519.195095	0.227863
519.412031	0.227799
519.628949	0.228331
519.845849	0.230011
520.062731	0.230562
520.279594	0.229894
520.496439	0.230920
520.713266	0.231791
520.930074	0.233207
521.146865	0.233890
521.363637	0.234519
521.580391	0.235941
521.797127	0.235495
522.013844	0.235864
522.230543	0.235427
522.447224	0.234529
522.663887	0.235057
522.880532	0.234751
523.097158	0.234806
523.313766	0.234984
523.530356	0.235447
523.746928	0.235509
523.963481	0.236073
524.180017	0.237848
524.396534	0.239520
524.613032	0.239478
524.829513	0.239521
525.045975	0.240925
525.262420	0.241767
525.478845	0.240570
525.695253	0.240995
525.911643	0.241753
526.128014	0.242290
526.344367	0.241888
526.560702	0.241635
526.777018	0.242563
526.993316	0.242229
527.209597	0.242498
527.425858	0.243628
527.642102	0.244188
527.858328	0.243326
528.074535	0.242411
528.290724	0.243349
528.506894	0.243611
528.723047	0.243862
528.939181	0.244382
529.155297	0.245142
529.371395	0.245194
529.587475	0.245866
529.803536	0.247495
530.019579	0.248375
530.235604	0.247835
530.451611	0.248973
530.667600	0.249401
530.883570	0.249696
531.099522	0.249953
531.315456	0.250235
531.531372	0.250104
531.747269	0.249675
531.963148	0.249462
532.179009	0.249955
532.394852	0.249912
532.610676	0.250339
532.826482	0.250366
533.042271	0.250112
533.258040	0.250628
533.473792	0.250679
533.689525	0.250601
533.905240	0.251306
534.120937	0.251468
534.336616	0.251819
534.552277	0.252175
534.767919	0.252536
534.983543	0.252482
535.199149	0.251699
535.414736	0.252224
535.630306	0.252603
535.845857	0.252395
536.061390	0.253029
536.276904	0.253040
536.492401	0.253238
536.707879	0.253576
536.923339	0.254685
537.138781	0.255660
537.354204	0.255691
537.569610	0.255774
537.784997	0.256333
538.000366	0.256631
538.215716	0.256689
538.431049	0.256959
538.646363	0.256557
538.861659	0.256143
539.076937	0.256775
539.292196	0.257305
539.507438	0.257244
539.722661	0.257582
539.937866	0.257560
540.153052	0.258320
540.368221	0.258658
540.583371	0.259275
540.798503	0.260239
541.013617	0.260059
541.228712	0.260808
541.443789	0.261847
541.658848	0.261987
541.873889	0.262830
542.088912	0.262878
542.303916	0.262810
542.518902	0.263246
542.733870	0.262926
542.948820	0.263180
543.163752	0.263449
543.378665	0.263530
543.593560	0.264043
543.808437	0.264229
544.023295	0.264345
544.238136	0.264751
544.452958	0.265425
544.667762	0.266005
544.882548	0.266078
545.097315	0.265684
545.312064	0.265788
545.526795	0.266126
545.741508	0.265433
545.956203	0.266300
546.170879	0.265919
546.385537	0.266172
546.600177	0.266646
546.814799	0.267095
547.029402	0.267590
547.243988	0.268323
547.458555	0.268066
547.673103	0.269238
547.887634	0.269195
548.102146	0.269594
548.316640	0.269609
548.531116	0.269406
548.745574	0.270140
548.960013	0.270041
549.174435	0.269732
549.388838	0.269799
549.603222	0.269494
549.817589	0.269623
550.031937	0.270225
550.246267	0.270176
550.460579	0.270402
550.674873	0.270476
550.889148	0.271033
551.103405	0.271242
551.317644	0.271862
551.531865	0.273145
551.746068	0.273428
551.960252	0.273882
552.174418	0.273959
552.388566	0.274453
552.602696	0.274579
552.816807	0.275179
553.030900	0.275472
553.244975	0.276063
553.459032	0.275535
553.673070	0.275857
553.887091	0.275780
554.101093	0.276187
554.315077	0.276498
554.529042	0.277038
554.742990	0.276611
554.956919	0.276882
555.170830	0.277151
555.384722	0.277331
555.598597	0.277419
555.812453	0.277495
556.026291	0.277546
556.240111	0.277584
556.453913	0.277046
556.667696	0.277931
556.881461	0.278177
557.095208	0.277639
557.308937	0.277376
557.522647	0.277626
557.736339	0.277531
557.950013	0.278142
558.163669	0.278322
558.377307	0.278769
558.590926	0.278596
558.804527	0.278654
559.018110	0.279169
559.231675	0.279403
559.445221	0.279574
559.658749	0.279859
559.872259	0.279119
560.085751	0.278969
560.299225	0.279406
560.512680	0.279253
560.726117	0.279361
560.939536	0.279271
561.152937	0.279696
561.366319	0.279486
561.579683	0.279625
561.793029	0.280422
562.006357	0.280593
562.219667	0.280770
562.432958	0.281268
562.646231	0.281382
562.859486	0.281862
563.072723	0.281851
563.285941	0.282648
563.499141	0.283271
563.712323	0.283494
563.925487	0.283791
564.138632	0.283423
564.351760	0.283142
564.564869	0.283439
564.777960	0.283531
564.991032	0.283706
565.204087	0.283379
565.417123	0.283159
565.630141	0.283668
565.843140	0.283958
566.056122	0.283962
566.269085	0.284270
566.482030	0.284662
566.694957	0.284358
566.907866	0.284419
567.120756	0.284662
567.333628	0.284646
567.546482	0.283967
567.759318	0.284032
567.972135	0.284275
568.184935	0.284603
568.397716	0.285009
568.610478	0.285222
568.823223	0.285379
569.035949	0.285363
569.248657	0.285498
569.461347	0.285289
569.674019	0.285168
569.886672	0.285376
570.099308	0.285403
570.311925	0.284382
570.524523	0.284960
570.737104	0.285477
570.949666	0.285889
571.162210	0.285969
571.374736	0.286810
571.587244	0.287480
571.799733	0.287668
572.012205	0.287906
572.224658	0.288720
572.437092	0.288936
572.649509	0.289390
572.861907	0.289541
573.074287	0.289818
573.286649	0.289927
573.498993	0.289891
573.711318	0.290116
573.923625	0.290053
574.135914	0.290089
574.348185	0.289566
574.560438	0.289115
574.772672	0.289380
574.984888	0.289228
575.197086	0.289289
575.409266	0.289595
575.621427	0.289861
575.833570	0.290181
576.045695	0.290468
576.257802	0.291234
576.469890	0.291233
576.681961	0.291048
576.894013	0.291328
577.106046	0.291568
577.318062	0.291365
577.530059	0.291380
577.742039	0.291491
577.954000	0.291801
578.165942	0.291744
578.377867	0.291868
578.589773	0.291808
578.801661	0.292291
579.013531	0.292259
579.225382	0.292417
579.437216	0.292816
579.649031	0.292926
579.860828	0.292763
580.072606	0.292761
580.284367	0.293166
580.496109	0.293693
580.707833	0.293843
580.919539	0.293799
581.131227	0.294417
581.342896	0.294414
581.554547	0.294463
581.766180	0.294839
581.977795	0.295000
582.189391	0.295954
582.400969	0.295671
582.612529	0.295651
582.824071	0.295956
583.035595	0.295851
583.247100	0.296686
583.458587	0.296944
583.670056	0.296646
583.881506	0.296898
584.092939	0.296213
584.304353	0.296765
584.515749	0.297292
584.727127	0.297600
584.938486	0.297802
585.149828	0.297075
585.361151	0.297044
585.572456	0.297516
585.783742	0.297441
585.995011	0.297478
586.206261	0.297439
586.417493	0.297262
586.628706	0.297400
586.839902	0.297189
587.051079	0.297756
587.262238	0.298129
587.473379	0.298136
587.684502	0.298778
587.895606	0.299176
588.106692	0.299513
588.317760	0.300243
588.528810	0.300606
588.739841	0.300700
588.950855	0.300872
589.161850	0.300987
589.372827	0.301421
589.583785	0.301090
589.794726	0.301130
590.005648	0.301041
590.216552	0.300476
590.427437	0.300577
590.638305	0.300761
590.849154	0.300519
591.059985	0.300612
591.270798	0.300668
591.481592	0.301043
591.692369	0.301066
591.903127	0.301278
592.113867	0.302001
592.324588	0.301762
592.535292	0.301755
592.745977	0.302378
592.956644	0.303063
593.167293	0.303431
593.377923	0.303700
593.588536	0.304514
593.799130	0.304706
594.009706	0.304101
594.220263	0.304521
594.430803	0.305261
594.641324	0.305335
594.851827	0.305161
595.062312	0.305032
595.272778	0.304936
595.483227	0.304797
595.693657	0.305127
595.904069	0.305709
596.114462	0.305761
596.324838	0.305094
596.535195	0.305120
596.745534	0.305206
596.955855	0.305495
597.166157	0.306092
597.376441	0.306160
597.586707	0.306298
597.796955	0.306346
598.007185	0.306659
598.217396	0.307194
598.427589	0.307047
598.637764	0.306901
598.847921	0.306888
599.058060	0.306523
599.268180	0.306759
599.478282	0.306839
599.688366	0.307040
599.898431	0.306901
600.108479	0.307016
600.318508	0.307182
600.528519	0.307276
600.738511	0.307563
600.948486	0.307994
601.158442	0.308213
601.368380	0.308471
601.578300	0.308414
601.788202	0.308490
601.998085	0.308619
602.207950	0.308778
602.417797	0.309540
602.627626	0.309489
602.837436	0.309556
603.047228	0.309409
603.257002	0.309636
603.466758	0.309809
603.676496	0.310253
603.886215	0.310704
604.095916	0.311149
604.305599	0.310740
604.515264	0.311552
604.724910	0.311729
604.934538	0.311982
605.144148	0.312166
605.353740	0.312647
605.563314	0.312845
605.772869	0.313134
605.982406	0.313376
606.191925	0.313778
606.401425	0.313601
606.610908	0.313762
606.820372	0.313871
607.029818	0.313713
607.239246	0.313991
607.448655	0.314096
607.658047	0.314082
607.867420	0.314311
608.076775	0.314564
608.286111	0.314353
608.495430	0.314385
608.704730	0.314404
608.914012	0.314715
609.123275	0.314317
609.332521	0.314373
609.541748	0.314462
609.750957	0.314182
609.960148	0.313973
610.169321	0.314121
610.378475	0.314431
610.587611	0.314623
610.796729	0.314807
611.005829	0.315231
611.214910	0.315462
611.423974	0.315529
611.633019	0.315617
611.842045	0.316023
612.051054	0.316397
612.260044	0.316538
612.469017	0.317029
612.677970	0.316917
612.886906	0.317208
613.095824	0.317092
613.304723	0.317051
613.513604	0.317389
613.722467	0.317460
613.931311	0.317349
614.140138	0.317375
614.348946	0.317294
614.557736	0.317591
614.766507	0.317369
614.975261	0.317794
615.183996	0.317872
615.392713	0.317690
615.601412	0.317674
615.810092	0.317817
616.018754	0.317915
616.227399	0.318051
616.436024	0.318064
616.644632	0.318196
616.853222	0.318280
617.061793	0.318734
617.270346	0.319146
617.478880	0.319635
617.687397	0.319853
617.895895	0.320015
618.104375	0.320154
618.312837	0.320452
618.521281	0.320760
618.729706	0.321109
618.938113	0.321042
619.146502	0.321388
619.354873	0.321503
619.563226	0.321861
619.771560	0.322003
619.979876	0.322094
620.188174	0.322189
620.396453	0.322255
620.604715	0.322250
620.812958	0.322376
621.021183	0.322278
621.229390	0.322314
621.437578	0.322164
621.645748	0.322496
621.853900	0.322510
622.062034	0.322257
622.270150	0.322667
622.478247	0.323006
622.686326	0.323371
622.894387	0.323654
623.102430	0.323520
623.310454	0.323460
623.518461	0.323684
623.726449	0.323892
623.934418	0.324192
624.142370	0.324431
624.350303	0.324247
624.558218	0.324433
624.766115	0.324479
624.973994	0.324884
625.181855	0.325238
625.389697	0.325374
625.597521	0.325318
625.805327	0.325485
626.013114	0.325399
626.220883	0.325611
626.428634	0.325738
626.636367	0.325648
626.844082	0.325745
627.051778	0.326007
627.259457	0.326065
627.467117	0.326599
627.674758	0.326975
627.882382	0.326811
628.089987	0.327322
628.297574	0.327394
628.505143	0.327705
628.712694	0.327779
628.920226	0.327851
629.127740	0.328026
629.335236	0.328217
629.542714	0.328246
629.750174	0.329016
629.957615	0.328360
630.165038	0.328423
630.372443	0.328804
630.579829	0.329386
630.787198	0.329708
630.994548	0.329974
631.201880	0.329863
631.409194	0.330083
631.616489	0.329897
631.823766	0.330687
632.031025	0.331045
632.238266	0.331254
632.445489	0.331089
632.652693	0.331272
632.859879	0.331115
633.067047	0.331540
633.274197	0.331926
633.481329	0.332141
633.688442	0.332155
633.895537	0.332013
634.102614	0.332013
634.309672	0.332127
634.516713	0.332149
634.723735	0.332479
634.930739	0.332214
635.137724	0.332097
635.344692	0.332360
635.551641	0.332754
635.758572	0.333405
635.965485	0.333598
636.172379	0.333904
636.379256	0.334060
636.586114	0.334137
636.792954	0.334583
636.999775	0.335407
637.206579	0.335432
637.413364	0.335545
637.620131	0.335697
637.826880	0.336099
638.033610	0.336566
638.240323	0.336960
638.447017	0.337221
638.653692	0.337141
638.860350	0.336960
639.066990	0.337317
639.273611	0.337443
639.480214	0.337046
639.686798	0.336789
639.893365	0.336706
640.099913	0.336768
640.306443	0.336858
640.512955	0.337529
640.719449	0.337310
640.925924	0.337597
641.132381	0.337859
641.338820	0.338275
641.545241	0.338796
641.751644	0.338856
641.958028	0.339043
642.164394	0.339556
642.370742	0.339413
642.577071	0.339682
642.783383	0.339749
642.989676	0.339814
643.195951	0.340150
643.402207	0.340270
643.608446	0.340757
643.814666	0.341014
644.020868	0.340847
644.227052	0.341223
644.433218	0.341543
644.639365	0.341700
644.845494	0.341865
645.051605	0.341752
645.257698	0.341610
645.463772	0.341339
645.669828	0.341342
645.875866	0.341881
646.081886	0.341913
646.287888	0.341983
646.493871	0.342341
646.699836	0.342249
646.905783	0.342735
647.111712	0.342979
647.317622	0.343612
647.523514	0.343816
647.729388	0.343532
647.935244	0.343817
648.141082	0.344248
648.346901	0.344309
648.552702	0.344667
648.758485	0.344733
648.964250	0.345130
649.169996	0.345006
649.375724	0.345218
649.581434	0.345899
649.787126	0.346195
649.992800	0.346504
650.198455	0.346733
650.404092	0.347162
650.609711	0.347440
650.815311	0.347357
651.020894	0.347959
651.226458	0.348057
651.432004	0.347802
651.637532	0.347909
651.843041	0.347822
652.048532	0.347992
652.254006	0.348272
652.459460	0.348533
652.664897	0.348888
652.870315	0.348398
653.075716	0.348855
653.281097	0.349435
653.486461	0.349676
653.691807	0.349909
653.897134	0.349882
654.102443	0.349610
654.307734	0.349475
654.513006	0.349806
654.718261	0.350390
654.923497	0.350561
655.128715	0.350701
655.333915	0.350804
655.539096	0.350825
655.744259	0.350878
655.949404	0.351140
656.154531	0.351563
656.359640	0.351595
656.564730	0.351672
656.769802	0.351706
656.974856	0.351658
657.179892	0.351819
657.384909	0.352012
657.589908	0.352617
657.794889	0.352909
657.999852	0.353224
658.204797	0.353511
658.409723	0.353988
658.614631	0.354501
658.819521	0.354946
659.024393	0.355120
659.229246	0.355563
659.434081	0.355503
659.638898	0.356009
659.843697	0.356171
660.048478	0.356592
660.253240	0.356675
660.457984	0.356751
660.662710	0.356926
660.867417	0.356974
661.072107	0.357389
661.276778	0.357874
661.481431	0.357524
661.686066	0.357633
661.890682	0.357799
662.095281	0.357861
662.299861	0.358188
662.504422	0.358311
662.708966	0.359000
662.913491	0.359025
663.117999	0.359211
663.322488	0.359724
663.526958	0.359989
663.731411	0.359943
663.935845	0.360366
664.140261	0.360265
664.344659	0.360487
664.549038	0.360718
664.753400	0.360804
664.957743	0.360977
665.162068	0.361154
665.366375	0.361198
665.570663	0.361548
665.774933	0.361702
665.979185	0.362135
666.183419	0.362379
666.387635	0.362378
666.591832	0.362782
666.796011	0.363159
667.000172	0.363511
667.204315	0.363916
667.408439	0.364012
667.612545	0.364374
667.816634	0.364729
668.020703	0.365014
668.224755	0.365280
668.428788	0.365180
668.632803	0.365478
668.836800	0.365738
669.040779	0.365998
669.244739	0.366342
669.448681	0.366445
669.652605	0.366511
669.856511	0.366857
670.060399	0.367143
670.264268	0.367501
670.468119	0.367754
670.671952	0.367916
670.875767	0.368112
671.079563	0.368016
671.283341	0.368362
671.487101	0.368490
671.690843	0.368179
671.894567	0.368261
672.098272	0.368735
672.301959	0.368594
672.505628	0.368757
672.709278	0.369209
672.912911	0.369754
673.116525	0.369595
673.320121	0.369877
673.523699	0.370336
673.727258	0.370548
673.930799	0.370452
674.134322	0.370432
674.337827	0.370971
674.541314	0.370818
674.744782	0.370932
674.948232	0.371443
675.151664	0.371580
675.355078	0.371406
675.558474	0.371720
675.761851	0.372098
675.965210	0.372572
676.168551	0.372292
676.371873	0.372830
676.575178	0.373285
676.778464	0.373574
676.981732	0.373929
677.184981	0.375083
677.388213	0.375425
677.591426	0.375731
677.794621	0.376189
677.997798	0.376869
678.200956	0.377002
678.404097	0.377349
678.607219	0.377581
678.810323	0.377949
679.013408	0.377854
679.216476	0.378045
679.419525	0.378069
679.622556	0.378296
679.825569	0.378411
680.028563	0.378623
680.231540	0.378634
680.434498	0.378542
680.637438	0.378418
680.840359	0.378568
681.043263	0.378733
681.246148	0.379080
681.449015	0.379055
681.651864	0.379152
681.854694	0.379591
682.057506	0.379674
682.260301	0.379907
682.463076	0.380322
682.665834	0.380437
682.868573	0.380538
683.071295	0.380699
683.273998	0.381083
683.476682	0.381218
683.679349	0.381157
683.881997	0.381586
684.084627	0.381990
684.287239	0.382140
684.489833	0.382389
684.692408	0.382572
684.894965	0.382875
685.097504	0.383128
685.300025	0.383143
685.502527	0.383082
685.705012	0.383176
685.907478	0.383174
686.109925	0.383221
686.312355	0.383426
686.514766	0.383688
686.717159	0.383821
686.919534	0.383626
687.121891	0.383971
687.324230	0.384392
687.526550	0.384587
687.728852	0.384858
687.931136	0.385117
688.133401	0.385503
688.335649	0.385856
688.537878	0.385912
688.740089	0.386661
688.942281	0.386941
689.144456	0.387115
689.346612	0.387227
689.548750	0.387437
689.750870	0.387858
689.952971	0.387719
690.155055	0.387670
690.357120	0.388026
690.559167	0.388016
690.761195	0.388516
690.963206	0.388532
691.165198	0.388513
691.367172	0.388603
691.569128	0.388310
691.771065	0.388644
691.972984	0.388800
692.174885	0.388792
692.376768	0.388585
692.578633	0.388537
692.780479	0.388620
692.982308	0.389050
693.184118	0.389284
693.385909	0.389714
