sample name	sample
index	1205
start time	 04-26-2021  12:57:48 PM


Wavelength (nm)	Absorbance
494.344910	-0.632302
494.563924	-0.632302
494.782919	-0.632302
495.001897	NaN
495.220856	-0.224101
495.439797	-0.252319
495.658719	-0.012787
495.877624	0.545621
496.096510	1.052048
496.315378	NaN
496.534227	NaN
496.753059	NaN
496.971872	NaN
497.190667	0.177949
497.409444	0.150542
497.628203	0.145742
497.846943	0.145514
498.065665	0.144803
498.284369	0.142858
498.503055	0.141498
498.721723	0.140624
498.940372	0.140406
499.159003	0.140325
499.377616	0.140578
499.596210	0.139421
499.814787	0.137268
500.033345	0.136309
500.251885	0.137434
500.470406	0.137579
500.688910	0.138644
500.907395	0.138746
501.125862	0.138247
501.344311	0.136828
501.562742	0.137432
501.781154	0.138059
501.999548	0.138223
502.217924	0.137488
502.436282	0.136119
502.654621	0.134874
502.872942	0.133433
503.091245	0.133388
503.309530	0.135008
503.527797	0.135016
503.746045	0.135370
503.964275	0.135784
504.182487	0.136147
504.400681	0.136808
504.618856	0.137750
504.837013	0.138651
505.055152	0.139474
505.273273	0.139373
505.491376	0.138982
505.709460	0.139940
505.927526	0.140682
506.145574	0.140188
506.363604	0.140592
506.581615	0.140070
506.799608	0.140509
507.017583	0.139837
507.235540	0.140253
507.453478	0.140360
507.671399	0.139070
507.889301	0.138320
508.107185	0.138428
508.325050	0.138924
508.542898	0.138344
508.760727	0.138638
508.978538	0.138336
509.196330	0.137879
509.414105	0.138945
509.631861	0.138936
509.849599	0.138430
510.067319	0.139049
510.285021	0.139490
510.502704	0.141135
510.720369	0.140376
510.938016	0.141450
511.155645	0.141587
511.373255	0.139987
511.590848	0.139878
511.808422	0.141179
512.025977	0.141648
512.243515	0.141293
512.461034	0.141364
512.678536	0.141743
512.896018	0.141120
513.113483	0.140985
513.330930	0.142122
513.548358	0.142914
513.765768	0.143166
513.983160	0.141945
514.200533	0.141986
514.417889	0.141776
514.635226	0.141291
514.852545	0.140480
515.069845	0.140894
515.287128	0.140201
515.504392	0.139508
515.721638	0.139114
515.938866	0.139438
516.156075	0.138529
516.373267	0.139040
516.590440	0.140321
516.807594	0.141791
517.024731	0.141835
517.241850	0.143015
517.458950	0.143638
517.676032	0.143335
517.893095	0.144411
518.110141	0.145790
518.327168	0.145459
518.544177	0.145317
518.761168	0.144165
518.978141	0.144323
519.195095	0.143532
519.412031	0.143817
519.628949	0.144152
519.845849	0.144599
520.062731	0.144165
520.279594	0.144008
520.496439	0.143505
520.713266	0.145034
520.930074	0.145155
521.146865	0.145940
521.363637	0.146058
521.580391	0.146534
521.797127	0.146454
522.013844	0.147466
522.230543	0.147673
522.447224	0.148062
522.663887	0.148572
522.880532	0.149368
523.097158	0.149554
523.313766	0.149566
523.530356	0.149390
523.746928	0.149293
523.963481	0.148887
524.180017	0.149440
524.396534	0.149183
524.613032	0.148995
524.829513	0.149181
525.045975	0.149521
525.262420	0.149967
525.478845	0.150910
525.695253	0.151023
525.911643	0.151651
526.128014	0.151807
526.344367	0.152344
526.560702	0.151816
526.777018	0.151864
526.993316	0.151807
527.209597	0.151918
527.425858	0.151940
527.642102	0.151706
527.858328	0.151424
528.074535	0.151464
528.290724	0.151703
528.506894	0.152190
528.723047	0.152416
528.939181	0.152852
529.155297	0.153506
529.371395	0.153179
529.587475	0.153961
529.803536	0.155034
530.019579	0.155993
530.235604	0.156699
530.451611	0.157156
530.667600	0.157744
530.883570	0.158905
531.099522	0.158626
531.315456	0.159773
531.531372	0.160202
531.747269	0.159807
531.963148	0.159513
532.179009	0.159328
532.394852	0.159768
532.610676	0.160019
532.826482	0.159498
533.042271	0.160029
533.258040	0.160223
533.473792	0.160110
533.689525	0.160822
533.905240	0.161706
534.120937	0.162308
534.336616	0.162017
534.552277	0.162295
534.767919	0.162606
534.983543	0.163273
535.199149	0.163362
535.414736	0.164147
535.630306	0.164372
535.845857	0.164154
536.061390	0.164700
536.276904	0.165342
536.492401	0.165610
536.707879	0.165876
536.923339	0.165868
537.138781	0.166337
537.354204	0.166475
537.569610	0.166667
537.784997	0.167060
538.000366	0.167253
538.215716	0.168578
538.431049	0.169008
538.646363	0.169533
538.861659	0.169986
539.076937	0.170644
539.292196	0.171114
539.507438	0.171899
539.722661	0.172319
539.937866	0.172601
540.153052	0.171792
540.368221	0.171920
540.583371	0.172219
540.798503	0.172315
541.013617	0.172340
541.228712	0.172505
541.443789	0.172188
541.658848	0.172937
541.873889	0.173355
542.088912	0.173838
542.303916	0.174119
542.518902	0.174047
542.733870	0.174548
542.948820	0.174700
543.163752	0.175282
543.378665	0.175625
543.593560	0.175952
543.808437	0.176485
544.023295	0.176476
544.238136	0.176353
544.452958	0.176760
544.667762	0.176955
544.882548	0.177449
545.097315	0.177047
545.312064	0.177427
545.526795	0.177067
545.741508	0.177220
545.956203	0.177856
546.170879	0.178464
546.385537	0.178968
546.600177	0.178715
546.814799	0.179196
547.029402	0.179463
547.243988	0.179222
547.458555	0.179460
547.673103	0.179384
547.887634	0.179366
548.102146	0.179350
548.316640	0.179604
548.531116	0.180530
548.745574	0.180298
548.960013	0.180982
549.174435	0.181906
549.388838	0.182305
549.603222	0.182414
549.817589	0.182816
550.031937	0.182650
550.246267	0.182617
550.460579	0.182499
550.674873	0.182673
550.889148	0.182775
551.103405	0.182471
551.317644	0.182689
551.531865	0.183127
551.746068	0.183732
551.960252	0.184446
552.174418	0.184598
552.388566	0.184817
552.602696	0.185527
552.816807	0.185584
553.030900	0.185818
553.244975	0.185944
553.459032	0.185917
553.673070	0.185705
553.887091	0.185190
554.101093	0.185207
554.315077	0.185014
554.529042	0.184444
554.742990	0.184459
554.956919	0.184418
555.170830	0.184053
555.384722	0.184343
555.598597	0.184346
555.812453	0.184687
556.026291	0.184783
556.240111	0.185159
556.453913	0.185601
556.667696	0.186031
556.881461	0.186100
557.095208	0.186089
557.308937	0.185988
557.522647	0.186197
557.736339	0.186829
557.950013	0.187293
558.163669	0.187433
558.377307	0.187401
558.590926	0.187052
558.804527	0.187628
559.018110	0.188252
559.231675	0.188436
559.445221	0.188626
559.658749	0.188748
559.872259	0.188490
560.085751	0.188644
560.299225	0.188652
560.512680	0.189114
560.726117	0.188951
560.939536	0.189318
561.152937	0.189696
561.366319	0.189825
561.579683	0.190082
561.793029	0.190167
562.006357	0.190284
562.219667	0.190076
562.432958	0.190115
562.646231	0.190461
562.859486	0.190680
563.072723	0.190453
563.285941	0.190526
563.499141	0.190370
563.712323	0.190751
563.925487	0.190925
564.138632	0.191469
564.351760	0.191605
564.564869	0.191555
564.777960	0.191191
564.991032	0.191343
565.204087	0.191077
565.417123	0.190934
565.630141	0.190590
565.843140	0.190491
566.056122	0.190340
566.269085	0.190424
566.482030	0.190526
566.694957	0.190371
566.907866	0.190619
567.120756	0.190716
567.333628	0.190764
567.546482	0.191428
567.759318	0.191234
567.972135	0.191392
568.184935	0.191783
568.397716	0.191606
568.610478	0.192011
568.823223	0.192110
569.035949	0.192203
569.248657	0.192530
569.461347	0.192325
569.674019	0.192747
569.886672	0.193099
570.099308	0.192655
570.311925	0.192883
570.524523	0.192894
570.737104	0.192545
570.949666	0.192467
571.162210	0.192545
571.374736	0.192412
571.587244	0.192270
571.799733	0.191802
572.012205	0.192467
572.224658	0.192513
572.437092	0.192858
572.649509	0.193254
572.861907	0.193638
573.074287	0.193919
573.286649	0.194213
573.498993	0.194545
573.711318	0.195068
573.923625	0.195107
574.135914	0.195330
574.348185	0.195116
574.560438	0.195177
574.772672	0.195514
574.984888	0.195451
575.197086	0.195771
575.409266	0.196145
575.621427	0.196352
575.833570	0.196272
576.045695	0.196491
576.257802	0.197118
576.469890	0.197415
576.681961	0.197371
576.894013	0.197549
577.106046	0.197745
577.318062	0.197757
577.530059	0.197733
577.742039	0.198137
577.954000	0.198435
578.165942	0.198071
578.377867	0.197987
578.589773	0.197895
578.801661	0.197905
579.013531	0.197715
579.225382	0.197225
579.437216	0.197303
579.649031	0.196880
579.860828	0.196936
580.072606	0.197146
580.284367	0.197286
580.496109	0.197674
580.707833	0.198047
580.919539	0.198238
581.131227	0.198942
581.342896	0.199255
581.554547	0.199607
581.766180	0.199484
581.977795	0.199867
582.189391	0.200018
582.400969	0.200022
582.612529	0.199596
582.824071	0.199836
583.035595	0.199857
583.247100	0.199388
583.458587	0.199491
583.670056	0.199719
583.881506	0.199559
584.092939	0.199676
584.304353	0.199708
584.515749	0.200431
584.727127	0.200812
584.938486	0.201401
585.149828	0.202097
585.361151	0.202391
585.572456	0.202308
585.783742	0.202478
585.995011	0.202832
586.206261	0.203092
586.417493	0.203120
586.628706	0.203169
586.839902	0.203060
587.051079	0.202742
587.262238	0.202559
587.473379	0.203203
587.684502	0.203173
587.895606	0.203346
588.106692	0.203946
588.317760	0.203902
588.528810	0.203941
588.739841	0.204162
588.950855	0.204447
589.161850	0.204602
589.372827	0.204449
589.583785	0.205035
589.794726	0.205065
590.005648	0.204968
590.216552	0.205307
590.427437	0.205204
590.638305	0.205402
590.849154	0.205819
591.059985	0.206050
591.270798	0.206249
591.481592	0.206265
591.692369	0.206566
591.903127	0.207006
592.113867	0.207236
592.324588	0.207606
592.535292	0.207601
592.745977	0.207924
592.956644	0.208394
593.167293	0.208483
593.377923	0.208847
593.588536	0.208489
593.799130	0.208155
594.009706	0.207969
594.220263	0.207966
594.430803	0.208042
594.641324	0.207724
594.851827	0.207348
595.062312	0.207600
595.272778	0.207590
595.483227	0.208145
595.693657	0.208680
595.904069	0.208958
596.114462	0.209002
596.324838	0.208704
596.535195	0.209119
596.745534	0.209768
596.955855	0.209817
597.166157	0.209908
597.376441	0.209954
597.586707	0.209949
597.796955	0.209785
598.007185	0.210284
598.217396	0.210692
598.427589	0.210678
598.637764	0.210478
598.847921	0.210814
599.058060	0.210943
599.268180	0.211329
599.478282	0.211485
599.688366	0.211834
599.898431	0.211893
600.108479	0.212450
600.318508	0.212553
600.528519	0.212645
600.738511	0.212602
600.948486	0.212922
601.158442	0.213075
601.368380	0.213454
601.578300	0.213816
601.788202	0.213995
601.998085	0.213911
602.207950	0.214015
602.417797	0.214311
602.627626	0.214684
602.837436	0.215113
603.047228	0.214968
603.257002	0.215050
603.466758	0.215343
603.676496	0.215455
603.886215	0.215381
604.095916	0.215817
604.305599	0.216091
604.515264	0.216384
604.724910	0.216116
604.934538	0.216247
605.144148	0.216252
605.353740	0.216544
605.563314	0.216793
605.772869	0.217218
605.982406	0.217201
606.191925	0.217627
606.401425	0.217549
606.610908	0.217854
606.820372	0.218126
607.029818	0.218192
607.239246	0.218199
607.448655	0.218319
607.658047	0.218743
607.867420	0.218766
608.076775	0.218348
608.286111	0.218448
608.495430	0.218422
608.704730	0.218390
608.914012	0.218278
609.123275	0.218198
609.332521	0.218263
609.541748	0.217922
609.750957	0.218454
609.960148	0.218996
610.169321	0.218934
610.378475	0.218754
610.587611	0.218966
610.796729	0.219267
611.005829	0.219393
611.214910	0.219486
611.423974	0.219742
611.633019	0.219864
611.842045	0.219863
612.051054	0.220281
612.260044	0.220983
612.469017	0.221018
612.677970	0.221460
612.886906	0.221820
613.095824	0.222007
613.304723	0.222218
613.513604	0.222670
613.722467	0.223234
613.931311	0.223362
614.140138	0.223320
614.348946	0.223881
614.557736	0.223764
614.766507	0.223928
614.975261	0.224206
615.183996	0.224289
615.392713	0.223986
615.601412	0.223545
615.810092	0.223813
616.018754	0.224031
616.227399	0.224142
616.436024	0.224553
616.644632	0.224811
616.853222	0.224825
617.061793	0.224951
617.270346	0.224985
617.478880	0.225209
617.687397	0.225035
617.895895	0.225194
618.104375	0.225280
618.312837	0.225194
618.521281	0.225095
618.729706	0.225340
618.938113	0.225774
619.146502	0.226221
619.354873	0.226777
619.563226	0.227156
619.771560	0.227165
619.979876	0.227374
620.188174	0.227706
620.396453	0.227865
620.604715	0.227754
620.812958	0.227755
621.021183	0.228014
621.229390	0.227962
621.437578	0.228336
621.645748	0.228539
621.853900	0.228637
622.062034	0.228478
622.270150	0.228671
622.478247	0.228887
622.686326	0.228898
622.894387	0.228946
623.102430	0.228929
623.310454	0.228778
623.518461	0.228948
623.726449	0.228900
623.934418	0.229356
624.142370	0.229577
624.350303	0.229994
624.558218	0.230367
624.766115	0.230259
624.973994	0.230329
625.181855	0.230545
625.389697	0.230748
625.597521	0.231322
625.805327	0.231410
626.013114	0.231591
626.220883	0.231685
626.428634	0.231482
626.636367	0.231770
626.844082	0.232113
627.051778	0.232165
627.259457	0.232372
627.467117	0.232373
627.674758	0.232355
627.882382	0.232557
628.089987	0.232491
628.297574	0.233072
628.505143	0.233236
628.712694	0.233614
628.920226	0.233881
629.127740	0.233811
629.335236	0.233721
629.542714	0.234184
629.750174	0.234129
629.957615	0.234341
630.165038	0.234400
630.372443	0.234628
630.579829	0.234523
630.787198	0.234834
630.994548	0.235115
631.201880	0.235507
631.409194	0.235525
631.616489	0.235832
631.823766	0.236188
632.031025	0.236164
632.238266	0.236463
632.445489	0.236558
632.652693	0.236582
632.859879	0.236662
633.067047	0.236482
633.274197	0.236367
633.481329	0.236439
633.688442	0.236229
633.895537	0.236589
634.102614	0.236535
634.309672	0.236726
634.516713	0.236544
634.723735	0.236813
634.930739	0.237047
635.137724	0.237418
635.344692	0.237612
635.551641	0.237820
635.758572	0.237616
635.965485	0.237754
636.172379	0.237804
636.379256	0.238241
636.586114	0.238419
636.792954	0.238793
636.999775	0.238862
637.206579	0.238808
637.413364	0.239303
637.620131	0.239450
637.826880	0.239783
638.033610	0.239857
638.240323	0.239896
638.447017	0.239866
638.653692	0.239902
638.860350	0.240137
639.066990	0.240277
639.273611	0.240193
639.480214	0.240725
639.686798	0.240695
639.893365	0.241308
640.099913	0.241826
640.306443	0.242169
640.512955	0.242291
640.719449	0.242492
640.925924	0.242762
641.132381	0.243175
641.338820	0.243266
641.545241	0.243522
641.751644	0.243354
641.958028	0.243031
642.164394	0.243110
642.370742	0.243316
642.577071	0.243273
642.783383	0.243257
642.989676	0.243164
643.195951	0.243307
643.402207	0.243278
643.608446	0.243345
643.814666	0.243655
644.020868	0.243945
644.227052	0.244050
644.433218	0.244385
644.639365	0.244767
644.845494	0.245087
645.051605	0.245112
645.257698	0.245380
645.463772	0.245655
645.669828	0.245906
645.875866	0.246151
646.081886	0.246366
646.287888	0.246453
646.493871	0.246651
646.699836	0.246769
646.905783	0.246925
647.111712	0.247140
647.317622	0.247518
647.523514	0.247933
647.729388	0.247813
647.935244	0.247905
648.141082	0.248192
648.346901	0.248165
648.552702	0.248437
648.758485	0.248592
648.964250	0.248875
649.169996	0.248887
649.375724	0.249004
649.581434	0.249514
649.787126	0.249955
649.992800	0.250093
650.198455	0.250433
650.404092	0.250555
650.609711	0.250897
650.815311	0.250914
651.020894	0.251086
651.226458	0.251177
651.432004	0.251225
651.637532	0.251151
651.843041	0.251352
652.048532	0.251446
652.254006	0.251754
652.459460	0.251856
652.664897	0.252066
652.870315	0.251997
653.075716	0.251901
653.281097	0.252108
653.486461	0.252245
653.691807	0.252447
653.897134	0.252813
654.102443	0.252815
654.307734	0.252784
654.513006	0.253142
654.718261	0.253449
654.923497	0.253770
655.128715	0.253915
655.333915	0.254155
655.539096	0.254153
655.744259	0.254347
655.949404	0.254667
656.154531	0.255030
656.359640	0.254907
656.564730	0.255121
656.769802	0.255263
656.974856	0.255253
657.179892	0.255426
657.384909	0.255811
657.589908	0.256016
657.794889	0.256063
657.999852	0.256295
658.204797	0.256593
658.409723	0.257031
658.614631	0.257004
658.819521	0.257300
659.024393	0.257519
659.229246	0.257652
659.434081	0.257755
659.638898	0.258109
659.843697	0.258358
660.048478	0.258524
660.253240	0.258659
660.457984	0.259231
660.662710	0.259569
660.867417	0.260001
661.072107	0.260239
661.276778	0.260480
661.481431	0.260542
661.686066	0.260633
661.890682	0.260982
662.095281	0.261137
662.299861	0.261331
662.504422	0.261459
662.708966	0.261647
662.913491	0.261890
663.117999	0.262022
663.322488	0.262153
663.526958	0.262303
663.731411	0.262496
663.935845	0.262688
664.140261	0.262934
664.344659	0.262974
664.549038	0.263233
664.753400	0.263314
664.957743	0.263542
665.162068	0.263884
665.366375	0.264252
665.570663	0.264308
665.774933	0.264805
665.979185	0.264978
666.183419	0.265311
666.387635	0.265381
666.591832	0.265601
666.796011	0.265891
667.000172	0.265957
667.204315	0.266314
667.408439	0.266750
667.612545	0.266541
667.816634	0.266711
668.020703	0.267015
668.224755	0.267174
668.428788	0.267551
668.632803	0.267799
668.836800	0.267835
669.040779	0.268065
669.244739	0.268094
669.448681	0.268372
669.652605	0.268480
669.856511	0.268854
670.060399	0.269135
670.264268	0.269197
670.468119	0.269296
670.671952	0.269629
670.875767	0.269655
671.079563	0.270099
671.283341	0.270385
671.487101	0.270737
671.690843	0.270771
671.894567	0.270885
672.098272	0.271273
672.301959	0.271467
672.505628	0.271821
672.709278	0.272064
672.912911	0.272196
673.116525	0.272245
673.320121	0.272320
673.523699	0.272568
673.727258	0.272920
673.930799	0.272916
674.134322	0.273230
674.337827	0.273580
674.541314	0.273776
674.744782	0.273869
674.948232	0.274269
675.151664	0.274507
675.355078	0.274768
675.558474	0.275083
675.761851	0.275085
675.965210	0.275319
676.168551	0.275288
676.371873	0.275397
676.575178	0.275470
676.778464	0.275385
676.981732	0.275676
677.184981	0.275674
677.388213	0.275728
677.591426	0.276150
677.794621	0.276378
677.997798	0.276953
678.200956	0.277332
678.404097	0.277525
678.607219	0.277784
678.810323	0.277906
679.013408	0.278039
679.216476	0.278163
679.419525	0.278585
679.622556	0.278410
679.825569	0.278232
680.028563	0.278279
680.231540	0.278694
680.434498	0.279009
680.637438	0.279319
680.840359	0.279706
681.043263	0.279852
681.246148	0.279883
681.449015	0.280386
681.651864	0.280489
681.854694	0.280662
682.057506	0.280643
682.260301	0.280963
682.463076	0.281002
682.665834	0.280926
682.868573	0.281201
683.071295	0.281249
683.273998	0.281373
683.476682	0.281621
683.679349	0.281612
683.881997	0.281760
684.084627	0.281821
684.287239	0.281922
684.489833	0.282098
684.692408	0.281862
684.894965	0.281892
685.097504	0.281767
685.300025	0.281762
685.502527	0.282156
685.705012	0.282410
685.907478	0.282466
686.109925	0.282494
686.312355	0.282923
686.514766	0.283357
686.717159	0.283574
686.919534	0.283814
687.121891	0.284224
687.324230	0.284209
687.526550	0.284505
687.728852	0.284590
687.931136	0.284747
688.133401	0.284911
688.335649	0.285124
688.537878	0.285318
688.740089	0.285705
688.942281	0.285865
689.144456	0.285968
689.346612	0.286140
689.548750	0.286318
689.750870	0.286714
689.952971	0.286554
690.155055	0.286842
690.357120	0.286950
690.559167	0.286969
690.761195	0.287043
690.963206	0.287414
691.165198	0.287387
691.367172	0.287727
691.569128	0.287753
691.771065	0.288022
691.972984	0.287971
692.174885	0.288231
692.376768	0.288243
692.578633	0.288458
692.780479	0.288614
692.982308	0.288896
693.184118	0.289119
693.385909	0.289308
693.587683	0.289637
