sample name	sample
index	616
start time	 03-19-2021  02:13:49 PM


Wavelength (nm)	Absorbance
494.344910	0.162434
494.563924	0.162434
494.782919	0.162434
495.001897	-0.140830
495.220856	0.067279
495.439797	0.035419
495.658719	0.027578
495.877624	-0.037942
496.096510	-0.015852
496.315378	-0.016542
496.534227	-0.024742
496.753059	-0.028072
496.971872	-0.012491
497.190667	0.101278
497.409444	0.126371
497.628203	0.127931
497.846943	0.131181
498.065665	0.133323
498.284369	0.134658
498.503055	0.135186
498.721723	0.135422
498.940372	0.133615
499.159003	0.133719
499.377616	0.132773
499.596210	0.133108
499.814787	0.133337
500.033345	0.134201
500.251885	0.133141
500.470406	0.133128
500.688910	0.133365
500.907395	0.135362
501.125862	0.135533
501.344311	0.134913
501.562742	0.134402
501.781154	0.135235
501.999548	0.134386
502.217924	0.134348
502.436282	0.134783
502.654621	0.134070
502.872942	0.133662
503.091245	0.132811
503.309530	0.133938
503.527797	0.134102
503.746045	0.132654
503.964275	0.133402
504.182487	0.135102
504.400681	0.135574
504.618856	0.135717
504.837013	0.136667
505.055152	0.137075
505.273273	0.136800
505.491376	0.137033
505.709460	0.138074
505.927526	0.136210
506.145574	0.135352
506.363604	0.135321
506.581615	0.136278
506.799608	0.135146
507.017583	0.135863
507.235540	0.135676
507.453478	0.135697
507.671399	0.134712
507.889301	0.135993
508.107185	0.136362
508.325050	0.136218
508.542898	0.135635
508.760727	0.136403
508.978538	0.135783
509.196330	0.136518
509.414105	0.136867
509.631861	0.137843
509.849599	0.137787
510.067319	0.137301
510.285021	0.136921
510.502704	0.136661
510.720369	0.136300
510.938016	0.136473
511.155645	0.136463
511.373255	0.137280
511.590848	0.137994
511.808422	0.138768
512.025977	0.140046
512.243515	0.140874
512.461034	0.140374
512.678536	0.140600
512.896018	0.140689
513.113483	0.140898
513.330930	0.140779
513.548358	0.140207
513.765768	0.139977
513.983160	0.140229
514.200533	0.141131
514.417889	0.142649
514.635226	0.143796
514.852545	0.144077
515.069845	0.144005
515.287128	0.143738
515.504392	0.143831
515.721638	0.143508
515.938866	0.142738
516.156075	0.142159
516.373267	0.142204
516.590440	0.142444
516.807594	0.143302
517.024731	0.143929
517.241850	0.144455
517.458950	0.144891
517.676032	0.145869
517.893095	0.146624
518.110141	0.147049
518.327168	0.147057
518.544177	0.145759
518.761168	0.145838
518.978141	0.145672
519.195095	0.145616
519.412031	0.145982
519.628949	0.145942
519.845849	0.145423
520.062731	0.144887
520.279594	0.145165
520.496439	0.145957
520.713266	0.145423
520.930074	0.146077
521.146865	0.146134
521.363637	0.146394
521.580391	0.146279
521.797127	0.146148
522.013844	0.147037
522.230543	0.146976
522.447224	0.147211
522.663887	0.147376
522.880532	0.147847
523.097158	0.148600
523.313766	0.148508
523.530356	0.149067
523.746928	0.149888
523.963481	0.149781
524.180017	0.149582
524.396534	0.150323
524.613032	0.150553
524.829513	0.150452
525.045975	0.149547
525.262420	0.149728
525.478845	0.149829
525.695253	0.149763
525.911643	0.149483
526.128014	0.150039
526.344367	0.149339
526.560702	0.149825
526.777018	0.149710
526.993316	0.151240
527.209597	0.151226
527.425858	0.151359
527.642102	0.151564
527.858328	0.152172
528.074535	0.152788
528.290724	0.153316
528.506894	0.153486
528.723047	0.153831
528.939181	0.154021
529.155297	0.154647
529.371395	0.154638
529.587475	0.155006
529.803536	0.154739
530.019579	0.155190
530.235604	0.155299
530.451611	0.156412
530.667600	0.157146
530.883570	0.156896
531.099522	0.157338
531.315456	0.158054
531.531372	0.157812
531.747269	0.158749
531.963148	0.158592
532.179009	0.159606
532.394852	0.159247
532.610676	0.158489
532.826482	0.158423
533.042271	0.158535
533.258040	0.158851
533.473792	0.159946
533.689525	0.159928
533.905240	0.160511
534.120937	0.160223
534.336616	0.160608
534.552277	0.161678
534.767919	0.161927
534.983543	0.162047
535.199149	0.162582
535.414736	0.163089
535.630306	0.163841
535.845857	0.163671
536.061390	0.164435
536.276904	0.164294
536.492401	0.164013
536.707879	0.164602
536.923339	0.164823
537.138781	0.165302
537.354204	0.165309
537.569610	0.165548
537.784997	0.165900
538.000366	0.165670
538.215716	0.166467
538.431049	0.166923
538.646363	0.166701
538.861659	0.167074
539.076937	0.167196
539.292196	0.167256
539.507438	0.167405
539.722661	0.167629
539.937866	0.168020
540.153052	0.167950
540.368221	0.168225
540.583371	0.168928
540.798503	0.169157
541.013617	0.168924
541.228712	0.169141
541.443789	0.169522
541.658848	0.169678
541.873889	0.170035
542.088912	0.170295
542.303916	0.170905
542.518902	0.171142
542.733870	0.171280
542.948820	0.171315
543.163752	0.171520
543.378665	0.171591
543.593560	0.172544
543.808437	0.172821
544.023295	0.172765
544.238136	0.172638
544.452958	0.172685
544.667762	0.172915
544.882548	0.173582
545.097315	0.173887
545.312064	0.173997
545.526795	0.173685
545.741508	0.174105
545.956203	0.174531
546.170879	0.175031
546.385537	0.175407
546.600177	0.175201
546.814799	0.175121
547.029402	0.175016
547.243988	0.175140
547.458555	0.175293
547.673103	0.175007
547.887634	0.175412
548.102146	0.175225
548.316640	0.175568
548.531116	0.175983
548.745574	0.176115
548.960013	0.177057
549.174435	0.177035
549.388838	0.177510
549.603222	0.177989
549.817589	0.178207
550.031937	0.179245
550.246267	0.179115
550.460579	0.179165
550.674873	0.179499
550.889148	0.179249
551.103405	0.179346
551.317644	0.179520
551.531865	0.179674
551.746068	0.179487
551.960252	0.179195
552.174418	0.179490
552.388566	0.179792
552.602696	0.180242
552.816807	0.180567
553.030900	0.181112
553.244975	0.180895
553.459032	0.181312
553.673070	0.181663
553.887091	0.181350
554.101093	0.181500
554.315077	0.181732
554.529042	0.181972
554.742990	0.182149
554.956919	0.182186
555.170830	0.183103
555.384722	0.183211
555.598597	0.183275
555.812453	0.183835
556.026291	0.184278
556.240111	0.184694
556.453913	0.184555
556.667696	0.184635
556.881461	0.185155
557.095208	0.184781
557.308937	0.184621
557.522647	0.185019
557.736339	0.185076
557.950013	0.184642
558.163669	0.184779
558.377307	0.184930
558.590926	0.184931
558.804527	0.184784
559.018110	0.184835
559.231675	0.185060
559.445221	0.184881
559.658749	0.185243
559.872259	0.185916
560.085751	0.186386
560.299225	0.186615
560.512680	0.186756
560.726117	0.186896
560.939536	0.187244
561.152937	0.187729
561.366319	0.187883
561.579683	0.187755
561.793029	0.188243
562.006357	0.187616
562.219667	0.187641
562.432958	0.188020
562.646231	0.188167
562.859486	0.188253
563.072723	0.188169
563.285941	0.188686
563.499141	0.188765
563.712323	0.188089
563.925487	0.188890
564.138632	0.188992
564.351760	0.188840
564.564869	0.189100
564.777960	0.189310
564.991032	0.189494
565.204087	0.189083
565.417123	0.189390
565.630141	0.189715
565.843140	0.189413
566.056122	0.189599
566.269085	0.189526
566.482030	0.189727
566.694957	0.189553
566.907866	0.189898
567.120756	0.190464
567.333628	0.190385
567.546482	0.190643
567.759318	0.190819
567.972135	0.191052
568.184935	0.191638
568.397716	0.191996
568.610478	0.192209
568.823223	0.191999
569.035949	0.192026
569.248657	0.192779
569.461347	0.192973
569.674019	0.193298
569.886672	0.193133
570.099308	0.193119
570.311925	0.192648
570.524523	0.192615
570.737104	0.192462
570.949666	0.192681
571.162210	0.192317
571.374736	0.192442
571.587244	0.192811
571.799733	0.193069
572.012205	0.193296
572.224658	0.193704
572.437092	0.194131
572.649509	0.194635
572.861907	0.194600
573.074287	0.194955
573.286649	0.194871
573.498993	0.194821
573.711318	0.194536
573.923625	0.194555
574.135914	0.194890
574.348185	0.195307
574.560438	0.195364
574.772672	0.195631
574.984888	0.195800
575.197086	0.196153
575.409266	0.196238
575.621427	0.196822
575.833570	0.196990
576.045695	0.196984
576.257802	0.196619
576.469890	0.196861
576.681961	0.197226
576.894013	0.197407
577.106046	0.197706
577.318062	0.197702
577.530059	0.197532
577.742039	0.197313
577.954000	0.197426
578.165942	0.197965
578.377867	0.198180
578.589773	0.197974
578.801661	0.197704
579.013531	0.197500
579.225382	0.197910
579.437216	0.198241
579.649031	0.198743
579.860828	0.198723
580.072606	0.198468
580.284367	0.198651
580.496109	0.198672
580.707833	0.199042
580.919539	0.199169
581.131227	0.199144
581.342896	0.199514
581.554547	0.199743
581.766180	0.199968
581.977795	0.200090
582.189391	0.199813
582.400969	0.200283
582.612529	0.200234
582.824071	0.200295
583.035595	0.200194
583.247100	0.200023
583.458587	0.199894
583.670056	0.200216
583.881506	0.200654
584.092939	0.200878
584.304353	0.200674
584.515749	0.200573
584.727127	0.200936
584.938486	0.201244
585.149828	0.201228
585.361151	0.201490
585.572456	0.201346
585.783742	0.201086
585.995011	0.201370
586.206261	0.201598
586.417493	0.202194
586.628706	0.202603
586.839902	0.202822
587.051079	0.203022
587.262238	0.203265
587.473379	0.203412
587.684502	0.203775
587.895606	0.204149
588.106692	0.204461
588.317760	0.204006
588.528810	0.203673
588.739841	0.203326
588.950855	0.203742
589.161850	0.203493
589.372827	0.203865
589.583785	0.204075
589.794726	0.203617
590.005648	0.203540
590.216552	0.204127
590.427437	0.204337
590.638305	0.204613
590.849154	0.204646
591.059985	0.205058
591.270798	0.205062
591.481592	0.205220
591.692369	0.205710
591.903127	0.205816
592.113867	0.205973
592.324588	0.206083
592.535292	0.206282
592.745977	0.206508
592.956644	0.206528
593.167293	0.206599
593.377923	0.206676
593.588536	0.206757
593.799130	0.207068
594.009706	0.207340
594.220263	0.207234
594.430803	0.207610
594.641324	0.207941
594.851827	0.208372
595.062312	0.208744
595.272778	0.208978
595.483227	0.209067
595.693657	0.209474
595.904069	0.209535
596.114462	0.209926
596.324838	0.209854
596.535195	0.209772
596.745534	0.209654
596.955855	0.209718
597.166157	0.209680
597.376441	0.209293
597.586707	0.208878
597.796955	0.208934
598.007185	0.209412
598.217396	0.209751
598.427589	0.210136
598.637764	0.210116
598.847921	0.209886
599.058060	0.210180
599.268180	0.210514
599.478282	0.210747
599.688366	0.210815
599.898431	0.210813
600.108479	0.210575
600.318508	0.210403
600.528519	0.210546
600.738511	0.211076
600.948486	0.211138
601.158442	0.211600
601.368380	0.211675
601.578300	0.211504
601.788202	0.211688
601.998085	0.212032
602.207950	0.212376
602.417797	0.212563
602.627626	0.212515
602.837436	0.212266
603.047228	0.212301
603.257002	0.212414
603.466758	0.212666
603.676496	0.212243
603.886215	0.212352
604.095916	0.212188
604.305599	0.212505
604.515264	0.212378
604.724910	0.212826
604.934538	0.212665
605.144148	0.212873
605.353740	0.213225
605.563314	0.213688
605.772869	0.213917
605.982406	0.214098
606.191925	0.214453
606.401425	0.214708
606.610908	0.214785
606.820372	0.215552
607.029818	0.215503
607.239246	0.215516
607.448655	0.215695
607.658047	0.215667
607.867420	0.215742
608.076775	0.215550
608.286111	0.215713
608.495430	0.215679
608.704730	0.215961
608.914012	0.216179
609.123275	0.216486
609.332521	0.216459
609.541748	0.216590
609.750957	0.216480
609.960148	0.216580
610.169321	0.216814
610.378475	0.217062
610.587611	0.216681
610.796729	0.217023
611.005829	0.216661
611.214910	0.216765
611.423974	0.216790
611.633019	0.217146
611.842045	0.217369
612.051054	0.217330
612.260044	0.217270
612.469017	0.217227
612.677970	0.217146
612.886906	0.217241
613.095824	0.217440
613.304723	0.217833
613.513604	0.218031
613.722467	0.217811
613.931311	0.217694
614.140138	0.217960
614.348946	0.217977
614.557736	0.218036
614.766507	0.218563
614.975261	0.218303
615.183996	0.218172
615.392713	0.218151
615.601412	0.218569
615.810092	0.219124
616.018754	0.219295
616.227399	0.219586
616.436024	0.219772
616.644632	0.219652
616.853222	0.219992
617.061793	0.220257
617.270346	0.220546
617.478880	0.220397
617.687397	0.220209
617.895895	0.220120
618.104375	0.220311
618.312837	0.220622
618.521281	0.220658
618.729706	0.220765
618.938113	0.220713
619.146502	0.220561
619.354873	0.220841
619.563226	0.221089
619.771560	0.221214
619.979876	0.221172
620.188174	0.221135
620.396453	0.221362
620.604715	0.221382
620.812958	0.221380
621.021183	0.221524
621.229390	0.221428
621.437578	0.221468
621.645748	0.221765
621.853900	0.221923
622.062034	0.222084
622.270150	0.222314
622.478247	0.222444
622.686326	0.222562
622.894387	0.222879
623.102430	0.223103
623.310454	0.223386
623.518461	0.223523
623.726449	0.223995
623.934418	0.223958
624.142370	0.223923
624.350303	0.224229
624.558218	0.224044
624.766115	0.223997
624.973994	0.224006
625.181855	0.223526
625.389697	0.223219
625.597521	0.223203
625.805327	0.223246
626.013114	0.223418
626.220883	0.223263
626.428634	0.223901
626.636367	0.223985
626.844082	0.224154
627.051778	0.224533
627.259457	0.224933
627.467117	0.224826
627.674758	0.224969
627.882382	0.224844
628.089987	0.225171
628.297574	0.225498
628.505143	0.225758
628.712694	0.225988
628.920226	0.226203
629.127740	0.226372
629.335236	0.226622
629.542714	0.226869
629.750174	0.227178
629.957615	0.227206
630.165038	0.226898
630.372443	0.226900
630.579829	0.226871
630.787198	0.226921
630.994548	0.226796
631.201880	0.227032
631.409194	0.226918
631.616489	0.227031
631.823766	0.227422
632.031025	0.227911
632.238266	0.227990
632.445489	0.227962
632.652693	0.228039
632.859879	0.228063
633.067047	0.227950
633.274197	0.228184
633.481329	0.228259
633.688442	0.228208
633.895537	0.228077
634.102614	0.228009
634.309672	0.228479
634.516713	0.228571
634.723735	0.228875
634.930739	0.228979
635.137724	0.228983
635.344692	0.228964
635.551641	0.229022
635.758572	0.228862
635.965485	0.229105
636.172379	0.229025
636.379256	0.229449
636.586114	0.229592
636.792954	0.229598
636.999775	0.230104
637.206579	0.230438
637.413364	0.230621
637.620131	0.230897
637.826880	0.231022
638.033610	0.231464
638.240323	0.231304
638.447017	0.231454
638.653692	0.231589
638.860350	0.231327
639.066990	0.231532
639.273611	0.231522
639.480214	0.231891
639.686798	0.232142
639.893365	0.231951
640.099913	0.232114
640.306443	0.232114
640.512955	0.232554
640.719449	0.232674
640.925924	0.232886
641.132381	0.233163
641.338820	0.233129
641.545241	0.233285
641.751644	0.233389
641.958028	0.233547
642.164394	0.234062
642.370742	0.233983
642.577071	0.234440
642.783383	0.234284
642.989676	0.234224
643.195951	0.234382
643.402207	0.234353
643.608446	0.234426
643.814666	0.234568
644.020868	0.234420
644.227052	0.234380
644.433218	0.234431
644.639365	0.234553
644.845494	0.234830
645.051605	0.234868
645.257698	0.235033
645.463772	0.235521
645.669828	0.235655
645.875866	0.235738
646.081886	0.236299
646.287888	0.236289
646.493871	0.236632
646.699836	0.236463
646.905783	0.236746
647.111712	0.236977
647.317622	0.236814
647.523514	0.237031
647.729388	0.237169
647.935244	0.237196
648.141082	0.237594
648.346901	0.237715
648.552702	0.238308
648.758485	0.238500
648.964250	0.238715
649.169996	0.238757
649.375724	0.238903
649.581434	0.239334
649.787126	0.239235
649.992800	0.239181
650.198455	0.239279
650.404092	0.239300
650.609711	0.239445
650.815311	0.239576
651.020894	0.239807
651.226458	0.240109
651.432004	0.240012
651.637532	0.240106
651.843041	0.240285
652.048532	0.240228
652.254006	0.240435
652.459460	0.240399
652.664897	0.240508
652.870315	0.240638
653.075716	0.240450
653.281097	0.240679
653.486461	0.240800
653.691807	0.240762
653.897134	0.240741
654.102443	0.240741
654.307734	0.240850
654.513006	0.240921
654.718261	0.241133
654.923497	0.241677
655.128715	0.241802
655.333915	0.241852
655.539096	0.242196
655.744259	0.242670
655.949404	0.242793
656.154531	0.243123
656.359640	0.243258
656.564730	0.243578
656.769802	0.243460
656.974856	0.243639
657.179892	0.243939
657.384909	0.243880
657.589908	0.244262
657.794889	0.244580
657.999852	0.244652
658.204797	0.244906
658.409723	0.245001
658.614631	0.245213
658.819521	0.245266
659.024393	0.245714
659.229246	0.246056
659.434081	0.245911
659.638898	0.246172
659.843697	0.246461
660.048478	0.246644
660.253240	0.246751
660.457984	0.246758
660.662710	0.247190
660.867417	0.247138
661.072107	0.247016
661.276778	0.247539
661.481431	0.247527
661.686066	0.247434
661.890682	0.247475
662.095281	0.247813
662.299861	0.248047
662.504422	0.247867
662.708966	0.248081
662.913491	0.248689
663.117999	0.248514
663.322488	0.248648
663.526958	0.248937
663.731411	0.249115
663.935845	0.249149
664.140261	0.249294
664.344659	0.249473
664.549038	0.249686
664.753400	0.249658
664.957743	0.249860
665.162068	0.249904
665.366375	0.250044
665.570663	0.250247
665.774933	0.250560
665.979185	0.250845
666.183419	0.251185
666.387635	0.251212
666.591832	0.251469
666.796011	0.251628
667.000172	0.252041
667.204315	0.251909
667.408439	0.251916
667.612545	0.251901
667.816634	0.251868
668.020703	0.251787
668.224755	0.252034
668.428788	0.252153
668.632803	0.252249
668.836800	0.252239
669.040779	0.252753
669.244739	0.252969
669.448681	0.253166
669.652605	0.253465
669.856511	0.253835
670.060399	0.253893
670.264268	0.254023
670.468119	0.254206
670.671952	0.254392
670.875767	0.254388
671.079563	0.254712
671.283341	0.254793
671.487101	0.255048
671.690843	0.255360
671.894567	0.255520
672.098272	0.255679
672.301959	0.255993
672.505628	0.256160
672.709278	0.256521
672.912911	0.256671
673.116525	0.256888
673.320121	0.256949
673.523699	0.257022
673.727258	0.257382
673.930799	0.257290
674.134322	0.257443
674.337827	0.257575
674.541314	0.257746
674.744782	0.257859
674.948232	0.258015
675.151664	0.258346
675.355078	0.258400
675.558474	0.258442
675.761851	0.258855
675.965210	0.259069
676.168551	0.259151
676.371873	0.259279
676.575178	0.259504
676.778464	0.259575
676.981732	0.259474
677.184981	0.259658
677.388213	0.259691
677.591426	0.259948
677.794621	0.260138
677.997798	0.260320
678.200956	0.260371
678.404097	0.260401
678.607219	0.260574
678.810323	0.260757
679.013408	0.260738
679.216476	0.261265
679.419525	0.261334
679.622556	0.260997
679.825569	0.261264
680.028563	0.261455
680.231540	0.261620
680.434498	0.261696
680.637438	0.262026
680.840359	0.262223
681.043263	0.262074
681.246148	0.261995
681.449015	0.262371
681.651864	0.262242
681.854694	0.262325
682.057506	0.262514
682.260301	0.262597
682.463076	0.262683
682.665834	0.262776
682.868573	0.262911
683.071295	0.263222
683.273998	0.263495
683.476682	0.263936
683.679349	0.264251
683.881997	0.264564
684.084627	0.265049
684.287239	0.265189
684.489833	0.265412
684.692408	0.265606
684.894965	0.265545
685.097504	0.265628
685.300025	0.265710
685.502527	0.265763
685.705012	0.265579
685.907478	0.265694
686.109925	0.265710
686.312355	0.265832
686.514766	0.265991
686.717159	0.266496
686.919534	0.266611
687.121891	0.266643
687.324230	0.266810
687.526550	0.267193
687.728852	0.267009
687.931136	0.267168
688.133401	0.267392
688.335649	0.267375
688.537878	0.267108
688.740089	0.267256
688.942281	0.267605
689.144456	0.267757
689.346612	0.267751
689.548750	0.268090
689.750870	0.268492
689.952971	0.268422
690.155055	0.268684
690.357120	0.269127
690.559167	0.269205
690.761195	0.269268
690.963206	0.269324
691.165198	0.269481
691.367172	0.269537
691.569128	0.269467
691.771065	0.270036
691.972984	0.270239
692.174885	0.270408
692.376768	0.270663
692.578633	0.270619
692.780479	0.270914
692.982308	0.271051
693.184118	0.271275
693.385909	0.271283
