sample name	sample
index	104
start time	 02-15-2021  11:22:12 AM


Wavelength (nm)	Absorbance
494.344910	0.604419
494.563924	0.604419
494.782919	0.604419
495.001897	-0.481885
495.220856	-0.002237
495.439797	-0.007325
495.658719	0.049635
495.877624	0.021312
496.096510	0.113778
496.315378	0.030827
496.534227	0.058331
496.753059	0.051601
496.971872	0.098533
497.190667	0.098542
497.409444	0.093633
497.628203	0.083818
497.846943	0.086221
498.065665	0.090265
498.284369	0.096050
498.503055	0.098577
498.721723	0.099197
498.940372	0.101142
499.159003	0.100590
499.377616	0.100789
499.596210	0.103888
499.814787	0.103755
500.033345	0.102777
500.251885	0.106259
500.470406	0.105528
500.688910	0.104020
500.907395	0.103588
501.125862	0.102955
501.344311	0.104512
501.562742	0.102389
501.781154	0.102375
501.999548	0.103124
502.217924	0.098136
502.436282	0.099875
502.654621	0.100898
502.872942	0.099032
503.091245	0.101378
503.309530	0.099897
503.527797	0.102351
503.746045	0.104276
503.964275	0.104119
504.182487	0.105167
504.400681	0.103428
504.618856	0.103669
504.837013	0.106197
505.055152	0.103553
505.273273	0.104180
505.491376	0.103671
505.709460	0.102838
505.927526	0.101587
506.145574	0.103750
506.363604	0.103725
506.581615	0.106076
506.799608	0.105450
507.017583	0.108613
507.235540	0.109329
507.453478	0.111696
507.671399	0.113185
507.889301	0.114644
508.107185	0.113268
508.325050	0.115732
508.542898	0.113392
508.760727	0.113862
508.978538	0.114300
509.196330	0.114604
509.414105	0.113956
509.631861	0.114843
509.849599	0.114701
510.067319	0.115503
510.285021	0.113846
510.502704	0.114696
510.720369	0.116256
510.938016	0.115660
511.155645	0.115511
511.373255	0.114464
511.590848	0.114158
511.808422	0.114211
512.025977	0.114424
512.243515	0.117320
512.461034	0.119034
512.678536	0.116467
512.896018	0.115931
513.113483	0.119474
513.330930	0.120611
513.548358	0.119460
513.765768	0.119631
513.983160	0.120646
514.200533	0.119671
514.417889	0.118892
514.635226	0.120288
514.852545	0.120760
515.069845	0.117593
515.287128	0.115712
515.504392	0.117428
515.721638	0.118287
515.938866	0.116067
516.156075	0.114615
516.373267	0.115697
516.590440	0.116079
516.807594	0.117924
517.024731	0.120684
517.241850	0.121698
517.458950	0.122435
517.676032	0.121029
517.893095	0.124053
518.110141	0.124918
518.327168	0.124886
518.544177	0.124596
518.761168	0.122835
518.978141	0.123407
519.195095	0.124744
519.412031	0.122347
519.628949	0.125518
519.845849	0.125198
520.062731	0.125542
520.279594	0.126811
520.496439	0.128264
520.713266	0.128178
520.930074	0.125830
521.146865	0.126550
521.363637	0.129390
521.580391	0.128019
521.797127	0.125658
522.013844	0.125181
522.230543	0.124660
522.447224	0.123320
522.663887	0.125863
522.880532	0.126910
523.097158	0.127171
523.313766	0.126742
523.530356	0.127245
523.746928	0.128045
523.963481	0.129937
524.180017	0.128405
524.396534	0.130618
524.613032	0.130419
524.829513	0.130793
525.045975	0.130716
525.262420	0.130730
525.478845	0.130566
525.695253	0.132457
525.911643	0.130639
526.128014	0.132109
526.344367	0.131459
526.560702	0.130423
526.777018	0.130784
526.993316	0.131380
527.209597	0.132038
527.425858	0.133483
527.642102	0.132827
527.858328	0.135175
528.074535	0.134321
528.290724	0.133725
528.506894	0.135340
528.723047	0.136662
528.939181	0.136423
529.155297	0.136342
529.371395	0.135966
529.587475	0.137482
529.803536	0.137865
530.019579	0.139332
530.235604	0.140407
530.451611	0.140103
530.667600	0.139379
530.883570	0.140514
531.099522	0.139975
531.315456	0.140308
531.531372	0.141103
531.747269	0.140484
531.963148	0.140706
532.179009	0.141963
532.394852	0.141819
532.610676	0.141613
532.826482	0.140985
533.042271	0.141444
533.258040	0.141767
533.473792	0.141540
533.689525	0.141773
533.905240	0.141448
534.120937	0.140561
534.336616	0.141261
534.552277	0.142522
534.767919	0.141447
534.983543	0.142139
535.199149	0.142323
535.414736	0.141622
535.630306	0.142321
535.845857	0.143223
536.061390	0.144713
536.276904	0.144981
536.492401	0.144831
536.707879	0.147428
536.923339	0.147877
537.138781	0.148350
537.354204	0.148486
537.569610	0.148668
537.784997	0.148931
538.000366	0.148579
538.215716	0.148389
538.431049	0.148019
538.646363	0.148097
538.861659	0.149010
539.076937	0.149728
539.292196	0.150969
539.507438	0.151450
539.722661	0.152044
539.937866	0.151431
540.153052	0.153196
540.368221	0.155978
540.583371	0.155407
540.798503	0.155977
541.013617	0.156087
541.228712	0.156354
541.443789	0.156392
541.658848	0.155985
541.873889	0.157487
542.088912	0.156274
542.303916	0.154581
542.518902	0.155076
542.733870	0.155491
542.948820	0.156193
543.163752	0.156706
543.378665	0.157146
543.593560	0.157910
543.808437	0.156675
544.023295	0.157513
544.238136	0.158075
544.452958	0.158573
544.667762	0.157625
544.882548	0.156680
545.097315	0.156590
545.312064	0.156306
545.526795	0.156436
545.741508	0.157518
545.956203	0.158302
546.170879	0.158158
546.385537	0.157812
546.600177	0.158841
546.814799	0.159092
547.029402	0.159162
547.243988	0.159563
547.458555	0.160228
547.673103	0.160593
547.887634	0.159511
548.102146	0.159791
548.316640	0.160461
548.531116	0.159967
548.745574	0.160586
548.960013	0.161312
549.174435	0.161622
549.388838	0.161642
549.603222	0.161719
549.817589	0.162473
550.031937	0.163841
550.246267	0.164754
550.460579	0.165400
550.674873	0.166127
550.889148	0.166330
551.103405	0.167680
551.317644	0.167866
551.531865	0.169756
551.746068	0.170165
551.960252	0.169115
552.174418	0.168023
552.388566	0.168296
552.602696	0.168785
552.816807	0.168880
553.030900	0.167461
553.244975	0.168022
553.459032	0.167344
553.673070	0.169099
553.887091	0.169703
554.101093	0.170699
554.315077	0.170911
554.529042	0.171015
554.742990	0.171200
554.956919	0.172138
555.170830	0.171475
555.384722	0.170411
555.598597	0.169358
555.812453	0.169084
556.026291	0.169984
556.240111	0.170523
556.453913	0.170120
556.667696	0.171009
556.881461	0.172350
557.095208	0.173079
557.308937	0.174497
557.522647	0.174935
557.736339	0.176109
557.950013	0.175451
558.163669	0.176120
558.377307	0.177063
558.590926	0.176248
558.804527	0.176217
559.018110	0.176146
559.231675	0.176501
559.445221	0.176548
559.658749	0.176727
559.872259	0.176937
560.085751	0.176375
560.299225	0.176936
560.512680	0.177422
560.726117	0.177257
560.939536	0.178930
561.152937	0.179599
561.366319	0.179819
561.579683	0.180018
561.793029	0.180768
562.006357	0.180883
562.219667	0.180330
562.432958	0.180738
562.646231	0.180838
562.859486	0.180383
563.072723	0.180088
563.285941	0.181199
563.499141	0.181343
563.712323	0.181560
563.925487	0.182642
564.138632	0.183168
564.351760	0.182837
564.564869	0.182804
564.777960	0.184123
564.991032	0.184518
565.204087	0.183973
565.417123	0.183669
565.630141	0.183440
565.843140	0.183625
566.056122	0.183940
566.269085	0.185535
566.482030	0.186009
566.694957	0.184490
566.907866	0.184560
567.120756	0.184868
567.333628	0.185497
567.546482	0.185557
567.759318	0.185291
567.972135	0.185063
568.184935	0.185103
568.397716	0.185808
568.610478	0.186001
568.823223	0.186076
569.035949	0.186429
569.248657	0.186149
569.461347	0.187123
569.674019	0.186653
569.886672	0.187128
570.099308	0.186672
570.311925	0.186313
570.524523	0.186954
570.737104	0.186634
570.949666	0.186526
571.162210	0.187237
571.374736	0.187444
571.587244	0.188747
571.799733	0.188611
572.012205	0.188839
572.224658	0.189348
572.437092	0.189630
572.649509	0.190771
572.861907	0.190764
573.074287	0.191427
573.286649	0.190289
573.498993	0.189666
573.711318	0.189568
573.923625	0.189693
574.135914	0.189851
574.348185	0.190097
574.560438	0.189843
574.772672	0.190380
574.984888	0.190479
575.197086	0.191492
575.409266	0.192089
575.621427	0.192209
575.833570	0.192167
576.045695	0.191987
576.257802	0.191805
576.469890	0.191541
576.681961	0.190756
576.894013	0.190653
577.106046	0.190428
577.318062	0.191329
577.530059	0.191960
577.742039	0.193057
577.954000	0.193788
578.165942	0.194100
578.377867	0.194732
578.589773	0.195302
578.801661	0.195576
579.013531	0.196519
579.225382	0.196288
579.437216	0.197231
579.649031	0.196699
579.860828	0.196244
580.072606	0.197147
580.284367	0.197693
580.496109	0.198919
580.707833	0.198712
580.919539	0.199036
581.131227	0.198126
581.342896	0.197852
581.554547	0.198877
581.766180	0.199978
581.977795	0.199315
582.189391	0.199509
582.400969	0.198914
582.612529	0.198893
582.824071	0.198023
583.035595	0.199724
583.247100	0.199109
583.458587	0.198763
583.670056	0.198475
583.881506	0.199070
584.092939	0.198961
584.304353	0.199442
584.515749	0.200441
584.727127	0.201055
584.938486	0.200426
585.149828	0.201403
585.361151	0.201889
585.572456	0.202089
585.783742	0.202652
585.995011	0.203073
586.206261	0.203246
586.417493	0.203112
586.628706	0.204204
586.839902	0.205218
587.051079	0.204603
587.262238	0.204754
587.473379	0.204887
587.684502	0.203989
587.895606	0.203479
588.106692	0.203683
588.317760	0.203804
588.528810	0.203871
588.739841	0.203779
588.950855	0.205238
589.161850	0.204899
589.372827	0.205364
589.583785	0.205723
589.794726	0.205782
590.005648	0.206367
590.216552	0.207410
590.427437	0.207018
590.638305	0.207666
590.849154	0.207688
591.059985	0.208432
591.270798	0.207624
591.481592	0.207935
591.692369	0.208150
591.903127	0.208028
592.113867	0.207452
592.324588	0.207523
592.535292	0.206719
592.745977	0.206511
592.956644	0.205545
593.167293	0.206862
593.377923	0.207831
593.588536	0.208675
593.799130	0.208929
594.009706	0.209423
594.220263	0.208853
594.430803	0.209008
594.641324	0.209736
594.851827	0.209936
595.062312	0.209559
595.272778	0.209785
595.483227	0.210235
595.693657	0.210384
595.904069	0.209811
596.114462	0.210778
596.324838	0.211791
596.535195	0.211164
596.745534	0.211879
596.955855	0.212213
597.166157	0.211294
597.376441	0.211440
597.586707	0.210974
597.796955	0.211370
598.007185	0.211933
598.217396	0.211298
598.427589	0.211966
598.637764	0.213199
598.847921	0.213038
599.058060	0.213570
599.268180	0.213285
599.478282	0.214371
599.688366	0.214992
599.898431	0.215612
600.108479	0.216107
600.318508	0.216764
600.528519	0.215832
600.738511	0.217388
600.948486	0.217523
601.158442	0.217431
601.368380	0.216738
601.578300	0.216742
601.788202	0.215595
601.998085	0.216059
602.207950	0.216109
602.417797	0.216878
602.627626	0.216274
602.837436	0.216155
603.047228	0.216497
603.257002	0.217469
603.466758	0.218129
603.676496	0.218814
603.886215	0.218455
604.095916	0.218213
604.305599	0.217991
604.515264	0.217627
604.724910	0.218129
604.934538	0.218247
605.144148	0.218380
605.353740	0.218614
605.563314	0.219287
605.772869	0.219617
605.982406	0.219406
606.191925	0.219904
606.401425	0.220615
606.610908	0.220736
606.820372	0.221367
607.029818	0.221060
607.239246	0.220876
607.448655	0.220981
607.658047	0.221393
607.867420	0.221453
608.076775	0.221935
608.286111	0.221683
608.495430	0.221264
608.704730	0.221557
608.914012	0.221087
609.123275	0.221458
609.332521	0.221912
609.541748	0.222363
609.750957	0.222771
609.960148	0.222751
610.169321	0.223223
610.378475	0.224413
610.587611	0.225099
610.796729	0.226563
611.005829	0.225922
611.214910	0.225732
611.423974	0.225788
611.633019	0.226382
611.842045	0.226228
612.051054	0.226414
612.260044	0.226199
612.469017	0.225359
612.677970	0.225025
612.886906	0.226580
613.095824	0.226453
613.304723	0.226119
613.513604	0.226386
613.722467	0.226236
613.931311	0.226372
614.140138	0.226848
614.348946	0.227194
614.557736	0.227668
614.766507	0.227160
614.975261	0.227696
615.183996	0.227759
615.392713	0.227834
615.601412	0.228471
615.810092	0.228862
616.018754	0.229011
616.227399	0.228813
616.436024	0.228323
616.644632	0.228029
616.853222	0.227399
617.061793	0.228286
617.270346	0.228669
617.478880	0.229138
617.687397	0.229203
617.895895	0.229443
618.104375	0.230676
618.312837	0.231633
618.521281	0.232549
618.729706	0.233019
618.938113	0.232749
619.146502	0.232802
619.354873	0.232611
619.563226	0.232769
619.771560	0.232813
619.979876	0.232715
620.188174	0.232511
620.396453	0.231893
620.604715	0.232201
620.812958	0.231879
621.021183	0.231914
621.229390	0.231874
621.437578	0.232438
621.645748	0.233214
621.853900	0.233009
622.062034	0.233296
622.270150	0.234206
622.478247	0.234379
622.686326	0.234778
622.894387	0.234832
623.102430	0.235568
623.310454	0.235370
623.518461	0.234830
623.726449	0.234885
623.934418	0.235647
624.142370	0.235266
624.350303	0.235235
624.558218	0.235680
624.766115	0.235643
624.973994	0.235219
625.181855	0.235591
625.389697	0.235753
625.597521	0.235804
625.805327	0.235603
626.013114	0.235984
626.220883	0.236575
626.428634	0.236668
626.636367	0.237162
626.844082	0.237743
627.051778	0.237604
627.259457	0.237334
627.467117	0.237499
627.674758	0.237617
627.882382	0.237414
628.089987	0.237742
628.297574	0.237622
628.505143	0.237573
628.712694	0.237898
628.920226	0.238515
629.127740	0.238726
629.335236	0.238885
629.542714	0.238706
629.750174	0.239446
629.957615	0.239894
630.165038	0.240683
630.372443	0.241561
630.579829	0.241571
630.787198	0.241245
630.994548	0.242110
631.201880	0.242480
631.409194	0.242999
631.616489	0.242944
631.823766	0.243014
632.031025	0.243645
632.238266	0.243154
632.445489	0.243735
632.652693	0.243779
632.859879	0.243667
633.067047	0.244020
633.274197	0.243878
633.481329	0.244516
633.688442	0.243954
633.895537	0.243206
634.102614	0.243348
634.309672	0.243284
634.516713	0.243740
634.723735	0.244332
634.930739	0.244438
635.137724	0.244768
635.344692	0.244907
635.551641	0.245938
635.758572	0.246790
635.965485	0.247612
636.172379	0.247817
636.379256	0.248246
636.586114	0.248151
636.792954	0.248379
636.999775	0.248863
637.206579	0.248356
637.413364	0.248473
637.620131	0.248469
637.826880	0.248716
638.033610	0.248776
638.240323	0.248685
638.447017	0.248971
638.653692	0.249185
638.860350	0.248818
639.066990	0.248660
639.273611	0.248617
639.480214	0.249156
639.686798	0.249439
639.893365	0.249588
640.099913	0.249622
640.306443	0.249632
640.512955	0.250093
640.719449	0.250708
640.925924	0.251619
641.132381	0.252092
641.338820	0.252721
641.545241	0.252688
641.751644	0.252851
641.958028	0.253371
642.164394	0.254018
642.370742	0.253916
642.577071	0.254092
642.783383	0.254396
642.989676	0.254010
643.195951	0.252910
643.402207	0.252593
643.608446	0.252952
643.814666	0.252745
644.020868	0.252338
644.227052	0.252685
644.433218	0.253408
644.639365	0.253719
644.845494	0.253812
645.051605	0.254697
645.257698	0.254982
645.463772	0.255063
645.669828	0.255826
645.875866	0.256289
646.081886	0.256545
646.287888	0.256194
646.493871	0.256539
646.699836	0.257183
646.905783	0.257237
647.111712	0.257671
647.317622	0.257285
647.523514	0.257655
647.729388	0.257841
647.935244	0.258071
648.141082	0.258458
648.346901	0.258455
648.552702	0.258562
648.758485	0.258785
648.964250	0.259083
649.169996	0.259811
649.375724	0.259365
649.581434	0.259721
649.787126	0.260552
649.992800	0.260499
650.198455	0.260417
650.404092	0.260640
650.609711	0.261042
650.815311	0.261426
651.020894	0.262228
651.226458	0.262515
651.432004	0.263306
651.637532	0.263032
651.843041	0.263273
652.048532	0.263898
652.254006	0.264199
652.459460	0.264355
652.664897	0.264502
652.870315	0.264586
653.075716	0.264892
653.281097	0.264360
653.486461	0.264705
653.691807	0.264768
653.897134	0.264905
654.102443	0.265250
654.307734	0.265638
654.513006	0.265533
654.718261	0.265438
654.923497	0.266185
655.128715	0.266714
655.333915	0.266344
655.539096	0.266209
655.744259	0.266748
655.949404	0.267281
656.154531	0.267330
656.359640	0.268178
656.564730	0.268668
656.769802	0.268829
656.974856	0.268841
657.179892	0.269345
657.384909	0.270319
657.589908	0.270071
657.794889	0.270502
657.999852	0.270618
658.204797	0.270668
658.409723	0.270276
658.614631	0.270864
658.819521	0.271779
659.024393	0.271454
659.229246	0.271791
659.434081	0.272438
659.638898	0.271933
659.843697	0.272555
660.048478	0.272916
660.253240	0.273624
660.457984	0.273629
660.662710	0.273489
660.867417	0.274727
661.072107	0.274574
661.276778	0.274677
661.481431	0.275406
661.686066	0.275213
661.890682	0.275180
662.095281	0.275283
662.299861	0.274984
662.504422	0.275275
662.708966	0.275444
662.913491	0.275462
663.117999	0.275794
663.322488	0.275877
663.526958	0.276253
663.731411	0.276634
663.935845	0.276752
664.140261	0.277586
664.344659	0.277973
664.549038	0.277874
664.753400	0.278640
664.957743	0.278301
665.162068	0.278250
665.366375	0.278518
665.570663	0.278390
665.774933	0.278716
665.979185	0.278262
666.183419	0.277924
666.387635	0.278252
666.591832	0.278266
666.796011	0.278847
667.000172	0.279654
667.204315	0.279847
667.408439	0.279946
667.612545	0.280155
667.816634	0.280539
668.020703	0.280841
668.224755	0.281305
668.428788	0.281611
668.632803	0.281736
668.836800	0.281320
669.040779	0.281629
669.244739	0.281869
669.448681	0.282498
669.652605	0.283134
669.856511	0.283484
670.060399	0.283904
670.264268	0.284457
670.468119	0.284587
670.671952	0.284928
670.875767	0.284591
671.079563	0.285317
671.283341	0.285158
671.487101	0.284924
671.690843	0.285500
671.894567	0.285315
672.098272	0.285066
672.301959	0.285574
672.505628	0.285717
672.709278	0.286593
672.912911	0.286566
673.116525	0.286794
673.320121	0.287205
673.523699	0.286816
673.727258	0.287168
673.930799	0.287648
674.134322	0.287797
674.337827	0.288435
674.541314	0.288948
674.744782	0.289052
674.948232	0.289012
675.151664	0.289238
675.355078	0.289819
675.558474	0.290138
675.761851	0.290517
675.965210	0.291025
676.168551	0.290908
676.371873	0.290821
676.575178	0.291457
676.778464	0.292202
676.981732	0.292381
677.184981	0.293171
677.388213	0.292940
677.591426	0.293357
677.794621	0.293275
677.997798	0.293718
678.200956	0.293721
678.404097	0.293949
678.607219	0.294009
678.810323	0.294381
679.013408	0.293745
679.216476	0.293914
679.419525	0.293889
679.622556	0.294238
679.825569	0.294445
680.028563	0.294581
680.231540	0.294647
680.434498	0.295119
680.637438	0.295416
680.840359	0.295927
681.043263	0.296544
681.246148	0.296695
681.449015	0.297034
681.651864	0.297664
681.854694	0.298010
682.057506	0.298349
682.260301	0.298818
682.463076	0.299012
682.665834	0.299687
682.868573	0.300227
683.071295	0.301014
683.273998	0.300819
683.476682	0.300895
683.679349	0.301458
683.881997	0.301861
684.084627	0.301564
684.287239	0.301946
684.489833	0.301948
684.692408	0.301851
684.894965	0.301792
685.097504	0.302104
685.300025	0.302104
685.502527	0.302197
685.705012	0.301863
685.907478	0.302373
686.109925	0.302054
686.312355	0.302001
686.514766	0.301979
686.717159	0.301688
686.919534	0.301737
687.121891	0.301992
687.324230	0.302036
687.526550	0.302669
687.728852	0.302763
687.931136	0.303130
688.133401	0.303780
688.335649	0.304468
688.537878	0.305061
688.740089	0.305777
688.942281	0.306124
689.144456	0.306410
689.346612	0.306474
689.548750	0.307044
689.750870	0.307815
689.952971	0.307523
690.155055	0.307404
690.357120	0.307867
690.559167	0.307935
690.761195	0.307960
690.963206	0.308475
691.165198	0.308855
691.367172	0.309171
691.569128	0.308693
691.771065	0.309222
691.972984	0.309319
692.174885	0.309524
692.376768	0.309777
692.578633	0.310090
692.780479	0.310156
692.982308	0.310481
693.184118	0.310751
693.385909	0.311180
