sample name	sample
index	1360
start time	 05-03-2021  01:51:55 PM


Wavelength (nm)	Absorbance
494.344910	0.256702
494.563924	0.256702
494.782919	0.256702
495.001897	0.156053
495.220856	0.140366
495.439797	0.122343
495.658719	0.097046
495.877624	0.055664
496.096510	0.035997
496.315378	0.027050
496.534227	0.002244
496.753059	-0.004834
496.971872	-0.028142
497.190667	0.089945
497.409444	0.109942
497.628203	0.117539
497.846943	0.122374
498.065665	0.125370
498.284369	0.126151
498.503055	0.125608
498.721723	0.125161
498.940372	0.127083
499.159003	0.127202
499.377616	0.127734
499.596210	0.128429
499.814787	0.128481
500.033345	0.127796
500.251885	0.128162
500.470406	0.129327
500.688910	0.130514
500.907395	0.130403
501.125862	0.130262
501.344311	0.130540
501.562742	0.130316
501.781154	0.130783
501.999548	0.130307
502.217924	0.131221
502.436282	0.131042
502.654621	0.130346
502.872942	0.130308
503.091245	0.130874
503.309530	0.130026
503.527797	0.129763
503.746045	0.128552
503.964275	0.129084
504.182487	0.128351
504.400681	0.129203
504.618856	0.129138
504.837013	0.128418
505.055152	0.128748
505.273273	0.129267
505.491376	0.129462
505.709460	0.129449
505.927526	0.128446
506.145574	0.128722
506.363604	0.128282
506.581615	0.128981
506.799608	0.129253
507.017583	0.127677
507.235540	0.127692
507.453478	0.128476
507.671399	0.129635
507.889301	0.130357
508.107185	0.130419
508.325050	0.130050
508.542898	0.129214
508.760727	0.129278
508.978538	0.131426
509.196330	0.131158
509.414105	0.130055
509.631861	0.129960
509.849599	0.130642
510.067319	0.129832
510.285021	0.131045
510.502704	0.131164
510.720369	0.132175
510.938016	0.131722
511.155645	0.132252
511.373255	0.132025
511.590848	0.132982
511.808422	0.133969
512.025977	0.134437
512.243515	0.133226
512.461034	0.133302
512.678536	0.133334
512.896018	0.133232
513.113483	0.133183
513.330930	0.133987
513.548358	0.134018
513.765768	0.133551
513.983160	0.133481
514.200533	0.134869
514.417889	0.135947
514.635226	0.135792
514.852545	0.135424
515.069845	0.135755
515.287128	0.136357
515.504392	0.135343
515.721638	0.135525
515.938866	0.136372
516.156075	0.136530
516.373267	0.136908
516.590440	0.137154
516.807594	0.137573
517.024731	0.137461
517.241850	0.136505
517.458950	0.136409
517.676032	0.135727
517.893095	0.135623
518.110141	0.135412
518.327168	0.135770
518.544177	0.135665
518.761168	0.136022
518.978141	0.136625
519.195095	0.137541
519.412031	0.139033
519.628949	0.139319
519.845849	0.139443
520.062731	0.139630
520.279594	0.140044
520.496439	0.139878
520.713266	0.139789
520.930074	0.139945
521.146865	0.140174
521.363637	0.139818
521.580391	0.140776
521.797127	0.141370
522.013844	0.141272
522.230543	0.140639
522.447224	0.141029
522.663887	0.140570
522.880532	0.141089
523.097158	0.140632
523.313766	0.140107
523.530356	0.140516
523.746928	0.140275
523.963481	0.141263
524.180017	0.141558
524.396534	0.141152
524.613032	0.141926
524.829513	0.141858
525.045975	0.143354
525.262420	0.144985
525.478845	0.145000
525.695253	0.145423
525.911643	0.145849
526.128014	0.146149
526.344367	0.147461
526.560702	0.147863
526.777018	0.148252
526.993316	0.147776
527.209597	0.148235
527.425858	0.149142
527.642102	0.149581
527.858328	0.149107
528.074535	0.149673
528.290724	0.149914
528.506894	0.150770
528.723047	0.150828
528.939181	0.150885
529.155297	0.150573
529.371395	0.150086
529.587475	0.150057
529.803536	0.150813
530.019579	0.151752
530.235604	0.152316
530.451611	0.152474
530.667600	0.152853
530.883570	0.153692
531.099522	0.153225
531.315456	0.153744
531.531372	0.154245
531.747269	0.154643
531.963148	0.153809
532.179009	0.153938
532.394852	0.154027
532.610676	0.154067
532.826482	0.154466
533.042271	0.155225
533.258040	0.156219
533.473792	0.156775
533.689525	0.157083
533.905240	0.157919
534.120937	0.157487
534.336616	0.158432
534.552277	0.159199
534.767919	0.159208
534.983543	0.159713
535.199149	0.159597
535.414736	0.159989
535.630306	0.160668
535.845857	0.160938
536.061390	0.162131
536.276904	0.161964
536.492401	0.162647
536.707879	0.163849
536.923339	0.164317
537.138781	0.164267
537.354204	0.164706
537.569610	0.164931
537.784997	0.165668
538.000366	0.166580
538.215716	0.166750
538.431049	0.167098
538.646363	0.167377
538.861659	0.167791
539.076937	0.168070
539.292196	0.167800
539.507438	0.167547
539.722661	0.167988
539.937866	0.167045
540.153052	0.167479
540.368221	0.167813
540.583371	0.167645
540.798503	0.167656
541.013617	0.168242
541.228712	0.168538
541.443789	0.169076
541.658848	0.169065
541.873889	0.169880
542.088912	0.170435
542.303916	0.170479
542.518902	0.171060
542.733870	0.171525
542.948820	0.171741
543.163752	0.172184
543.378665	0.172440
543.593560	0.172597
543.808437	0.172779
544.023295	0.172566
544.238136	0.172791
544.452958	0.172543
544.667762	0.173054
544.882548	0.173364
545.097315	0.173993
545.312064	0.174100
545.526795	0.174508
545.741508	0.174905
545.956203	0.175645
546.170879	0.176006
546.385537	0.176674
546.600177	0.176321
546.814799	0.176771
547.029402	0.176905
547.243988	0.177679
547.458555	0.177693
547.673103	0.178208
547.887634	0.178342
548.102146	0.177976
548.316640	0.178245
548.531116	0.178790
548.745574	0.179414
548.960013	0.179113
549.174435	0.179283
549.388838	0.179363
549.603222	0.179246
549.817589	0.179691
550.031937	0.180592
550.246267	0.180982
550.460579	0.181707
550.674873	0.181093
550.889148	0.182039
551.103405	0.182268
551.317644	0.182859
551.531865	0.183209
551.746068	0.183311
551.960252	0.183166
552.174418	0.183449
552.388566	0.183510
552.602696	0.184126
552.816807	0.184130
553.030900	0.184038
553.244975	0.184044
553.459032	0.184615
553.673070	0.184629
553.887091	0.184820
554.101093	0.185140
554.315077	0.185163
554.529042	0.185381
554.742990	0.185707
554.956919	0.186453
555.170830	0.186659
555.384722	0.186265
555.598597	0.186737
555.812453	0.187233
556.026291	0.187035
556.240111	0.187434
556.453913	0.188074
556.667696	0.188027
556.881461	0.187461
557.095208	0.187762
557.308937	0.188351
557.522647	0.188969
557.736339	0.189207
557.950013	0.189345
558.163669	0.189502
558.377307	0.188982
558.590926	0.189368
558.804527	0.190154
559.018110	0.190078
559.231675	0.189709
559.445221	0.189243
559.658749	0.189291
559.872259	0.189456
560.085751	0.189238
560.299225	0.189860
560.512680	0.190021
560.726117	0.189999
560.939536	0.190137
561.152937	0.190481
561.366319	0.190633
561.579683	0.190523
561.793029	0.190606
562.006357	0.191058
562.219667	0.190940
562.432958	0.190945
562.646231	0.190780
562.859486	0.191124
563.072723	0.192100
563.285941	0.192427
563.499141	0.192751
563.712323	0.193010
563.925487	0.193093
564.138632	0.193209
564.351760	0.193481
564.564869	0.193767
564.777960	0.193869
564.991032	0.193800
565.204087	0.193938
565.417123	0.194665
565.630141	0.194806
565.843140	0.194703
566.056122	0.195092
566.269085	0.195500
566.482030	0.195515
566.694957	0.195561
566.907866	0.195362
567.120756	0.195555
567.333628	0.195303
567.546482	0.195252
567.759318	0.195517
567.972135	0.195326
568.184935	0.195177
568.397716	0.195697
568.610478	0.195906
568.823223	0.196216
569.035949	0.196387
569.248657	0.196444
569.461347	0.196705
569.674019	0.196754
569.886672	0.196838
570.099308	0.197181
570.311925	0.197027
570.524523	0.197005
570.737104	0.196433
570.949666	0.196532
571.162210	0.196889
571.374736	0.196867
571.587244	0.197029
571.799733	0.197442
572.012205	0.197308
572.224658	0.197767
572.437092	0.197875
572.649509	0.198024
572.861907	0.197606
573.074287	0.197221
573.286649	0.197455
573.498993	0.198018
573.711318	0.197883
573.923625	0.198161
574.135914	0.197978
574.348185	0.198367
574.560438	0.198777
574.772672	0.199184
574.984888	0.199294
575.197086	0.199179
575.409266	0.199077
575.621427	0.199293
575.833570	0.199348
576.045695	0.199621
576.257802	0.199391
576.469890	0.199639
576.681961	0.199867
576.894013	0.200298
577.106046	0.200810
577.318062	0.200693
577.530059	0.200954
577.742039	0.200702
577.954000	0.201077
578.165942	0.201619
578.377867	0.201517
578.589773	0.201242
578.801661	0.201191
579.013531	0.201331
579.225382	0.201225
579.437216	0.201613
579.649031	0.202006
579.860828	0.201965
580.072606	0.202053
580.284367	0.202187
580.496109	0.202721
580.707833	0.202807
580.919539	0.202592
581.131227	0.202977
581.342896	0.202557
581.554547	0.202751
581.766180	0.202641
581.977795	0.202800
582.189391	0.203125
582.400969	0.203220
582.612529	0.203686
582.824071	0.203943
583.035595	0.204241
583.247100	0.204345
583.458587	0.204477
583.670056	0.204722
583.881506	0.204562
584.092939	0.204523
584.304353	0.204474
584.515749	0.204254
584.727127	0.204164
584.938486	0.204089
585.149828	0.203855
585.361151	0.203612
585.572456	0.203431
585.783742	0.203490
585.995011	0.203631
586.206261	0.203943
586.417493	0.204006
586.628706	0.204162
586.839902	0.204221
587.051079	0.204633
587.262238	0.205067
587.473379	0.205415
587.684502	0.205773
587.895606	0.205823
588.106692	0.205917
588.317760	0.205963
588.528810	0.205950
588.739841	0.206287
588.950855	0.206361
589.161850	0.206216
589.372827	0.206393
589.583785	0.206204
589.794726	0.206297
590.005648	0.206323
590.216552	0.206875
590.427437	0.207064
590.638305	0.207155
590.849154	0.207668
591.059985	0.207638
591.270798	0.208126
591.481592	0.208591
591.692369	0.209396
591.903127	0.209777
592.113867	0.209860
592.324588	0.210512
592.535292	0.210683
592.745977	0.210775
592.956644	0.211326
593.167293	0.210999
593.377923	0.210908
593.588536	0.210893
593.799130	0.211100
594.009706	0.211152
594.220263	0.210799
594.430803	0.211023
594.641324	0.210964
594.851827	0.211444
595.062312	0.211721
595.272778	0.212117
595.483227	0.211716
595.693657	0.211585
595.904069	0.211829
596.114462	0.212360
596.324838	0.211913
596.535195	0.212278
596.745534	0.212367
596.955855	0.212632
597.166157	0.212849
597.376441	0.213449
597.586707	0.213425
597.796955	0.213750
598.007185	0.213740
598.217396	0.214249
598.427589	0.214347
598.637764	0.214203
598.847921	0.214580
599.058060	0.214634
599.268180	0.214843
599.478282	0.215411
599.688366	0.215059
599.898431	0.215248
600.108479	0.215482
600.318508	0.215744
600.528519	0.216006
600.738511	0.215853
600.948486	0.216305
601.158442	0.216196
601.368380	0.216510
601.578300	0.216906
601.788202	0.216906
601.998085	0.216870
602.207950	0.216876
602.417797	0.216970
602.627626	0.217047
602.837436	0.216819
603.047228	0.216799
603.257002	0.216729
603.466758	0.217137
603.676496	0.217576
603.886215	0.218048
604.095916	0.218514
604.305599	0.218760
604.515264	0.218801
604.724910	0.219160
604.934538	0.219339
605.144148	0.219691
605.353740	0.219577
605.563314	0.219741
605.772869	0.219834
605.982406	0.219718
606.191925	0.219918
606.401425	0.220180
606.610908	0.220049
606.820372	0.220186
607.029818	0.220183
607.239246	0.220264
607.448655	0.220192
607.658047	0.220430
607.867420	0.220418
608.076775	0.220060
608.286111	0.220094
608.495430	0.220273
608.704730	0.220478
608.914012	0.220671
609.123275	0.220630
609.332521	0.220798
609.541748	0.220399
609.750957	0.220568
609.960148	0.220815
610.169321	0.220739
610.378475	0.221072
610.587611	0.221375
610.796729	0.221080
611.005829	0.221672
611.214910	0.221705
611.423974	0.222225
611.633019	0.222295
611.842045	0.222706
612.051054	0.223046
612.260044	0.223149
612.469017	0.223226
612.677970	0.223707
612.886906	0.223878
613.095824	0.224062
613.304723	0.224247
613.513604	0.224529
613.722467	0.224526
613.931311	0.224714
614.140138	0.224709
614.348946	0.224883
614.557736	0.224771
614.766507	0.224589
614.975261	0.225042
615.183996	0.224811
615.392713	0.224765
615.601412	0.224852
615.810092	0.224962
616.018754	0.225044
616.227399	0.225150
616.436024	0.225686
616.644632	0.225752
616.853222	0.225667
617.061793	0.226108
617.270346	0.226520
617.478880	0.226786
617.687397	0.227037
617.895895	0.227289
618.104375	0.227519
618.312837	0.227442
618.521281	0.227742
618.729706	0.227891
618.938113	0.228116
619.146502	0.228385
619.354873	0.228297
619.563226	0.228408
619.771560	0.228829
619.979876	0.229076
620.188174	0.229582
620.396453	0.229980
620.604715	0.230376
620.812958	0.230560
621.021183	0.230450
621.229390	0.231016
621.437578	0.231234
621.645748	0.231174
621.853900	0.231268
622.062034	0.231079
622.270150	0.231049
622.478247	0.231298
622.686326	0.231276
622.894387	0.231623
623.102430	0.231756
623.310454	0.231882
623.518461	0.232176
623.726449	0.232107
623.934418	0.232268
624.142370	0.232293
624.350303	0.232299
624.558218	0.232633
624.766115	0.232951
624.973994	0.232913
625.181855	0.233251
625.389697	0.233296
625.597521	0.233698
625.805327	0.233597
626.013114	0.233897
626.220883	0.233980
626.428634	0.234014
626.636367	0.234047
626.844082	0.234305
627.051778	0.234192
627.259457	0.234211
627.467117	0.234017
627.674758	0.234299
627.882382	0.234403
628.089987	0.234225
628.297574	0.234437
628.505143	0.234504
628.712694	0.234455
628.920226	0.234701
629.127740	0.234858
629.335236	0.235027
629.542714	0.235437
629.750174	0.235535
629.957615	0.235781
630.165038	0.235983
630.372443	0.236265
630.579829	0.236904
630.787198	0.237086
630.994548	0.237245
631.201880	0.237894
631.409194	0.237979
631.616489	0.238183
631.823766	0.238928
632.031025	0.239095
632.238266	0.239310
632.445489	0.239347
632.652693	0.239432
632.859879	0.239727
633.067047	0.239701
633.274197	0.239769
633.481329	0.239954
633.688442	0.239877
633.895537	0.239855
634.102614	0.239818
634.309672	0.239782
634.516713	0.240061
634.723735	0.240144
634.930739	0.240203
635.137724	0.240361
635.344692	0.240523
635.551641	0.240139
635.758572	0.240216
635.965485	0.240165
636.172379	0.240493
636.379256	0.240461
636.586114	0.240410
636.792954	0.240204
636.999775	0.240314
637.206579	0.240393
637.413364	0.240610
637.620131	0.240833
637.826880	0.241053
638.033610	0.240672
638.240323	0.240961
638.447017	0.241403
638.653692	0.241730
638.860350	0.241785
639.066990	0.241997
639.273611	0.242217
639.480214	0.242357
639.686798	0.242337
639.893365	0.243021
640.099913	0.243187
640.306443	0.243135
640.512955	0.243310
640.719449	0.243449
640.925924	0.243418
641.132381	0.243754
641.338820	0.243991
641.545241	0.244380
641.751644	0.244480
641.958028	0.244338
642.164394	0.244572
642.370742	0.244831
642.577071	0.245071
642.783383	0.245487
642.989676	0.245751
643.195951	0.246063
643.402207	0.246174
643.608446	0.246514
643.814666	0.247014
644.020868	0.247223
644.227052	0.247542
644.433218	0.247802
644.639365	0.247757
644.845494	0.247652
645.051605	0.247728
645.257698	0.247713
645.463772	0.247608
645.669828	0.247672
645.875866	0.247842
646.081886	0.247936
646.287888	0.247785
646.493871	0.248224
646.699836	0.248408
646.905783	0.248531
647.111712	0.249088
647.317622	0.249266
647.523514	0.249445
647.729388	0.249759
647.935244	0.250181
648.141082	0.250799
648.346901	0.250903
648.552702	0.251213
648.758485	0.251324
648.964250	0.251401
649.169996	0.251679
649.375724	0.251817
649.581434	0.251862
649.787126	0.251902
649.992800	0.252087
650.198455	0.252334
650.404092	0.252496
650.609711	0.252953
650.815311	0.253131
651.020894	0.253409
651.226458	0.253637
651.432004	0.253784
651.637532	0.254006
651.843041	0.253692
652.048532	0.253538
652.254006	0.253693
652.459460	0.253805
652.664897	0.253760
652.870315	0.253669
653.075716	0.253831
653.281097	0.253967
653.486461	0.253761
653.691807	0.254226
653.897134	0.254622
654.102443	0.254895
654.307734	0.255052
654.513006	0.255354
654.718261	0.255607
654.923497	0.255629
655.128715	0.256013
655.333915	0.256508
655.539096	0.256705
655.744259	0.256915
655.949404	0.257294
656.154531	0.257457
656.359640	0.257852
656.564730	0.257961
656.769802	0.257962
656.974856	0.257973
657.179892	0.257894
657.384909	0.257930
657.589908	0.257868
657.794889	0.257781
657.999852	0.257602
658.204797	0.257542
658.409723	0.257617
658.614631	0.258020
658.819521	0.258232
659.024393	0.258501
659.229246	0.258784
659.434081	0.258879
659.638898	0.259063
659.843697	0.259253
660.048478	0.259440
660.253240	0.259472
660.457984	0.259386
660.662710	0.259268
660.867417	0.259360
661.072107	0.259417
661.276778	0.259740
661.481431	0.259754
661.686066	0.259794
661.890682	0.259706
662.095281	0.259927
662.299861	0.260520
662.504422	0.260976
662.708966	0.260866
662.913491	0.261020
663.117999	0.261207
663.322488	0.261091
663.526958	0.261270
663.731411	0.261574
663.935845	0.261870
664.140261	0.262105
664.344659	0.262096
664.549038	0.262724
664.753400	0.262854
664.957743	0.263098
665.162068	0.263829
665.366375	0.264315
665.570663	0.264817
665.774933	0.265001
665.979185	0.264956
666.183419	0.265152
666.387635	0.265251
666.591832	0.265711
666.796011	0.266043
667.000172	0.266087
667.204315	0.266520
667.408439	0.266604
667.612545	0.266835
667.816634	0.267098
668.020703	0.267447
668.224755	0.267778
668.428788	0.267832
668.632803	0.267969
668.836800	0.268147
669.040779	0.268192
669.244739	0.268441
669.448681	0.268750
669.652605	0.268918
669.856511	0.269152
670.060399	0.269242
670.264268	0.269490
670.468119	0.269601
670.671952	0.269629
670.875767	0.269724
671.079563	0.269969
671.283341	0.269916
671.487101	0.269999
671.690843	0.270208
671.894567	0.270246
672.098272	0.270457
672.301959	0.270492
672.505628	0.270855
672.709278	0.271129
672.912911	0.271464
673.116525	0.272028
673.320121	0.272376
673.523699	0.272685
673.727258	0.273010
673.930799	0.273202
674.134322	0.273633
674.337827	0.274009
674.541314	0.274022
674.744782	0.274074
674.948232	0.274242
675.151664	0.274579
675.355078	0.274524
675.558474	0.274834
675.761851	0.275255
675.965210	0.275407
676.168551	0.275471
676.371873	0.275736
676.575178	0.275790
676.778464	0.275864
676.981732	0.275947
677.184981	0.276295
677.388213	0.276511
677.591426	0.276522
677.794621	0.276649
677.997798	0.276845
678.200956	0.276929
678.404097	0.277214
678.607219	0.277521
678.810323	0.277936
679.013408	0.277938
679.216476	0.278023
679.419525	0.278245
679.622556	0.278382
679.825569	0.278500
680.028563	0.279076
680.231540	0.279173
680.434498	0.279034
680.637438	0.278770
680.840359	0.279054
681.043263	0.279376
681.246148	0.279633
681.449015	0.279933
681.651864	0.280319
681.854694	0.280605
682.057506	0.280921
682.260301	0.281325
682.463076	0.281760
682.665834	0.281777
682.868573	0.282215
683.071295	0.282468
683.273998	0.282770
683.476682	0.282888
683.679349	0.282803
683.881997	0.282856
684.084627	0.283094
684.287239	0.283396
684.489833	0.284031
684.692408	0.283918
684.894965	0.284029
685.097504	0.284066
685.300025	0.284300
685.502527	0.284415
685.705012	0.284616
685.907478	0.284729
686.109925	0.284851
686.312355	0.284662
686.514766	0.284685
686.717159	0.284645
686.919534	0.284886
687.121891	0.285078
687.324230	0.285375
687.526550	0.285621
687.728852	0.285481
687.931136	0.285599
688.133401	0.286167
688.335649	0.286351
688.537878	0.286780
688.740089	0.287040
688.942281	0.287306
689.144456	0.287404
689.346612	0.287530
689.548750	0.288031
689.750870	0.288286
689.952971	0.288394
690.155055	0.288822
690.357120	0.288888
690.559167	0.288847
690.761195	0.289100
690.963206	0.289241
691.165198	0.289321
691.367172	0.289552
691.569128	0.289453
691.771065	0.289450
691.972984	0.289561
692.174885	0.289655
692.376768	0.289888
692.578633	0.289648
692.780479	0.289792
692.982308	0.289961
693.184118	0.290186
693.385909	0.290480
