sample name	sample
index	551
start time	 03-15-2021  11:33:45 AM
880	0.218220
Peak Time (s)	91.535
Peak Height 	0.2182
calc peak height	90,93
Baseline Time (s)	11.537
Baseline Value 	-0.005393
subtract baseline	10,4
Abs	0.176214
Peak Time (s)	92.535
Peak Height 	0.1762
calc peak height	90,93
Baseline Time (s)	9.534
Baseline Value 	0.001733
subtract baseline	10,3
PK_550	0.085808
Peak Time (s)	92.535
Peak Height 	0.08581
calc peak height	90,93
Baseline Time (s)	11.537
Baseline Value 	6.0931E-4
subtract baseline	10,2
PK_880	0.162933
Peak Time (s)	92.535
Peak Height 	0.1629
calc peak height	90,93
Baseline Time (s)	11.537
Baseline Value 	0.002662
subtract baseline	10,1


Time (s)	A880-A510	A880-A775	A880-A975	A880	I510	I775	I975	I880	
0.040500	-0.000408	-0.000537	0.004077	0.001055	6124.169427	40589.947725	3749.009292	21449.092949
0.535500	-0.004275	-0.000048	0.000317	0.006839	6050.995608	40132.304215	3727.706650	21202.193442
1.040500	-0.003254	-0.000482	0.002179	0.003885	6080.938217	40349.464723	3738.398690	21327.897140
1.535500	-0.001421	0.000188	0.002630	0.000637	6119.610262	40689.450368	3746.687086	21467.041338
2.035500	-0.000074	-0.000269	-0.001564	-0.000240	6136.684637	40726.149234	3739.250169	21504.835060
2.536000	-0.004800	-0.000680	0.000715	0.005027	6060.664990	40233.822534	3732.596496	21279.197896
3.036500	-0.000981	0.000827	0.004234	-0.001146	6136.677522	40901.264231	3754.345802	21543.926974
3.539500	-0.000048	0.000338	-0.001205	0.000042	6134.713388	40754.519397	3739.422600	21492.692234
4.037500	-0.002063	0.000267	0.003836	0.000557	6115.307181	40703.402959	3749.588639	21470.506356
4.537500	-0.000156	-0.000635	0.003676	-0.000147	6135.334304	40686.065475	3750.816755	21500.809913
5.035000	0.001954	0.000311	0.003739	0.000555	6146.187859	40707.431106	3749.374965	21470.608960
5.535500	-0.000368	-0.000518	0.000758	-0.000064	6133.067148	40689.049456	3744.055720	21497.249631
6.038500	0.000694	0.000477	0.002205	0.000479	6137.057572	40728.519973	3746.088512	21473.855504
6.536500	0.000311	0.000055	-0.001734	0.000058	6137.345821	40728.378156	3738.204243	21491.969065
7.036500	0.001031	0.000359	0.004200	0.000513	6139.390787	40715.195915	3750.508336	21472.379417
7.536500	-0.000673	-0.000060	0.006334	-0.000048	6130.599887	40727.640364	3756.622099	21496.569234
8.037000	0.001958	0.000172	-0.000287	0.000195	6148.994654	40726.636591	3741.132994	21486.083009
8.537500	0.001290	0.000624	-0.000800	0.000632	6140.466854	40727.934489	3739.008024	21467.284421
9.037500	0.001742	0.000708	-0.002707	0.000367	6145.992794	40758.436289	3735.345983	21478.658268
9.534500	-0.002466	-0.000652	0.000000	-0.000362	6119.253187	40703.302012	3743.023256	21510.067617
10.035000	-0.000969	0.000970	0.000705	0.000487	6124.221602	40770.821998	3742.702219	21473.519502
10.535500	0.000247	-0.000322	-0.001754	-0.000380	6140.233646	40733.806577	3739.139726	21510.877298
11.036000	-0.001898	-0.000177	0.000972	-0.000468	6124.423090	40754.024532	3745.443649	21514.646461
11.536500	0.000000	0.000000	0.002843	0.000000	6135.403229	40728.662668	3748.604924	21494.481639
12.036500	0.000329	0.000703	0.002534	0.000387	6134.960776	40756.316553	3747.036233	21477.828462
12.536500	-0.001573	-0.000239	0.003246	-0.000544	6127.502175	40755.353777	3750.743046	21517.945132
13.040000	0.002912	0.001079	0.004423	-0.001439	6169.037736	40949.083502	3755.436053	21556.551361
13.535000	-0.000851	-0.000084	-0.001022	0.004241	6096.463044	40353.061856	3730.490616	21312.701698
14.034500	-0.000440	0.000222	0.006296	-0.000853	6138.582910	40822.600916	3758.365475	21531.253882
14.535000	-0.000360	0.000755	-0.001947	0.002815	6111.070011	40549.260262	3731.598890	21373.604862
15.035500	0.001488	-0.000062	0.003830	-0.000267	6148.929336	40746.512082	3751.437501	21505.983058
15.535500	-0.004233	-0.001125	0.003258	0.002478	6084.174273	40415.445165	3743.960459	21388.028614
16.036000	0.001622	0.000675	0.000167	-0.000485	6151.650902	40830.038896	3743.676002	21515.401091
16.539000	-0.000037	0.000356	0.003274	-0.000796	6141.247508	40829.422468	3751.376117	21528.819517
17.036500	0.001050	0.000257	0.003760	-0.000738	6149.179590	40815.595854	3752.343221	21526.284533
17.536000	-0.002621	0.000512	-0.000068	0.001556	6103.431267	40637.669546	3738.580812	21427.594986
18.034500	0.000374	0.000233	-0.001883	0.000133	6137.259554	40737.423668	3737.705527	21488.763161
18.537500	-0.001028	-0.000496	0.001219	0.000826	6121.173397	40613.457849	3743.092076	21458.924773
19.035000	0.000130	-0.000552	0.001851	0.001508	6124.818555	40549.272768	3742.980583	21429.619385
19.535500	-0.002128	-0.000489	0.009079	0.001915	6104.450069	40519.461281	3758.399283	21412.177645
20.035500	-0.001657	0.000194	-0.000606	0.001216	6113.379411	40639.568161	3738.138280	21442.191218
20.536000	-0.002465	0.000030	0.005978	0.000871	6109.838900	40655.320893	3753.724987	21457.002412
21.039000	0.000075	-0.000010	0.008662	0.001256	6126.328280	40618.282914	3758.949935	21440.447898
21.536500	-0.000169	0.000435	-0.001593	0.002364	6115.973948	40560.686272	3733.384870	21392.922702
22.036000	-0.000514	-0.000154	-0.001384	0.001172	6122.459795	40613.084018	3736.501148	21444.062927
22.540000	-0.001903	0.000219	-0.000136	0.001197	6111.646212	40643.383228	3739.229582	21443.004542
23.037000	-0.001104	-0.000601	-0.003158	0.001405	6116.157402	40553.915972	3732.039545	21434.045148
23.537000	0.000425	0.000886	0.006533	0.002153	6122.135231	40618.203500	3752.077027	21401.974777
24.035000	-0.000087	-0.000169	0.003757	0.001013	6126.956063	40625.677223	3748.381403	21450.906932
24.535500	-0.000177	0.000689	0.001195	0.001736	6120.715479	40637.362933	3740.999329	21419.836472
25.035500	0.000638	-0.000606	0.003714	0.000715	6134.812254	40613.562585	3748.956618	21463.715928
25.535500	-0.002488	0.000217	0.003233	0.002977	6093.635547	40488.562542	3742.788012	21366.704545
26.035500	0.002396	0.000811	0.002610	0.001865	6139.492766	40636.797591	3743.884271	21414.327235
26.536000	-0.000367	0.000297	-0.001658	0.001866	6118.270057	40592.005937	3734.347619	21414.288191
27.037500	-0.000976	-0.000510	0.000379	0.001209	6118.642251	40578.930886	3740.355672	21442.490644
27.537000	-0.000413	-0.000168	0.005233	0.000297	6129.946856	40688.156701	3753.337677	21481.702460
28.040000	0.002940	0.001345	0.008089	-0.000960	6165.533441	40930.413165	3762.702502	21535.873908
28.538000	0.001599	0.000671	0.005668	0.000333	6145.158384	40758.200410	3754.242434	21480.144971
29.054000	0.000197	-0.000033	0.005076	-0.000776	6142.900862	40793.631628	3755.415465	21527.949376
29.536000	-0.000629	0.000209	-0.001451	0.004969	6092.616991	40315.418452	3727.932134	21281.661017
30.036000	0.001454	0.000785	0.002167	0.000518	6142.607772	40751.940301	3745.915031	21472.176072
30.536000	0.000315	0.000676	0.003795	0.000040	6137.521913	40784.239862	3750.663931	21492.754137
31.094500	0.000356	-0.000116	0.010088	-0.000760	6144.000250	40784.890422	3766.828109	21527.240558
31.536500	-0.000834	-0.000036	0.001456	0.004962	6091.120064	40294.993384	3734.387658	21281.976504
32.039000	-0.000399	0.001301	0.001857	0.003140	6108.291032	40568.455712	3739.340783	21359.712575
32.567500	-0.000029	0.000464	0.004729	0.000601	6130.555074	40716.635811	3751.507372	21468.594161
33.034000	0.000424	0.000211	0.008147	-0.000531	6142.757924	40793.517003	3761.855309	21517.383949
33.534500	0.001186	0.000682	0.005833	-0.000114	6145.418717	40798.181868	3755.630724	21499.397838
34.035000	-0.000625	0.000004	0.003903	0.000238	6128.776913	40708.226559	3750.460327	21484.242133
34.535000	-0.000423	-0.000368	-0.000476	-0.000356	6134.891357	40727.670980	3741.944503	21509.841772
35.035500	-0.002152	0.000491	0.002840	0.001308	6108.894211	40657.463810	3745.651540	21438.238537
35.536000	-0.001066	0.000151	0.006778	0.004344	6094.048651	40364.426286	3747.683642	21308.305147
36.035500	-0.002241	0.000476	-0.000267	0.002572	6098.586471	40546.196410	3735.872811	21384.038808
36.539000	0.000262	0.000896	0.005675	0.002953	6114.765368	40549.555046	3748.332120	21367.711497
37.034500	-0.000690	0.001090	0.001099	0.002980	6107.296638	40564.048826	3738.007628	21366.574720
37.537500	0.000303	0.000028	0.003185	0.003678	6109.539189	40411.435328	3741.107449	21336.717980
38.034000	-0.000351	-0.000014	0.002988	0.002528	6113.332572	40507.464784	3743.245571	21385.921346
38.535000	0.000954	0.000359	0.002644	0.002878	6120.642404	40509.499851	3741.688896	21370.936892
39.038500	0.000101	0.000632	0.003377	0.002670	6115.698545	40551.241917	3743.799373	21379.831343
39.541500	-0.002188	0.000262	0.002408	0.003474	6092.134024	40449.356559	3739.826814	21345.434808
40.035000	-0.002121	0.000057	0.004144	0.002271	6101.792141	40535.935160	3746.418792	21396.906881
40.536000	-0.000638	0.000300	-0.001140	0.002973	6107.746551	40496.064940	3733.039183	21366.870472
41.036000	-0.000941	0.000637	0.000808	0.002826	6106.555264	40538.046180	3737.700190	21373.144779
41.536500	-0.001286	0.000442	0.003952	0.003589	6098.117931	40454.984072	3743.028213	21340.539155
42.034000	-0.001707	-0.000142	0.002958	0.002104	6106.213901	40533.056996	3744.126727	21404.051603
42.534000	-0.000897	0.000168	0.005260	0.002432	6109.895671	40531.625999	3748.571718	21390.027833
43.035000	-0.001288	0.000273	0.001388	0.002189	6108.761845	40561.729468	3740.418107	21400.409322
43.535500	-0.001817	0.000271	0.000672	0.003496	6094.788295	40448.266635	3735.905190	21344.513917
44.036500	-0.000962	0.000238	0.002505	0.002439	6109.348324	40537.025561	3742.360508	21389.724711
44.536000	-0.002567	0.000040	0.002794	0.002374	6097.607443	40525.435176	3743.152858	21392.488579
45.036000	0.002272	0.000435	0.007114	-0.001193	6162.157066	40870.997339	3761.005706	21545.926192
45.536000	0.000669	0.000847	0.002276	0.003770	6111.632032	40474.389949	3738.869470	21332.786203
46.039500	0.001021	0.001113	0.003871	0.000475	6139.604874	40784.424763	3749.852199	21474.041885
46.536000	0.003138	0.000965	0.008260	0.000236	6157.796621	40792.282314	3760.360620	21484.308611
47.037500	0.000800	0.000301	0.002700	-0.000438	6144.944347	40793.302018	3749.269995	21513.377447
47.538000	0.000406	0.000509	0.005519	0.004544	6103.725593	40378.042253	3744.399755	21299.757102
48.035500	-0.002350	0.000019	0.005918	0.003698	6089.202620	40408.888221	3747.200848	21335.862068
48.562000	-0.000363	0.000663	0.008702	0.000107	6131.785641	40777.224180	3761.665596	21489.858160
49.035500	0.000336	0.000162	-0.000023	0.003132	6113.965395	40470.237526	3735.167390	21360.035402
49.542500	-0.001020	-0.000212	0.001582	0.004450	6093.591573	40323.880255	3735.805487	21303.771121
50.066000	0.001319	0.000368	0.001171	0.004463	6111.311816	40372.940624	3734.862724	21303.234485
50.536500	0.000489	0.000683	0.001126	0.000106	6138.356224	40779.090514	3744.502383	21489.926831
51.050500	0.001385	0.000490	0.008007	0.000043	6145.740218	40767.664889	3760.224476	21492.630415
51.534500	0.000891	0.001687	0.002898	0.005289	6101.741744	40415.570813	3736.868541	21268.033862
52.034500	-0.000278	0.000068	0.002144	0.006219	6085.805542	40195.613458	3733.124081	21228.523169
52.536500	0.022307	0.006058	0.006031	0.006511	6259.148871	40689.142181	3741.137349	21216.123543
53.035500	0.000726	-0.011071	0.010362	0.188975	4960.378537	26736.847924	3414.041367	14894.168323
53.535500	-0.017780	-0.025522	-0.004421	-0.085972	6703.363810	46389.828893	3943.249538	25589.702110
54.034500	-0.030998	-0.097937	-0.010707	-0.315064	9220.101400	65316.782545	4730.429562	41430.630908
54.536000	-0.008187	-0.114501	0.006047	-0.333142	9854.442138	65535.000000	4894.220904	43073.134321
55.036500	-0.005409	-0.074027	0.011068	-0.286983	9183.329456	64719.447602	4702.153105	39011.031570
55.539000	-0.007670	-0.035776	0.004216	-0.225433	8310.358643	61486.289402	4420.438111	34224.430309
56.033500	-0.014801	-0.031720	-0.008658	-0.210597	8038.322178	60048.086595	4318.360353	33168.639139
56.534500	-0.008212	-0.034285	-0.001126	-0.226656	8319.010112	61853.921205	4404.847720	34313.040832
57.037500	0.000981	-0.025078	0.001488	-0.216088	8301.555143	61669.382453	4375.162540	33555.221558
57.535000	0.008703	-0.018343	0.004774	-0.201176	8211.132241	60571.591034	4332.734711	32516.643938
58.037500	0.009466	-0.017493	0.004676	-0.200872	8216.865203	60644.337821	4331.284882	32495.841289
58.535500	0.015222	-0.011034	0.009861	-0.178685	8015.557629	58587.719372	4271.305722	31016.227730
59.035500	0.019387	-0.006001	0.014642	-0.146511	7689.484277	55209.289340	4179.475081	29000.520014
59.536000	0.022417	-0.002513	0.021323	-0.119083	7422.086674	52399.664621	4113.676444	27396.208771
60.036500	0.024905	-0.000992	0.025967	-0.091852	7165.821980	49549.803413	4045.526080	25900.528544
60.536500	0.027710	0.002876	0.030222	-0.068129	6960.279065	47461.720755	3989.567488	24671.871070
61.034000	0.034730	0.006152	0.031589	-0.048833	6844.183679	45845.060685	3940.203062	23720.810210
61.534500	0.039367	0.011073	0.036045	-0.026318	6680.868092	44136.845959	3892.498164	22663.168328
62.035000	0.042603	0.013097	0.049435	-0.024086	6689.863247	44117.176775	3921.739607	22561.320284
62.535500	0.053806	0.018746	0.051412	-0.009157	6656.581615	43244.036780	3887.865336	21893.092915
63.035000	0.056009	0.020352	0.056914	-0.006938	6656.450831	43187.144972	3896.358627	21795.752425
63.536500	0.060381	0.026926	0.062627	0.009319	6552.202060	42297.049197	3869.317206	21097.360259
64.036000	0.059675	0.030058	0.061010	0.011819	6524.567616	42354.517335	3858.932759	20992.240467
64.536500	0.067057	0.034368	0.067034	0.015136	6559.639416	42445.080833	3865.748861	20853.734547
65.036500	0.069274	0.035365	0.074183	0.016860	6563.913889	42378.759117	3879.535678	20782.149000
65.561000	0.074963	0.037166	0.077671	0.018856	6596.100333	42361.034215	3883.357376	20699.636545
66.037500	0.070940	0.037249	0.070436	0.027278	6488.714027	41609.022435	3843.898132	20355.613853
66.534500	0.078346	0.039948	0.076017	0.026835	6556.086404	41890.695912	3858.912774	20373.564496
67.035000	0.078718	0.039917	0.081229	0.029807	6533.630559	41621.411037	3864.546892	20253.594047
67.535500	0.076824	0.041007	0.085783	0.040603	6425.970975	40763.954267	3848.914207	19824.785674
68.038500	0.079888	0.043018	0.084220	0.045774	6408.394511	40488.832130	3832.298186	19623.108296
68.536000	0.083699	0.043597	0.086165	0.044157	6453.837589	40679.788959	3841.054142	19685.892014
69.036000	0.085216	0.045171	0.090496	0.049441	6422.238068	40357.794891	3838.705719	19481.550668
69.539500	0.084405	0.045229	0.091338	0.053454	6382.167714	40017.451016	3830.921532	19327.988522
70.039500	0.084249	0.045691	0.088635	0.064419	6291.472424	39128.796108	3798.022627	18915.614218
70.536500	0.089488	0.047719	0.093804	0.062475	6349.790751	39462.409729	3815.015441	18987.981019
71.034500	0.089291	0.049027	0.097187	0.067367	6308.373672	39161.145639	3811.385108	18806.480529
71.537500	0.088930	0.049908	0.095281	0.078154	6219.328277	38341.731940	3781.360248	18413.516199
72.035000	0.087611	0.050113	0.096076	0.081332	6184.054200	38099.364714	3775.820719	18299.574964
72.535500	0.094076	0.051002	0.103701	0.078646	6256.219789	38390.908306	3800.011161	18395.802919
73.038000	0.095941	0.052008	0.108683	0.083328	6233.847346	38091.217140	3800.723192	18228.452686
73.535500	0.099264	0.053179	0.104129	0.087829	6224.528319	37821.756354	3779.433924	18069.232529
74.036000	0.096721	0.053439	0.100840	0.097333	6130.694307	37084.658602	3750.102849	17738.438178
74.537500	0.104541	0.055784	0.106171	0.096041	6201.432783	37372.856028	3765.179701	17782.994505
75.036500	0.107783	0.057181	0.107629	0.101042	6187.658546	37087.293015	3757.085735	17611.302706
75.534500	0.101841	0.057009	0.110135	0.110348	6070.599399	36347.515166	3741.735408	17297.022230
76.034000	0.107037	0.057543	0.116484	0.114406	6079.198348	36076.653338	3746.879054	17162.079631
76.534500	0.110905	0.059139	0.122709	0.112295	6124.729718	36361.734140	3765.832223	17232.130617
77.035000	0.112914	0.059497	0.121784	0.116445	6108.350619	36070.053511	3754.249783	17094.736780
77.535000	0.110697	0.060678	0.115886	0.126506	6015.987694	35397.204451	3718.701490	16767.102669
78.035500	0.112765	0.061722	0.117803	0.130098	6004.706065	35206.640899	3715.046439	16651.963021
78.536000	0.117071	0.063653	0.129368	0.130126	6036.483851	35348.868911	3740.516380	16651.077446
79.038500	0.119238	0.063299	0.128243	0.133385	6028.334915	35079.319611	3730.756207	16547.402609
79.536500	0.118375	0.063869	0.128956	0.143729	5945.962231	34361.564437	3709.664915	16223.563262
80.036500	0.124676	0.065589	0.133749	0.141938	6005.223075	34617.492972	3724.032216	16279.061328
80.537500	0.123710	0.065881	0.134740	0.145122	5974.693987	34406.493257	3719.222379	16180.509190
81.037000	0.126800	0.065773	0.135589	0.148767	5970.630192	34134.688429	3713.123196	16068.571444
81.535000	0.122530	0.066630	0.134794	0.158112	5872.614297	33528.712640	3691.336623	15785.857430
82.035000	0.126995	0.067660	0.135256	0.161933	5877.180725	33331.990585	3684.227800	15671.984354
82.536500	0.130124	0.069530	0.141091	0.160126	5912.416313	33591.418822	3700.477168	15725.711727
83.037500	0.133049	0.069758	0.139957	0.163222	5911.186586	33388.885818	3691.448495	15633.806925
83.537000	0.128825	0.068971	0.140511	0.172353	5816.818913	32698.715095	3673.409842	15366.527611
84.036500	0.134003	0.072082	0.138574	0.175426	5831.491593	32701.283515	3663.033949	15277.810604
84.536500	0.139350	0.072727	0.149150	0.174346	5876.766287	32820.202601	3687.355353	15308.914967
85.037500	0.139229	0.073601	0.154584	0.177065	5856.682937	32693.051254	3693.114857	15230.763990
85.537500	0.141068	0.073659	0.149396	0.186025	5806.886184	32087.048127	3663.493092	14976.680449
86.035500	0.140526	0.074853	0.150731	0.188129	5788.589641	32025.776019	3661.912679	14917.775663
86.535500	0.144119	0.075724	0.159170	0.186136	5827.348793	32218.987698	3683.621480	14973.571315
87.035500	0.147027	0.076612	0.157232	0.189544	5823.859420	32048.903084	3672.428984	14878.306328
87.535500	0.148813	0.077390	0.157551	0.191639	5821.704174	31960.418268	3668.744032	14820.129913
88.036500	0.150630	0.077931	0.161035	0.198769	5784.899472	31521.664842	3661.220702	14624.180430
88.539500	0.153183	0.079124	0.164011	0.197423	5811.865271	31689.936277	3670.145629	14660.927437
89.036500	0.151900	0.078997	0.169197	0.199619	5787.787347	31535.934463	3676.370661	14601.036006
89.537500	0.155156	0.080873	0.166088	0.201641	5796.302350	31526.218579	3665.711379	14546.150860
90.037500	0.154308	0.082119	0.167162	0.210173	5732.173342	31048.709833	3650.444366	14317.408142
90.535000	0.158796	0.083629	0.169992	0.207857	5778.562295	31298.542725	3660.952564	14379.069579
91.035000	0.158643	0.083515	0.170972	0.209371	5767.123349	31191.912430	3659.855547	14338.709590
91.535500	0.159419	0.084487	0.173586	0.218220	5712.386838	30682.038699	3647.156037	14105.730072
92.035500	0.160896	0.084085	0.172269	0.218182	5722.575552	30658.659899	3644.573730	14106.711843
92.535500	0.162933	0.085808	0.176214	0.215409	5755.182907	30948.375976	3658.224869	14179.223002
93.036500	0.169055	0.089288	0.178196	0.219714	5767.597719	30894.990442	3653.481977	14066.866531
93.536500	0.163455	0.088473	0.181068	0.226451	5684.336819	30411.003341	3645.643015	13893.223134
94.036500	0.167597	0.089013	0.175481	0.226496	5711.724320	30442.522684	3634.347736	13892.089121
94.537000	0.169953	0.089800	0.183991	0.222968	5751.514231	30718.289777	3658.670327	13982.666976
95.035000	0.171901	0.090895	0.181392	0.225737	5745.932261	30610.943681	3647.740496	13911.506197
95.535000	0.170890	0.092250	0.181045	0.233713	5685.485072	30190.507799	3631.059940	13709.058609
96.035500	0.172445	0.091593	0.185579	0.232199	5705.984787	30244.571524	3643.149670	13747.201776
96.535500	0.176058	0.093515	0.183310	0.230288	5743.253928	30487.659971	3642.430048	13795.537225
97.035500	0.176048	0.093713	0.187192	0.232329	5729.360963	30370.494352	3646.138445	13743.916823
97.536000	0.175523	0.094235	0.190160	0.239488	5677.901863	29952.760907	3637.717279	13564.804851
