sample name	sample
index	956
start time	 04-12-2021  03:55:20 PM


Wavelength (nm)	Absorbance
494.344910	0.063546
494.563924	0.063546
494.782919	0.063546
495.001897	0.406686
495.220856	0.042827
495.439797	0.054302
495.658719	0.030989
495.877624	0.029626
496.096510	-0.023243
496.315378	-0.018917
496.534227	-0.035462
496.753059	-0.039646
496.971872	-0.082139
497.190667	0.040124
497.409444	0.059888
497.628203	0.064208
497.846943	0.069157
498.065665	0.071498
498.284369	0.073943
498.503055	0.074655
498.721723	0.075127
498.940372	0.075506
499.159003	0.075177
499.377616	0.075581
499.596210	0.077076
499.814787	0.077541
500.033345	0.077537
500.251885	0.076223
500.470406	0.075702
500.688910	0.076170
500.907395	0.076934
501.125862	0.076942
501.344311	0.076068
501.562742	0.076409
501.781154	0.075546
501.999548	0.075985
502.217924	0.076792
502.436282	0.077541
502.654621	0.076908
502.872942	0.076799
503.091245	0.076738
503.309530	0.076690
503.527797	0.075651
503.746045	0.076294
503.964275	0.076230
504.182487	0.076566
504.400681	0.075888
504.618856	0.076673
504.837013	0.076734
505.055152	0.077608
505.273273	0.078138
505.491376	0.077726
505.709460	0.076935
505.927526	0.076645
506.145574	0.076289
506.363604	0.077021
506.581615	0.076781
506.799608	0.076382
507.017583	0.075980
507.235540	0.076701
507.453478	0.078037
507.671399	0.078349
507.889301	0.078819
508.107185	0.079394
508.325050	0.080190
508.542898	0.080391
508.760727	0.081630
508.978538	0.081963
509.196330	0.081483
509.414105	0.081050
509.631861	0.081579
509.849599	0.081220
510.067319	0.080473
510.285021	0.080511
510.502704	0.080112
510.720369	0.079852
510.938016	0.079949
511.155645	0.080490
511.373255	0.080968
511.590848	0.080488
511.808422	0.080679
512.025977	0.081192
512.243515	0.080297
512.461034	0.080694
512.678536	0.080260
512.896018	0.080734
513.113483	0.079948
513.330930	0.080010
513.548358	0.080434
513.765768	0.081122
513.983160	0.081754
514.200533	0.081965
514.417889	0.082033
514.635226	0.082460
514.852545	0.082029
515.069845	0.082945
515.287128	0.082801
515.504392	0.083221
515.721638	0.083273
515.938866	0.083291
516.156075	0.083349
516.373267	0.083566
516.590440	0.083626
516.807594	0.083877
517.024731	0.083576
517.241850	0.083724
517.458950	0.082841
517.676032	0.082998
517.893095	0.083289
518.110141	0.083701
518.327168	0.083866
518.544177	0.084329
518.761168	0.084315
518.978141	0.084932
519.195095	0.084960
519.412031	0.085941
519.628949	0.085424
519.845849	0.085201
520.062731	0.085827
520.279594	0.085912
520.496439	0.085911
520.713266	0.086129
520.930074	0.085506
521.146865	0.085558
521.363637	0.084598
521.580391	0.085753
521.797127	0.085795
522.013844	0.085365
522.230543	0.085509
522.447224	0.085562
522.663887	0.086012
522.880532	0.086410
523.097158	0.086234
523.313766	0.086669
523.530356	0.086866
523.746928	0.086894
523.963481	0.087473
524.180017	0.087657
524.396534	0.088042
524.613032	0.088354
524.829513	0.088729
525.045975	0.089564
525.262420	0.090297
525.478845	0.089569
525.695253	0.089938
525.911643	0.089112
526.128014	0.089651
526.344367	0.089647
526.560702	0.089425
526.777018	0.088986
526.993316	0.089111
527.209597	0.089675
527.425858	0.090320
527.642102	0.090024
527.858328	0.091036
528.074535	0.090575
528.290724	0.090892
528.506894	0.091217
528.723047	0.092163
528.939181	0.092461
529.155297	0.091903
529.371395	0.092295
529.587475	0.092790
529.803536	0.093287
530.019579	0.094079
530.235604	0.094596
530.451611	0.094726
530.667600	0.094935
530.883570	0.095093
531.099522	0.095832
531.315456	0.095860
531.531372	0.096380
531.747269	0.096455
531.963148	0.096222
532.179009	0.096259
532.394852	0.096595
532.610676	0.096472
532.826482	0.096428
533.042271	0.096254
533.258040	0.096230
533.473792	0.096113
533.689525	0.096928
533.905240	0.097365
534.120937	0.097350
534.336616	0.097729
534.552277	0.098002
534.767919	0.098145
534.983543	0.097986
535.199149	0.097748
535.414736	0.098159
535.630306	0.097271
535.845857	0.097103
536.061390	0.096979
536.276904	0.096825
536.492401	0.097308
536.707879	0.097597
536.923339	0.098651
537.138781	0.099202
537.354204	0.099031
537.569610	0.099204
537.784997	0.100041
538.000366	0.100844
538.215716	0.100980
538.431049	0.100417
538.646363	0.100317
538.861659	0.100258
539.076937	0.100410
539.292196	0.100495
539.507438	0.101103
539.722661	0.100504
539.937866	0.100472
540.153052	0.100362
540.368221	0.101091
540.583371	0.101342
540.798503	0.101076
541.013617	0.100999
541.228712	0.101190
541.443789	0.100726
541.658848	0.100903
541.873889	0.100656
542.088912	0.101055
542.303916	0.101360
542.518902	0.101444
542.733870	0.102273
542.948820	0.102820
543.163752	0.103137
543.378665	0.104015
543.593560	0.104533
543.808437	0.105127
544.023295	0.105293
544.238136	0.105247
544.452958	0.105785
544.667762	0.105473
544.882548	0.105279
545.097315	0.105540
545.312064	0.104715
545.526795	0.105108
545.741508	0.105142
545.956203	0.105190
546.170879	0.105323
546.385537	0.105418
546.600177	0.105701
546.814799	0.105790
547.029402	0.105885
547.243988	0.106441
547.458555	0.106035
547.673103	0.105855
547.887634	0.106339
548.102146	0.106524
548.316640	0.106592
548.531116	0.106679
548.745574	0.106910
548.960013	0.107139
549.174435	0.107534
549.388838	0.108128
549.603222	0.108260
549.817589	0.108066
550.031937	0.108222
550.246267	0.108366
550.460579	0.108388
550.674873	0.108745
550.889148	0.108940
551.103405	0.108762
551.317644	0.108551
551.531865	0.108676
551.746068	0.108930
551.960252	0.108834
552.174418	0.109068
552.388566	0.109621
552.602696	0.109895
552.816807	0.109958
553.030900	0.110457
553.244975	0.110343
553.459032	0.110813
553.673070	0.111053
553.887091	0.111616
554.101093	0.111347
554.315077	0.111049
554.529042	0.111029
554.742990	0.110942
554.956919	0.110486
555.170830	0.111143
555.384722	0.111106
555.598597	0.111287
555.812453	0.110925
556.026291	0.110955
556.240111	0.111168
556.453913	0.111442
556.667696	0.111695
556.881461	0.112473
557.095208	0.112536
557.308937	0.112373
557.522647	0.112395
557.736339	0.112762
557.950013	0.113319
558.163669	0.113314
558.377307	0.113012
558.590926	0.113165
558.804527	0.113077
559.018110	0.113040
559.231675	0.113462
559.445221	0.113454
559.658749	0.113688
559.872259	0.113388
560.085751	0.113518
560.299225	0.113991
560.512680	0.114085
560.726117	0.113980
560.939536	0.113970
561.152937	0.114084
561.366319	0.114359
561.579683	0.114034
561.793029	0.114285
562.006357	0.114379
562.219667	0.114562
562.432958	0.114675
562.646231	0.114930
562.859486	0.114999
563.072723	0.115359
563.285941	0.115179
563.499141	0.115338
563.712323	0.115549
563.925487	0.115801
564.138632	0.115455
564.351760	0.115267
564.564869	0.115024
564.777960	0.114985
564.991032	0.114296
565.204087	0.114330
565.417123	0.114479
565.630141	0.114287
565.843140	0.113946
566.056122	0.114030
566.269085	0.114613
566.482030	0.114891
566.694957	0.115012
566.907866	0.115803
567.120756	0.116114
567.333628	0.116106
567.546482	0.116382
567.759318	0.116562
567.972135	0.116765
568.184935	0.116518
568.397716	0.116749
568.610478	0.116959
568.823223	0.116810
569.035949	0.116382
569.248657	0.116660
569.461347	0.116648
569.674019	0.117098
569.886672	0.117053
570.099308	0.117016
570.311925	0.117150
570.524523	0.116894
570.737104	0.116620
570.949666	0.116710
571.162210	0.116224
571.374736	0.116197
571.587244	0.116414
571.799733	0.116247
572.012205	0.116511
572.224658	0.116689
572.437092	0.116896
572.649509	0.117127
572.861907	0.117272
573.074287	0.117690
573.286649	0.117828
573.498993	0.117366
573.711318	0.117900
573.923625	0.117692
574.135914	0.117280
574.348185	0.117375
574.560438	0.117365
574.772672	0.117816
574.984888	0.118078
575.197086	0.118316
575.409266	0.118309
575.621427	0.117646
575.833570	0.117622
576.045695	0.117795
576.257802	0.118052
576.469890	0.118366
576.681961	0.118496
576.894013	0.118233
577.106046	0.118155
577.318062	0.118316
577.530059	0.119152
577.742039	0.119510
577.954000	0.119825
578.165942	0.119894
578.377867	0.119850
578.589773	0.119508
578.801661	0.119890
579.013531	0.120362
579.225382	0.120533
579.437216	0.120543
579.649031	0.120400
579.860828	0.120242
580.072606	0.120315
580.284367	0.120339
580.496109	0.120293
580.707833	0.120009
580.919539	0.119782
581.131227	0.119987
581.342896	0.119950
581.554547	0.120204
581.766180	0.120385
581.977795	0.120699
582.189391	0.120533
582.400969	0.120779
582.612529	0.120985
582.824071	0.121040
583.035595	0.121090
583.247100	0.120860
583.458587	0.121071
583.670056	0.120975
583.881506	0.120836
584.092939	0.121222
584.304353	0.121543
584.515749	0.121639
584.727127	0.121453
584.938486	0.121470
585.149828	0.121694
585.361151	0.121730
585.572456	0.121796
585.783742	0.121553
585.995011	0.121684
586.206261	0.121619
586.417493	0.121569
586.628706	0.121895
586.839902	0.121876
587.051079	0.121877
587.262238	0.121651
587.473379	0.122120
587.684502	0.122805
587.895606	0.122539
588.106692	0.122965
588.317760	0.122921
588.528810	0.123104
588.739841	0.123209
588.950855	0.123590
589.161850	0.123825
589.372827	0.123811
589.583785	0.123496
589.794726	0.124151
590.005648	0.124257
590.216552	0.124480
590.427437	0.124437
590.638305	0.124514
590.849154	0.124361
591.059985	0.124135
591.270798	0.123903
591.481592	0.124132
591.692369	0.123935
591.903127	0.123888
592.113867	0.124099
592.324588	0.124222
592.535292	0.124496
592.745977	0.124841
592.956644	0.124900
593.167293	0.124696
593.377923	0.124386
593.588536	0.124289
593.799130	0.124026
594.009706	0.124485
594.220263	0.124369
594.430803	0.124197
594.641324	0.123867
594.851827	0.124410
595.062312	0.124719
595.272778	0.125021
595.483227	0.124891
595.693657	0.125103
595.904069	0.124542
596.114462	0.124686
596.324838	0.124842
596.535195	0.125074
596.745534	0.125170
596.955855	0.125320
597.166157	0.125226
597.376441	0.125675
597.586707	0.125993
597.796955	0.126383
598.007185	0.126721
598.217396	0.126678
598.427589	0.126971
598.637764	0.127197
598.847921	0.127330
599.058060	0.127534
599.268180	0.127966
599.478282	0.127879
599.688366	0.127971
599.898431	0.127856
600.108479	0.128035
600.318508	0.127897
600.528519	0.127706
600.738511	0.127930
600.948486	0.127957
601.158442	0.127884
601.368380	0.128063
601.578300	0.128425
601.788202	0.128279
601.998085	0.128335
602.207950	0.128220
602.417797	0.127919
602.627626	0.127812
602.837436	0.127738
603.047228	0.127435
603.257002	0.127061
603.466758	0.126800
603.676496	0.127027
603.886215	0.127299
604.095916	0.127561
604.305599	0.127896
604.515264	0.127728
604.724910	0.128347
604.934538	0.128462
605.144148	0.128911
605.353740	0.128796
605.563314	0.128750
605.772869	0.128759
605.982406	0.128771
606.191925	0.128907
606.401425	0.129561
606.610908	0.129337
606.820372	0.129315
607.029818	0.129006
607.239246	0.129021
607.448655	0.129254
607.658047	0.128941
607.867420	0.128973
608.076775	0.128890
608.286111	0.128448
608.495430	0.128474
608.704730	0.128916
608.914012	0.129287
609.123275	0.129595
609.332521	0.130194
609.541748	0.130544
609.750957	0.130586
609.960148	0.130878
610.169321	0.131262
610.378475	0.131327
610.587611	0.131352
610.796729	0.131349
611.005829	0.131095
611.214910	0.130460
611.423974	0.130591
611.633019	0.130867
611.842045	0.130791
612.051054	0.130617
612.260044	0.130680
612.469017	0.130580
612.677970	0.130497
612.886906	0.130758
613.095824	0.130834
613.304723	0.130851
613.513604	0.130731
613.722467	0.130746
613.931311	0.130751
614.140138	0.130861
614.348946	0.130801
614.557736	0.131101
614.766507	0.131471
614.975261	0.131728
615.183996	0.131543
615.392713	0.131710
615.601412	0.131781
615.810092	0.131968
616.018754	0.132150
616.227399	0.132350
616.436024	0.132103
616.644632	0.131810
616.853222	0.131912
617.061793	0.132114
617.270346	0.132290
617.478880	0.132325
617.687397	0.132425
617.895895	0.132082
618.104375	0.131950
618.312837	0.131954
618.521281	0.132059
618.729706	0.131861
618.938113	0.132100
619.146502	0.131952
619.354873	0.132228
619.563226	0.132011
619.771560	0.132169
619.979876	0.132446
620.188174	0.132819
620.396453	0.132776
620.604715	0.132740
620.812958	0.132626
621.021183	0.132585
621.229390	0.132474
621.437578	0.132834
621.645748	0.132971
621.853900	0.133016
622.062034	0.133105
622.270150	0.133519
622.478247	0.133564
622.686326	0.133545
622.894387	0.133554
623.102430	0.133534
623.310454	0.133639
623.518461	0.133849
623.726449	0.133720
623.934418	0.133620
624.142370	0.133500
624.350303	0.133872
624.558218	0.133926
624.766115	0.133907
624.973994	0.134102
625.181855	0.134289
625.389697	0.134255
625.597521	0.134390
625.805327	0.134492
626.013114	0.134504
626.220883	0.134398
626.428634	0.134561
626.636367	0.135130
626.844082	0.135323
627.051778	0.134948
627.259457	0.135174
627.467117	0.135624
627.674758	0.135497
627.882382	0.135511
628.089987	0.135692
628.297574	0.135472
628.505143	0.135357
628.712694	0.135289
628.920226	0.135407
629.127740	0.135447
629.335236	0.135097
629.542714	0.135443
629.750174	0.135589
629.957615	0.135685
630.165038	0.135878
630.372443	0.135928
630.579829	0.136093
630.787198	0.136385
630.994548	0.136549
631.201880	0.136718
631.409194	0.136689
631.616489	0.136708
631.823766	0.136757
632.031025	0.136902
632.238266	0.137059
632.445489	0.136862
632.652693	0.136987
632.859879	0.136932
633.067047	0.136955
633.274197	0.137142
633.481329	0.137410
633.688442	0.137480
633.895537	0.137633
634.102614	0.137587
634.309672	0.137830
634.516713	0.137725
634.723735	0.137963
634.930739	0.138019
635.137724	0.138054
635.344692	0.137882
635.551641	0.137824
635.758572	0.137766
635.965485	0.137687
636.172379	0.137706
636.379256	0.137879
636.586114	0.137673
636.792954	0.137760
636.999775	0.137859
637.206579	0.138159
637.413364	0.138477
637.620131	0.138684
637.826880	0.138992
638.033610	0.139154
638.240323	0.139329
638.447017	0.139425
638.653692	0.139646
638.860350	0.139808
639.066990	0.139737
639.273611	0.139645
639.480214	0.139788
639.686798	0.139806
639.893365	0.139994
640.099913	0.140020
640.306443	0.140043
640.512955	0.140189
640.719449	0.140209
640.925924	0.140467
641.132381	0.140514
641.338820	0.140351
641.545241	0.140534
641.751644	0.140510
641.958028	0.140499
642.164394	0.140762
642.370742	0.140831
642.577071	0.140731
642.783383	0.140356
642.989676	0.140697
643.195951	0.140831
643.402207	0.140698
643.608446	0.140700
643.814666	0.140893
644.020868	0.140923
644.227052	0.140915
644.433218	0.141191
644.639365	0.141622
644.845494	0.141530
645.051605	0.141692
645.257698	0.141850
645.463772	0.142167
645.669828	0.142085
645.875866	0.142130
646.081886	0.142057
646.287888	0.142081
646.493871	0.142194
646.699836	0.142401
646.905783	0.142523
647.111712	0.142742
647.317622	0.142804
647.523514	0.143273
647.729388	0.143341
647.935244	0.143582
648.141082	0.143894
648.346901	0.144182
648.552702	0.144025
648.758485	0.144078
648.964250	0.144082
649.169996	0.144015
649.375724	0.143756
649.581434	0.143776
649.787126	0.143859
649.992800	0.143915
650.198455	0.143901
650.404092	0.144182
650.609711	0.144292
650.815311	0.144477
651.020894	0.144751
651.226458	0.145122
651.432004	0.145593
651.637532	0.145739
651.843041	0.145725
652.048532	0.145839
652.254006	0.145785
652.459460	0.146110
652.664897	0.146403
652.870315	0.146137
653.075716	0.146138
653.281097	0.146063
653.486461	0.145992
653.691807	0.145960
653.897134	0.146082
654.102443	0.146543
654.307734	0.146540
654.513006	0.146434
654.718261	0.146825
654.923497	0.146960
655.128715	0.147235
655.333915	0.147518
655.539096	0.147853
655.744259	0.147989
655.949404	0.148062
656.154531	0.148033
656.359640	0.148293
656.564730	0.148147
656.769802	0.148231
656.974856	0.148159
657.179892	0.148314
657.384909	0.148434
657.589908	0.148187
657.794889	0.148046
657.999852	0.148333
658.204797	0.148386
658.409723	0.148599
658.614631	0.148582
658.819521	0.148634
659.024393	0.148744
659.229246	0.148650
659.434081	0.148896
659.638898	0.149157
659.843697	0.149135
660.048478	0.149232
660.253240	0.149518
660.457984	0.149612
660.662710	0.149716
660.867417	0.149787
661.072107	0.149863
661.276778	0.150029
661.481431	0.150047
661.686066	0.150307
661.890682	0.150179
662.095281	0.150205
662.299861	0.150448
662.504422	0.150541
662.708966	0.150433
662.913491	0.150644
663.117999	0.150622
663.322488	0.150792
663.526958	0.150838
663.731411	0.151016
663.935845	0.151079
664.140261	0.151067
664.344659	0.151153
664.549038	0.151477
664.753400	0.151429
664.957743	0.151664
665.162068	0.151754
665.366375	0.151557
665.570663	0.151827
665.774933	0.151778
665.979185	0.151897
666.183419	0.151881
666.387635	0.151935
666.591832	0.152036
666.796011	0.152062
667.000172	0.152184
667.204315	0.152532
667.408439	0.152217
667.612545	0.152510
667.816634	0.152578
668.020703	0.152973
668.224755	0.152927
668.428788	0.153154
668.632803	0.153233
668.836800	0.153153
669.040779	0.153301
669.244739	0.153757
669.448681	0.153799
669.652605	0.154047
669.856511	0.153908
670.060399	0.154044
670.264268	0.154166
670.468119	0.154489
670.671952	0.154636
670.875767	0.154535
671.079563	0.154468
671.283341	0.154491
671.487101	0.154542
671.690843	0.154649
671.894567	0.154872
672.098272	0.154705
672.301959	0.154830
672.505628	0.154865
672.709278	0.155086
672.912911	0.155495
673.116525	0.155736
673.320121	0.155736
673.523699	0.155915
673.727258	0.156025
673.930799	0.156318
674.134322	0.156261
674.337827	0.156414
674.541314	0.156602
674.744782	0.156258
674.948232	0.156299
675.151664	0.156672
675.355078	0.156969
675.558474	0.156801
675.761851	0.156808
675.965210	0.156937
676.168551	0.157004
676.371873	0.157109
676.575178	0.157509
676.778464	0.157635
676.981732	0.157668
677.184981	0.157706
677.388213	0.157916
677.591426	0.157932
677.794621	0.157996
677.997798	0.158220
678.200956	0.158218
678.404097	0.158214
678.607219	0.158372
678.810323	0.158316
679.013408	0.158099
679.216476	0.158215
679.419525	0.158436
679.622556	0.158585
679.825569	0.158634
680.028563	0.158738
680.231540	0.158818
680.434498	0.158654
680.637438	0.158764
680.840359	0.159144
681.043263	0.159270
681.246148	0.159321
681.449015	0.159455
681.651864	0.159746
681.854694	0.159959
682.057506	0.160232
682.260301	0.160436
682.463076	0.160416
682.665834	0.160241
682.868573	0.160437
683.071295	0.160671
683.273998	0.160670
683.476682	0.160663
683.679349	0.160703
683.881997	0.160636
684.084627	0.160852
684.287239	0.161040
684.489833	0.161536
684.692408	0.161716
684.894965	0.161922
685.097504	0.162017
685.300025	0.162062
685.502527	0.162032
685.705012	0.162177
685.907478	0.162113
686.109925	0.162137
686.312355	0.161976
686.514766	0.161944
686.717159	0.162096
686.919534	0.162159
687.121891	0.162341
687.324230	0.162570
687.526550	0.162683
687.728852	0.162958
687.931136	0.163078
688.133401	0.163173
688.335649	0.163332
688.537878	0.163317
688.740089	0.163551
688.942281	0.163597
689.144456	0.163606
689.346612	0.163584
689.548750	0.163523
689.750870	0.163713
689.952971	0.163597
690.155055	0.163720
690.357120	0.163662
690.559167	0.163548
690.761195	0.163404
690.963206	0.163418
691.165198	0.163346
691.367172	0.163491
691.569128	0.163268
691.771065	0.163652
691.972984	0.163486
692.174885	0.163461
692.376768	0.163603
692.578633	0.163802
692.780479	0.163788
692.982308	0.164065
693.184118	0.164008
693.385909	0.164054
