sample name	sample
index	898
start time	 04-08-2021  03:26:22 PM


Wavelength (nm)	Absorbance
494.344910	-1.158946
494.563924	-1.158946
494.782919	-1.158946
495.001897	-0.485028
495.220856	0.492519
495.439797	0.201138
495.658719	-0.124374
495.877624	-0.139789
496.096510	0.097873
496.315378	0.044435
496.534227	-0.082150
496.753059	-0.042660
496.971872	-0.001654
497.190667	0.187791
497.409444	0.191408
497.628203	0.197523
497.846943	0.198328
498.065665	0.196866
498.284369	0.197358
498.503055	0.197806
498.721723	0.198139
498.940372	0.197097
499.159003	0.197161
499.377616	0.196744
499.596210	0.196572
499.814787	0.195981
500.033345	0.196626
500.251885	0.195490
500.470406	0.196220
500.688910	0.195862
500.907395	0.197674
501.125862	0.196532
501.344311	0.196712
501.562742	0.196270
501.781154	0.196236
501.999548	0.195498
502.217924	0.196175
502.436282	0.196453
502.654621	0.195624
502.872942	0.195785
503.091245	0.196523
503.309530	0.197407
503.527797	0.198490
503.746045	0.198757
503.964275	0.199172
504.182487	0.199135
504.400681	0.198741
504.618856	0.199480
504.837013	0.198968
505.055152	0.198019
505.273273	0.198069
505.491376	0.197628
505.709460	0.198147
505.927526	0.198185
506.145574	0.199351
506.363604	0.199757
506.581615	0.200290
506.799608	0.199757
507.017583	0.199876
507.235540	0.200009
507.453478	0.200419
507.671399	0.200374
507.889301	0.200861
508.107185	0.201081
508.325050	0.200590
508.542898	0.200149
508.760727	0.201215
508.978538	0.202479
509.196330	0.202067
509.414105	0.201858
509.631861	0.201905
509.849599	0.202709
510.067319	0.202677
510.285021	0.203193
510.502704	0.203568
510.720369	0.203928
510.938016	0.204102
511.155645	0.204544
511.373255	0.205125
511.590848	0.205928
511.808422	0.206230
512.025977	0.206780
512.243515	0.207447
512.461034	0.207306
512.678536	0.207509
512.896018	0.207788
513.113483	0.209019
513.330930	0.209690
513.548358	0.209602
513.765768	0.208541
513.983160	0.208299
514.200533	0.208656
514.417889	0.209018
514.635226	0.209382
514.852545	0.208990
515.069845	0.208337
515.287128	0.208485
515.504392	0.208854
515.721638	0.208788
515.938866	0.210068
516.156075	0.210909
516.373267	0.210742
516.590440	0.210918
516.807594	0.211527
517.024731	0.212306
517.241850	0.211986
517.458950	0.212439
517.676032	0.213697
517.893095	0.212937
518.110141	0.212102
518.327168	0.213321
518.544177	0.213054
518.761168	0.214118
518.978141	0.214253
519.195095	0.215534
519.412031	0.215605
519.628949	0.215449
519.845849	0.215791
520.062731	0.215243
520.279594	0.215028
520.496439	0.215186
520.713266	0.214906
520.930074	0.214976
521.146865	0.214676
521.363637	0.214172
521.580391	0.214441
521.797127	0.215064
522.013844	0.216290
522.230543	0.216787
522.447224	0.217063
522.663887	0.216815
522.880532	0.216930
523.097158	0.216715
523.313766	0.217618
523.530356	0.218068
523.746928	0.217661
523.963481	0.217932
524.180017	0.217885
524.396534	0.217897
524.613032	0.218902
524.829513	0.218505
525.045975	0.219303
525.262420	0.219533
525.478845	0.219276
525.695253	0.219632
525.911643	0.219689
526.128014	0.220051
526.344367	0.220742
526.560702	0.220364
526.777018	0.221100
526.993316	0.220861
527.209597	0.220974
527.425858	0.220922
527.642102	0.221312
527.858328	0.221794
528.074535	0.222587
528.290724	0.222951
528.506894	0.223831
528.723047	0.224335
528.939181	0.225488
529.155297	0.225654
529.371395	0.226465
529.587475	0.227193
529.803536	0.227643
530.019579	0.227627
530.235604	0.228154
530.451611	0.228191
530.667600	0.228977
530.883570	0.229401
531.099522	0.229920
531.315456	0.230599
531.531372	0.231035
531.747269	0.231688
531.963148	0.232115
532.179009	0.232821
532.394852	0.233620
532.610676	0.233717
532.826482	0.233456
533.042271	0.234137
533.258040	0.234624
533.473792	0.234277
533.689525	0.234140
533.905240	0.234191
534.120937	0.233136
534.336616	0.233050
534.552277	0.233331
534.767919	0.233420
534.983543	0.233735
535.199149	0.234184
535.414736	0.235016
535.630306	0.236052
535.845857	0.236545
536.061390	0.237411
536.276904	0.237818
536.492401	0.237872
536.707879	0.238872
536.923339	0.238566
537.138781	0.238292
537.354204	0.238142
537.569610	0.237972
537.784997	0.237980
538.000366	0.238278
538.215716	0.238213
538.431049	0.239062
538.646363	0.238992
538.861659	0.239986
539.076937	0.241098
539.292196	0.242077
539.507438	0.242412
539.722661	0.242948
539.937866	0.243499
540.153052	0.244244
540.368221	0.244332
540.583371	0.244403
540.798503	0.243895
541.013617	0.243502
541.228712	0.243416
541.443789	0.243145
541.658848	0.243512
541.873889	0.243631
542.088912	0.244192
542.303916	0.244496
542.518902	0.244929
542.733870	0.246300
542.948820	0.246962
543.163752	0.247402
543.378665	0.248617
543.593560	0.248997
543.808437	0.250127
544.023295	0.250262
544.238136	0.250678
544.452958	0.250935
544.667762	0.250843
544.882548	0.251322
545.097315	0.251523
545.312064	0.251476
545.526795	0.251830
545.741508	0.251517
545.956203	0.251679
546.170879	0.251542
546.385537	0.252001
546.600177	0.252221
546.814799	0.251983
547.029402	0.251743
547.243988	0.252006
547.458555	0.252187
547.673103	0.252768
547.887634	0.252811
548.102146	0.253300
548.316640	0.253199
548.531116	0.253825
548.745574	0.254398
548.960013	0.255378
549.174435	0.254844
549.388838	0.255331
549.603222	0.255220
549.817589	0.255877
550.031937	0.256328
550.246267	0.257076
550.460579	0.256894
550.674873	0.257289
550.889148	0.257101
551.103405	0.257927
551.317644	0.257781
551.531865	0.258003
551.746068	0.257544
551.960252	0.257800
552.174418	0.258120
552.388566	0.258622
552.602696	0.258868
552.816807	0.259341
553.030900	0.259700
553.244975	0.260242
553.459032	0.260819
553.673070	0.261860
553.887091	0.262176
554.101093	0.262536
554.315077	0.262319
554.529042	0.262534
554.742990	0.262712
554.956919	0.262713
555.170830	0.262584
555.384722	0.262698
555.598597	0.262643
555.812453	0.262747
556.026291	0.262574
556.240111	0.263118
556.453913	0.262783
556.667696	0.263493
556.881461	0.263693
557.095208	0.263623
557.308937	0.263923
557.522647	0.264218
557.736339	0.264497
557.950013	0.264882
558.163669	0.265086
558.377307	0.265610
558.590926	0.265405
558.804527	0.265956
559.018110	0.266624
559.231675	0.266579
559.445221	0.266375
559.658749	0.266607
559.872259	0.267022
560.085751	0.267218
560.299225	0.267613
560.512680	0.268031
560.726117	0.267712
560.939536	0.267944
561.152937	0.267981
561.366319	0.268545
561.579683	0.268240
561.793029	0.268354
562.006357	0.268366
562.219667	0.268702
562.432958	0.268928
562.646231	0.269530
562.859486	0.269760
563.072723	0.269929
563.285941	0.270128
563.499141	0.270796
563.712323	0.271083
563.925487	0.271495
564.138632	0.271450
564.351760	0.271677
564.564869	0.271776
564.777960	0.272264
564.991032	0.272837
565.204087	0.273280
565.417123	0.273510
565.630141	0.273307
565.843140	0.273723
566.056122	0.274002
566.269085	0.274179
566.482030	0.274553
566.694957	0.274329
566.907866	0.274683
567.120756	0.274376
567.333628	0.274664
567.546482	0.275501
567.759318	0.275766
567.972135	0.275600
568.184935	0.275395
568.397716	0.275145
568.610478	0.275031
568.823223	0.275323
569.035949	0.275293
569.248657	0.275507
569.461347	0.275123
569.674019	0.275053
569.886672	0.275357
570.099308	0.275766
570.311925	0.276320
570.524523	0.276870
570.737104	0.276668
570.949666	0.277199
571.162210	0.276884
571.374736	0.277044
571.587244	0.276821
571.799733	0.276817
572.012205	0.276623
572.224658	0.276559
572.437092	0.276780
572.649509	0.276770
572.861907	0.276781
573.074287	0.277705
573.286649	0.278032
573.498993	0.278336
573.711318	0.278603
573.923625	0.279128
574.135914	0.279214
574.348185	0.279348
574.560438	0.279814
574.772672	0.280471
574.984888	0.280236
575.197086	0.280057
575.409266	0.280555
575.621427	0.280475
575.833570	0.280307
576.045695	0.280573
576.257802	0.280648
576.469890	0.280649
576.681961	0.280674
576.894013	0.280497
577.106046	0.280871
577.318062	0.280279
577.530059	0.280880
577.742039	0.281510
577.954000	0.281539
578.165942	0.282056
578.377867	0.282115
578.589773	0.282693
578.801661	0.283111
579.013531	0.283332
579.225382	0.283881
579.437216	0.284204
579.649031	0.284180
579.860828	0.284652
580.072606	0.284733
580.284367	0.284699
580.496109	0.284299
580.707833	0.284211
580.919539	0.284065
581.131227	0.284320
581.342896	0.284364
581.554547	0.284068
581.766180	0.284486
581.977795	0.284521
582.189391	0.284946
582.400969	0.284648
582.612529	0.285102
582.824071	0.285209
583.035595	0.285714
583.247100	0.285435
583.458587	0.285960
583.670056	0.285949
583.881506	0.286033
584.092939	0.285951
584.304353	0.286544
584.515749	0.286557
584.727127	0.287217
584.938486	0.287090
585.149828	0.287618
585.361151	0.287949
585.572456	0.287865
585.783742	0.287938
585.995011	0.288684
586.206261	0.288610
586.417493	0.288610
586.628706	0.288118
586.839902	0.288009
587.051079	0.287861
587.262238	0.287833
587.473379	0.288302
587.684502	0.288382
587.895606	0.287977
588.106692	0.288657
588.317760	0.289197
588.528810	0.289905
588.739841	0.290078
588.950855	0.290415
589.161850	0.290485
589.372827	0.290413
589.583785	0.290421
589.794726	0.290690
590.005648	0.290190
590.216552	0.289883
590.427437	0.289583
590.638305	0.289974
590.849154	0.290132
591.059985	0.290007
591.270798	0.290002
591.481592	0.290293
591.692369	0.290246
591.903127	0.290272
592.113867	0.290432
592.324588	0.290788
592.535292	0.290519
592.745977	0.290306
592.956644	0.290529
593.167293	0.290790
593.377923	0.291048
593.588536	0.291468
593.799130	0.292066
594.009706	0.292615
594.220263	0.293015
594.430803	0.293451
594.641324	0.293892
594.851827	0.294377
595.062312	0.294670
595.272778	0.295190
595.483227	0.295428
595.693657	0.295183
595.904069	0.295318
596.114462	0.295348
596.324838	0.295437
596.535195	0.295626
596.745534	0.295649
596.955855	0.295638
597.166157	0.295164
597.376441	0.295195
597.586707	0.295482
597.796955	0.295368
598.007185	0.295263
598.217396	0.295694
598.427589	0.295803
598.637764	0.295908
598.847921	0.295942
599.058060	0.296076
599.268180	0.295951
599.478282	0.296110
599.688366	0.296130
599.898431	0.296506
600.108479	0.296575
600.318508	0.296634
600.528519	0.296540
600.738511	0.296557
600.948486	0.296850
601.158442	0.297171
601.368380	0.297607
601.578300	0.297786
601.788202	0.297938
601.998085	0.297881
602.207950	0.298160
602.417797	0.298891
602.627626	0.299388
602.837436	0.299458
603.047228	0.299599
603.257002	0.299279
603.466758	0.299366
603.676496	0.299126
603.886215	0.299361
604.095916	0.299331
604.305599	0.299016
604.515264	0.298907
604.724910	0.298939
604.934538	0.299001
605.144148	0.299351
605.353740	0.299561
605.563314	0.299680
605.772869	0.299672
605.982406	0.299966
606.191925	0.299816
606.401425	0.299808
606.610908	0.299956
606.820372	0.300404
607.029818	0.300349
607.239246	0.300606
607.448655	0.301201
607.658047	0.301484
607.867420	0.301489
608.076775	0.302082
608.286111	0.302438
608.495430	0.302441
608.704730	0.302514
608.914012	0.302710
609.123275	0.302996
609.332521	0.302868
609.541748	0.302916
609.750957	0.303202
609.960148	0.303528
610.169321	0.303326
610.378475	0.303743
610.587611	0.303586
610.796729	0.303701
611.005829	0.303861
611.214910	0.303480
611.423974	0.303365
611.633019	0.303284
611.842045	0.303247
612.051054	0.303762
612.260044	0.303753
612.469017	0.303764
612.677970	0.303825
612.886906	0.303877
613.095824	0.304376
613.304723	0.304741
613.513604	0.304826
613.722467	0.304961
613.931311	0.304978
614.140138	0.305267
614.348946	0.305677
614.557736	0.306244
614.766507	0.306282
614.975261	0.306640
615.183996	0.306894
615.392713	0.307088
615.601412	0.306943
615.810092	0.307442
616.018754	0.307487
616.227399	0.307587
616.436024	0.307570
616.644632	0.307519
616.853222	0.307605
617.061793	0.307427
617.270346	0.307595
617.478880	0.307677
617.687397	0.307555
617.895895	0.307596
618.104375	0.307692
618.312837	0.307876
618.521281	0.307679
618.729706	0.307578
618.938113	0.307825
619.146502	0.308059
619.354873	0.308286
619.563226	0.308458
619.771560	0.308565
619.979876	0.308725
620.188174	0.308672
620.396453	0.309301
620.604715	0.309737
620.812958	0.310163
621.021183	0.310564
621.229390	0.310689
621.437578	0.310691
621.645748	0.310902
621.853900	0.311176
622.062034	0.311285
622.270150	0.311285
622.478247	0.311037
622.686326	0.310605
622.894387	0.310668
623.102430	0.310963
623.310454	0.311167
623.518461	0.311168
623.726449	0.310959
623.934418	0.311026
624.142370	0.311230
624.350303	0.311565
624.558218	0.311771
624.766115	0.311808
624.973994	0.311695
625.181855	0.311529
625.389697	0.311590
625.597521	0.311687
625.805327	0.311913
626.013114	0.312051
626.220883	0.312129
626.428634	0.312360
626.636367	0.312418
626.844082	0.312638
627.051778	0.313126
627.259457	0.313502
627.467117	0.313712
627.674758	0.313850
627.882382	0.314109
628.089987	0.314265
628.297574	0.314523
628.505143	0.314750
628.712694	0.315045
628.920226	0.314800
629.127740	0.314804
629.335236	0.315100
629.542714	0.315189
629.750174	0.315310
629.957615	0.315384
630.165038	0.315393
630.372443	0.315207
630.579829	0.315201
630.787198	0.315632
630.994548	0.316002
631.201880	0.316191
631.409194	0.316522
631.616489	0.316617
631.823766	0.317020
632.031025	0.317555
632.238266	0.317863
632.445489	0.318072
632.652693	0.318180
632.859879	0.317981
633.067047	0.318055
633.274197	0.318133
633.481329	0.318067
633.688442	0.318147
633.895537	0.318204
634.102614	0.318330
634.309672	0.318607
634.516713	0.318875
634.723735	0.319308
634.930739	0.319364
635.137724	0.319556
635.344692	0.319759
635.551641	0.319975
635.758572	0.320000
635.965485	0.319988
636.172379	0.320207
636.379256	0.320366
636.586114	0.320555
636.792954	0.321020
636.999775	0.321127
637.206579	0.321492
637.413364	0.321613
637.620131	0.321844
637.826880	0.322663
638.033610	0.322763
638.240323	0.322855
638.447017	0.323177
638.653692	0.323357
638.860350	0.323810
639.066990	0.323834
639.273611	0.324014
639.480214	0.324145
639.686798	0.324004
639.893365	0.324243
640.099913	0.324277
640.306443	0.324162
640.512955	0.324045
640.719449	0.323941
640.925924	0.324421
641.132381	0.324458
641.338820	0.324643
641.545241	0.324655
641.751644	0.324519
641.958028	0.324922
642.164394	0.324920
642.370742	0.325242
642.577071	0.325391
642.783383	0.325386
642.989676	0.325635
643.195951	0.325551
643.402207	0.325646
643.608446	0.325679
643.814666	0.325655
644.020868	0.326288
644.227052	0.326353
644.433218	0.326309
644.639365	0.326308
644.845494	0.326488
645.051605	0.327007
645.257698	0.327256
645.463772	0.327395
645.669828	0.327793
645.875866	0.327755
646.081886	0.327600
646.287888	0.327887
646.493871	0.328085
646.699836	0.328200
646.905783	0.328494
647.111712	0.328595
647.317622	0.329010
647.523514	0.329066
647.729388	0.329377
647.935244	0.329927
648.141082	0.330062
648.346901	0.330184
648.552702	0.330355
648.758485	0.330357
648.964250	0.330885
649.169996	0.331344
649.375724	0.331524
649.581434	0.331625
649.787126	0.331966
649.992800	0.332273
650.198455	0.332489
650.404092	0.332646
650.609711	0.332553
650.815311	0.332444
651.020894	0.332308
651.226458	0.332235
651.432004	0.332323
651.637532	0.332306
651.843041	0.332399
652.048532	0.332645
652.254006	0.332529
652.459460	0.332888
652.664897	0.332995
652.870315	0.333288
653.075716	0.333677
653.281097	0.333804
653.486461	0.334047
653.691807	0.334259
653.897134	0.334618
654.102443	0.335074
654.307734	0.335260
654.513006	0.335493
654.718261	0.335677
654.923497	0.335901
655.128715	0.336084
655.333915	0.336095
655.539096	0.336355
655.744259	0.336655
655.949404	0.336789
656.154531	0.337169
656.359640	0.337490
656.564730	0.337727
656.769802	0.338260
656.974856	0.338648
657.179892	0.339090
657.384909	0.339130
657.589908	0.338907
657.794889	0.339346
657.999852	0.339404
658.204797	0.339577
658.409723	0.339809
658.614631	0.339806
658.819521	0.340037
659.024393	0.340394
659.229246	0.340737
659.434081	0.341251
659.638898	0.341386
659.843697	0.341575
660.048478	0.341780
660.253240	0.341793
660.457984	0.342018
660.662710	0.342151
660.867417	0.342327
661.072107	0.342702
661.276778	0.342883
661.481431	0.343142
661.686066	0.343545
661.890682	0.343848
662.095281	0.344438
662.299861	0.344675
662.504422	0.345124
662.708966	0.345056
662.913491	0.345248
663.117999	0.345791
663.322488	0.345989
663.526958	0.346060
663.731411	0.346046
663.935845	0.345985
664.140261	0.345959
664.344659	0.345876
664.549038	0.346211
664.753400	0.346600
664.957743	0.346678
665.162068	0.347141
665.366375	0.347515
665.570663	0.347845
665.774933	0.348111
665.979185	0.348276
666.183419	0.348336
666.387635	0.348588
666.591832	0.348242
666.796011	0.348175
667.000172	0.348070
667.204315	0.348228
667.408439	0.348747
667.612545	0.348935
667.816634	0.349471
668.020703	0.350113
668.224755	0.350129
668.428788	0.350890
668.632803	0.351263
668.836800	0.351537
669.040779	0.351849
669.244739	0.351870
669.448681	0.352034
669.652605	0.352097
669.856511	0.352136
670.060399	0.352480
670.264268	0.352586
670.468119	0.352672
670.671952	0.353107
670.875767	0.353445
671.079563	0.353624
671.283341	0.353991
671.487101	0.354239
671.690843	0.354778
671.894567	0.355232
672.098272	0.355382
672.301959	0.355790
672.505628	0.355871
672.709278	0.355968
672.912911	0.356226
673.116525	0.356503
673.320121	0.356681
673.523699	0.356911
673.727258	0.356894
673.930799	0.357128
674.134322	0.357124
674.337827	0.357435
674.541314	0.357707
674.744782	0.357782
674.948232	0.357861
675.151664	0.358067
675.355078	0.357982
675.558474	0.358175
675.761851	0.358190
675.965210	0.358679
676.168551	0.358608
676.371873	0.358320
676.575178	0.358641
676.778464	0.358888
676.981732	0.359170
677.184981	0.359126
677.388213	0.359408
677.591426	0.359654
677.794621	0.359614
677.997798	0.360141
678.200956	0.360684
678.404097	0.361215
678.607219	0.361642
678.810323	0.362115
679.013408	0.362834
679.216476	0.363129
679.419525	0.363615
679.622556	0.363984
679.825569	0.364122
680.028563	0.364419
680.231540	0.364409
680.434498	0.364505
680.637438	0.364402
680.840359	0.364356
681.043263	0.364472
681.246148	0.364674
681.449015	0.364807
681.651864	0.365012
681.854694	0.365109
682.057506	0.365352
682.260301	0.365631
682.463076	0.365926
682.665834	0.366340
682.868573	0.366487
683.071295	0.366432
683.273998	0.366647
683.476682	0.366789
683.679349	0.366865
683.881997	0.366855
684.084627	0.366937
684.287239	0.367107
684.489833	0.366918
684.692408	0.367173
684.894965	0.367543
685.097504	0.367832
685.300025	0.367997
685.502527	0.368478
685.705012	0.368982
685.907478	0.369677
686.109925	0.369846
686.312355	0.370419
686.514766	0.370970
686.717159	0.371128
686.919534	0.371179
687.121891	0.371241
687.324230	0.371249
687.526550	0.371389
687.728852	0.371080
687.931136	0.371173
688.133401	0.371397
688.335649	0.371254
688.537878	0.371752
688.740089	0.371941
688.942281	0.372288
689.144456	0.372521
689.346612	0.372531
689.548750	0.372686
689.750870	0.372991
689.952971	0.372954
690.155055	0.373180
690.357120	0.373344
690.559167	0.373610
690.761195	0.373794
690.963206	0.373827
691.165198	0.374233
691.367172	0.374373
691.569128	0.374360
691.771065	0.374561
691.972984	0.374828
692.174885	0.374756
692.376768	0.375145
692.578633	0.375527
692.780479	0.375955
692.982308	0.375943
693.184118	0.376258
693.385909	0.376652
