sample name	sample
index	849
start time	 04-08-2021  10:42:22 AM


Wavelength (nm)	Absorbance
494.344910	-0.076490
494.563924	-0.076490
494.782919	-0.076490
495.001897	-0.028717
495.220856	-0.037043
495.439797	-0.043823
495.658719	-0.030169
495.877624	-0.015875
496.096510	-0.018777
496.315378	-0.017811
496.534227	-0.011524
496.753059	-0.010403
496.971872	-0.010009
497.190667	0.044598
497.409444	0.066019
497.628203	0.073749
497.846943	0.075265
498.065665	0.076706
498.284369	0.078007
498.503055	0.078817
498.721723	0.080559
498.940372	0.081412
499.159003	0.080908
499.377616	0.081019
499.596210	0.080603
499.814787	0.081299
500.033345	0.081670
500.251885	0.081861
500.470406	0.081829
500.688910	0.081601
500.907395	0.082227
501.125862	0.082879
501.344311	0.083281
501.562742	0.082849
501.781154	0.082502
501.999548	0.084118
502.217924	0.083803
502.436282	0.084148
502.654621	0.083910
502.872942	0.083210
503.091245	0.083387
503.309530	0.084215
503.527797	0.084690
503.746045	0.084467
503.964275	0.084283
504.182487	0.083808
504.400681	0.084045
504.618856	0.084267
504.837013	0.084763
505.055152	0.085550
505.273273	0.085647
505.491376	0.085023
505.709460	0.085317
505.927526	0.084465
506.145574	0.085014
506.363604	0.084912
506.581615	0.084945
506.799608	0.085136
507.017583	0.084861
507.235540	0.084164
507.453478	0.084673
507.671399	0.085228
507.889301	0.086235
508.107185	0.087332
508.325050	0.087620
508.542898	0.087455
508.760727	0.087407
508.978538	0.087455
509.196330	0.087977
509.414105	0.088370
509.631861	0.088642
509.849599	0.088175
510.067319	0.087453
510.285021	0.086878
510.502704	0.086671
510.720369	0.086662
510.938016	0.086270
511.155645	0.086092
511.373255	0.086220
511.590848	0.086185
511.808422	0.086848
512.025977	0.086917
512.243515	0.088021
512.461034	0.088721
512.678536	0.088775
512.896018	0.089785
513.113483	0.090583
513.330930	0.090778
513.548358	0.090628
513.765768	0.090452
513.983160	0.090185
514.200533	0.089793
514.417889	0.090169
514.635226	0.090438
514.852545	0.090423
515.069845	0.090526
515.287128	0.090842
515.504392	0.091600
515.721638	0.092191
515.938866	0.092960
516.156075	0.092869
516.373267	0.092933
516.590440	0.093393
516.807594	0.093853
517.024731	0.094223
517.241850	0.094261
517.458950	0.094230
517.676032	0.093975
517.893095	0.094634
518.110141	0.095063
518.327168	0.095519
518.544177	0.096029
518.761168	0.096167
518.978141	0.096370
519.195095	0.096874
519.412031	0.097411
519.628949	0.097589
519.845849	0.098011
520.062731	0.098118
520.279594	0.098406
520.496439	0.098626
520.713266	0.098306
520.930074	0.098533
521.146865	0.098398
521.363637	0.098108
521.580391	0.098387
521.797127	0.098652
522.013844	0.099641
522.230543	0.100249
522.447224	0.100261
522.663887	0.100944
522.880532	0.100856
523.097158	0.101921
523.313766	0.102907
523.530356	0.103452
523.746928	0.103251
523.963481	0.103722
524.180017	0.103092
524.396534	0.103408
524.613032	0.104234
524.829513	0.104280
525.045975	0.104132
525.262420	0.104763
525.478845	0.104847
525.695253	0.105654
525.911643	0.105915
526.128014	0.106998
526.344367	0.106752
526.560702	0.106470
526.777018	0.107141
526.993316	0.107439
527.209597	0.107509
527.425858	0.107540
527.642102	0.107641
527.858328	0.108204
528.074535	0.108355
528.290724	0.108996
528.506894	0.109629
528.723047	0.109899
528.939181	0.109960
529.155297	0.109827
529.371395	0.110201
529.587475	0.110827
529.803536	0.110853
530.019579	0.110914
530.235604	0.111328
530.451611	0.111067
530.667600	0.111429
530.883570	0.111604
531.099522	0.111965
531.315456	0.112846
531.531372	0.113502
531.747269	0.113284
531.963148	0.113795
532.179009	0.114715
532.394852	0.115869
532.610676	0.115846
532.826482	0.116534
533.042271	0.116769
533.258040	0.116992
533.473792	0.116736
533.689525	0.117695
533.905240	0.118206
534.120937	0.118318
534.336616	0.118011
534.552277	0.118816
534.767919	0.119252
534.983543	0.119249
535.199149	0.119238
535.414736	0.119336
535.630306	0.119475
535.845857	0.119938
536.061390	0.119885
536.276904	0.120421
536.492401	0.121020
536.707879	0.121822
536.923339	0.122485
537.138781	0.122618
537.354204	0.122945
537.569610	0.122624
537.784997	0.122808
538.000366	0.123046
538.215716	0.123388
538.431049	0.122978
538.646363	0.122313
538.861659	0.122545
539.076937	0.123459
539.292196	0.123691
539.507438	0.124341
539.722661	0.124630
539.937866	0.124986
540.153052	0.125363
540.368221	0.125605
540.583371	0.126525
540.798503	0.127678
541.013617	0.127004
541.228712	0.127183
541.443789	0.127521
541.658848	0.127731
541.873889	0.128186
542.088912	0.128444
542.303916	0.128726
542.518902	0.128650
542.733870	0.127991
542.948820	0.128793
543.163752	0.129560
543.378665	0.129779
543.593560	0.129953
543.808437	0.130088
544.023295	0.130036
544.238136	0.130040
544.452958	0.130485
544.667762	0.131100
544.882548	0.131198
545.097315	0.131374
545.312064	0.131894
545.526795	0.132500
545.741508	0.133109
545.956203	0.133736
546.170879	0.134674
546.385537	0.134809
546.600177	0.134834
546.814799	0.135163
547.029402	0.135497
547.243988	0.135723
547.458555	0.136181
547.673103	0.136491
547.887634	0.136408
548.102146	0.136752
548.316640	0.136991
548.531116	0.137545
548.745574	0.137572
548.960013	0.137451
549.174435	0.137629
549.388838	0.137324
549.603222	0.137418
549.817589	0.137661
550.031937	0.138009
550.246267	0.138471
550.460579	0.138381
550.674873	0.139083
550.889148	0.139283
551.103405	0.139454
551.317644	0.139828
551.531865	0.140019
551.746068	0.140670
551.960252	0.140595
552.174418	0.140578
552.388566	0.140771
552.602696	0.140674
552.816807	0.140656
553.030900	0.140536
553.244975	0.140679
553.459032	0.140497
553.673070	0.140563
553.887091	0.140776
554.101093	0.141095
554.315077	0.141691
554.529042	0.142110
554.742990	0.143002
554.956919	0.143303
555.170830	0.143385
555.384722	0.144010
555.598597	0.143938
555.812453	0.143728
556.026291	0.143738
556.240111	0.143772
556.453913	0.143778
556.667696	0.144076
556.881461	0.144220
557.095208	0.144426
557.308937	0.144604
557.522647	0.144570
557.736339	0.145046
557.950013	0.144991
558.163669	0.145013
558.377307	0.145237
558.590926	0.144884
558.804527	0.145302
559.018110	0.145004
559.231675	0.144697
559.445221	0.145087
559.658749	0.145362
559.872259	0.145611
560.085751	0.145758
560.299225	0.145920
560.512680	0.146429
560.726117	0.146490
560.939536	0.146998
561.152937	0.147509
561.366319	0.147834
561.579683	0.147994
561.793029	0.148079
562.006357	0.148610
562.219667	0.148809
562.432958	0.148597
562.646231	0.149086
562.859486	0.149418
563.072723	0.149794
563.285941	0.149754
563.499141	0.150044
563.712323	0.150402
563.925487	0.150181
564.138632	0.150455
564.351760	0.150864
564.564869	0.150722
564.777960	0.150947
564.991032	0.151008
565.204087	0.151645
565.417123	0.151349
565.630141	0.151858
565.843140	0.151815
566.056122	0.152063
566.269085	0.152204
566.482030	0.152174
566.694957	0.152224
566.907866	0.152381
567.120756	0.152422
567.333628	0.153229
567.546482	0.152765
567.759318	0.153492
567.972135	0.153487
568.184935	0.153825
568.397716	0.154335
568.610478	0.154614
568.823223	0.154873
569.035949	0.154951
569.248657	0.154828
569.461347	0.155288
569.674019	0.155398
569.886672	0.155946
570.099308	0.155925
570.311925	0.156084
570.524523	0.156491
570.737104	0.156044
570.949666	0.156037
571.162210	0.156237
571.374736	0.156185
571.587244	0.155891
571.799733	0.155656
572.012205	0.155756
572.224658	0.155736
572.437092	0.155553
572.649509	0.156137
572.861907	0.156417
573.074287	0.156473
573.286649	0.157016
573.498993	0.157350
573.711318	0.157580
573.923625	0.157662
574.135914	0.157842
574.348185	0.157934
574.560438	0.157926
574.772672	0.157970
574.984888	0.158196
575.197086	0.158517
575.409266	0.159079
575.621427	0.159584
575.833570	0.159927
576.045695	0.160354
576.257802	0.160738
576.469890	0.161093
576.681961	0.161483
576.894013	0.161473
577.106046	0.161581
577.318062	0.161373
577.530059	0.161405
577.742039	0.161458
577.954000	0.161248
578.165942	0.161419
578.377867	0.161420
578.589773	0.161359
578.801661	0.161376
579.013531	0.161635
579.225382	0.161824
579.437216	0.161805
579.649031	0.162174
579.860828	0.162168
580.072606	0.162603
580.284367	0.162862
580.496109	0.163254
580.707833	0.163651
580.919539	0.163285
581.131227	0.163416
581.342896	0.163008
581.554547	0.162805
581.766180	0.163767
581.977795	0.163097
582.189391	0.163106
582.400969	0.163277
582.612529	0.163820
582.824071	0.164150
583.035595	0.164505
583.247100	0.165070
583.458587	0.165312
583.670056	0.164827
583.881506	0.165629
584.092939	0.166174
584.304353	0.166146
584.515749	0.166140
584.727127	0.166584
584.938486	0.166647
585.149828	0.166824
585.361151	0.167068
585.572456	0.167464
585.783742	0.167068
585.995011	0.166819
586.206261	0.167215
586.417493	0.167335
586.628706	0.167058
586.839902	0.167062
587.051079	0.167408
587.262238	0.167649
587.473379	0.167875
587.684502	0.168375
587.895606	0.168600
588.106692	0.168596
588.317760	0.168479
588.528810	0.168729
588.739841	0.168557
588.950855	0.168636
589.161850	0.168830
589.372827	0.168913
589.583785	0.169134
589.794726	0.169592
590.005648	0.169905
590.216552	0.170485
590.427437	0.170617
590.638305	0.171326
590.849154	0.171530
591.059985	0.171872
591.270798	0.171834
591.481592	0.172141
591.692369	0.172189
591.903127	0.172143
592.113867	0.171915
592.324588	0.172331
592.535292	0.172299
592.745977	0.172459
592.956644	0.172364
593.167293	0.172690
593.377923	0.172510
593.588536	0.172953
593.799130	0.173041
594.009706	0.173357
594.220263	0.173449
594.430803	0.173684
594.641324	0.173730
594.851827	0.173974
595.062312	0.174143
595.272778	0.174359
595.483227	0.174322
595.693657	0.174718
595.904069	0.175066
596.114462	0.175421
596.324838	0.175581
596.535195	0.175964
596.745534	0.176141
596.955855	0.176302
597.166157	0.176750
597.376441	0.176853
597.586707	0.176645
597.796955	0.176957
598.007185	0.176955
598.217396	0.177307
598.427589	0.177359
598.637764	0.177156
598.847921	0.177738
599.058060	0.177889
599.268180	0.177953
599.478282	0.178104
599.688366	0.177771
599.898431	0.178128
600.108479	0.178458
600.318508	0.178509
600.528519	0.178939
600.738511	0.178832
600.948486	0.179034
601.158442	0.179131
601.368380	0.179522
601.578300	0.179670
601.788202	0.179941
601.998085	0.179715
602.207950	0.179898
602.417797	0.180017
602.627626	0.179844
602.837436	0.179841
603.047228	0.179755
603.257002	0.179912
603.466758	0.180157
603.676496	0.180111
603.886215	0.180244
604.095916	0.180484
604.305599	0.180778
604.515264	0.181449
604.724910	0.181686
604.934538	0.181819
605.144148	0.181961
605.353740	0.182255
605.563314	0.182437
605.772869	0.182585
605.982406	0.182777
606.191925	0.182552
606.401425	0.182592
606.610908	0.182471
606.820372	0.182805
607.029818	0.183042
607.239246	0.183058
607.448655	0.183085
607.658047	0.183396
607.867420	0.183411
608.076775	0.183767
608.286111	0.183556
608.495430	0.183579
608.704730	0.183695
608.914012	0.183691
609.123275	0.183787
609.332521	0.184041
609.541748	0.184157
609.750957	0.184519
609.960148	0.184775
610.169321	0.184993
610.378475	0.185383
610.587611	0.185360
610.796729	0.185644
611.005829	0.186029
611.214910	0.185893
611.423974	0.185939
611.633019	0.186125
611.842045	0.186352
612.051054	0.186657
612.260044	0.186668
612.469017	0.186918
612.677970	0.187118
612.886906	0.186865
613.095824	0.187064
613.304723	0.187274
613.513604	0.187048
613.722467	0.187184
613.931311	0.187067
614.140138	0.187619
614.348946	0.187801
614.557736	0.187967
614.766507	0.188467
614.975261	0.188673
615.183996	0.188734
615.392713	0.188845
615.601412	0.188776
615.810092	0.189233
616.018754	0.189365
616.227399	0.189694
616.436024	0.189815
616.644632	0.189873
616.853222	0.190087
617.061793	0.190347
617.270346	0.190463
617.478880	0.190926
617.687397	0.190820
617.895895	0.190670
618.104375	0.190689
618.312837	0.190529
618.521281	0.190712
618.729706	0.191034
618.938113	0.191134
619.146502	0.191419
619.354873	0.191005
619.563226	0.191036
619.771560	0.191031
619.979876	0.191226
620.188174	0.191422
620.396453	0.191511
620.604715	0.191471
620.812958	0.191625
621.021183	0.191775
621.229390	0.192176
621.437578	0.192528
621.645748	0.192864
621.853900	0.193121
622.062034	0.193540
622.270150	0.193755
622.478247	0.194200
622.686326	0.194480
622.894387	0.194768
623.102430	0.195139
623.310454	0.195488
623.518461	0.195618
623.726449	0.195688
623.934418	0.195490
624.142370	0.195682
624.350303	0.195421
624.558218	0.195340
624.766115	0.195520
624.973994	0.195465
625.181855	0.195602
625.389697	0.196020
625.597521	0.196042
625.805327	0.196387
626.013114	0.196584
626.220883	0.196863
626.428634	0.197156
626.636367	0.197292
626.844082	0.197467
627.051778	0.197568
627.259457	0.197181
627.467117	0.197508
627.674758	0.197607
627.882382	0.197623
628.089987	0.197958
628.297574	0.198019
628.505143	0.197953
628.712694	0.198123
628.920226	0.198078
629.127740	0.198630
629.335236	0.198653
629.542714	0.198863
629.750174	0.199034
629.957615	0.198638
630.165038	0.198818
630.372443	0.199022
630.579829	0.199058
630.787198	0.199350
630.994548	0.199295
631.201880	0.199597
631.409194	0.199452
631.616489	0.199417
631.823766	0.199845
632.031025	0.199877
632.238266	0.199979
632.445489	0.199948
632.652693	0.200119
632.859879	0.200090
633.067047	0.200269
633.274197	0.200614
633.481329	0.200920
633.688442	0.201017
633.895537	0.201261
634.102614	0.201428
634.309672	0.201840
634.516713	0.201661
634.723735	0.201885
634.930739	0.202035
635.137724	0.202177
635.344692	0.202230
635.551641	0.202471
635.758572	0.202205
635.965485	0.202496
636.172379	0.202694
636.379256	0.203017
636.586114	0.203412
636.792954	0.203249
636.999775	0.203541
637.206579	0.203623
637.413364	0.203844
637.620131	0.204174
637.826880	0.204379
638.033610	0.204623
638.240323	0.205088
638.447017	0.204990
638.653692	0.205247
638.860350	0.205376
639.066990	0.205894
639.273611	0.206031
639.480214	0.206347
639.686798	0.206625
639.893365	0.206509
640.099913	0.206547
640.306443	0.206722
640.512955	0.206966
640.719449	0.206980
640.925924	0.206959
641.132381	0.207273
641.338820	0.207568
641.545241	0.207514
641.751644	0.207975
641.958028	0.208028
642.164394	0.208639
642.370742	0.209196
642.577071	0.209475
642.783383	0.209672
642.989676	0.209818
643.195951	0.209821
643.402207	0.210141
643.608446	0.210197
643.814666	0.210471
644.020868	0.210363
644.227052	0.210231
644.433218	0.210540
644.639365	0.210668
644.845494	0.210694
645.051605	0.210908
645.257698	0.210992
645.463772	0.211093
645.669828	0.211154
645.875866	0.211412
646.081886	0.211521
646.287888	0.211460
646.493871	0.211753
646.699836	0.211932
646.905783	0.212079
647.111712	0.212062
647.317622	0.212214
647.523514	0.212526
647.729388	0.212638
647.935244	0.212782
648.141082	0.213028
648.346901	0.213058
648.552702	0.213360
648.758485	0.213438
648.964250	0.213781
649.169996	0.214004
649.375724	0.214055
649.581434	0.214481
649.787126	0.214794
649.992800	0.215024
650.198455	0.215345
650.404092	0.215434
650.609711	0.215667
650.815311	0.215965
651.020894	0.216112
651.226458	0.216366
651.432004	0.216310
651.637532	0.216364
651.843041	0.216503
652.048532	0.216495
652.254006	0.216577
652.459460	0.216870
652.664897	0.217004
652.870315	0.217395
653.075716	0.217711
653.281097	0.217990
653.486461	0.218358
653.691807	0.218757
653.897134	0.219066
654.102443	0.219246
654.307734	0.219529
654.513006	0.219688
654.718261	0.219768
654.923497	0.219854
655.128715	0.220160
655.333915	0.220095
655.539096	0.220276
655.744259	0.220242
655.949404	0.220432
656.154531	0.220674
656.359640	0.220760
656.564730	0.220872
656.769802	0.221029
656.974856	0.221156
657.179892	0.221476
657.384909	0.221568
657.589908	0.221845
657.794889	0.222290
657.999852	0.222482
658.204797	0.222770
658.409723	0.223093
658.614631	0.223684
658.819521	0.223865
659.024393	0.223988
659.229246	0.224053
659.434081	0.224358
659.638898	0.224418
659.843697	0.224840
660.048478	0.225163
660.253240	0.225412
660.457984	0.225226
660.662710	0.225369
660.867417	0.225825
661.072107	0.225895
661.276778	0.226253
661.481431	0.226524
661.686066	0.226255
661.890682	0.226400
662.095281	0.226504
662.299861	0.226474
662.504422	0.226619
662.708966	0.226898
662.913491	0.227572
663.117999	0.227517
663.322488	0.227611
663.526958	0.227917
663.731411	0.227954
663.935845	0.228165
664.140261	0.228599
664.344659	0.228714
664.549038	0.228488
664.753400	0.228386
664.957743	0.228690
665.162068	0.228992
665.366375	0.229179
665.570663	0.229411
665.774933	0.229529
665.979185	0.229798
666.183419	0.230199
666.387635	0.230660
666.591832	0.230936
666.796011	0.231270
667.000172	0.231621
667.204315	0.231982
667.408439	0.232466
667.612545	0.232755
667.816634	0.232998
668.020703	0.233076
668.224755	0.233271
668.428788	0.233630
668.632803	0.233925
668.836800	0.234149
669.040779	0.234370
669.244739	0.234565
669.448681	0.234846
669.652605	0.234959
669.856511	0.235237
670.060399	0.235412
670.264268	0.235740
670.468119	0.235686
670.671952	0.235738
670.875767	0.235937
671.079563	0.236031
671.283341	0.236356
671.487101	0.236656
671.690843	0.236878
671.894567	0.237239
672.098272	0.237545
672.301959	0.237821
672.505628	0.238087
672.709278	0.238303
672.912911	0.238616
673.116525	0.238807
673.320121	0.239265
673.523699	0.239377
673.727258	0.239359
673.930799	0.239179
674.134322	0.239524
674.337827	0.239649
674.541314	0.239892
674.744782	0.240065
674.948232	0.240198
675.151664	0.240123
675.355078	0.240411
675.558474	0.240896
675.761851	0.241133
675.965210	0.241341
676.168551	0.241796
676.371873	0.242151
676.575178	0.242365
676.778464	0.242678
676.981732	0.242879
677.184981	0.243284
677.388213	0.243369
677.591426	0.243753
677.794621	0.244050
677.997798	0.244042
678.200956	0.244259
678.404097	0.244712
678.607219	0.244889
678.810323	0.245200
679.013408	0.245128
679.216476	0.245396
679.419525	0.245680
679.622556	0.245831
679.825569	0.246143
680.028563	0.246226
680.231540	0.246359
680.434498	0.246492
680.637438	0.246696
680.840359	0.247271
681.043263	0.247581
681.246148	0.247670
681.449015	0.247729
681.651864	0.247825
681.854694	0.248021
682.057506	0.248251
682.260301	0.248465
682.463076	0.248714
682.665834	0.248694
682.868573	0.248747
683.071295	0.248896
683.273998	0.249217
683.476682	0.249609
683.679349	0.249731
683.881997	0.249812
684.084627	0.249796
684.287239	0.250007
684.489833	0.250265
684.692408	0.250397
684.894965	0.250596
685.097504	0.250711
685.300025	0.250932
685.502527	0.251097
685.705012	0.251053
685.907478	0.251491
686.109925	0.251752
686.312355	0.251750
686.514766	0.252090
686.717159	0.252195
686.919534	0.252333
687.121891	0.252183
687.324230	0.252241
687.526550	0.252334
687.728852	0.252371
687.931136	0.252211
688.133401	0.252664
688.335649	0.252735
688.537878	0.253096
688.740089	0.253272
688.942281	0.253593
689.144456	0.254022
689.346612	0.254438
689.548750	0.254636
689.750870	0.254879
689.952971	0.254856
690.155055	0.255049
690.357120	0.255153
690.559167	0.255325
690.761195	0.255471
690.963206	0.255458
691.165198	0.255680
691.367172	0.255913
691.569128	0.256079
691.771065	0.256481
691.972984	0.256595
692.174885	0.256875
692.376768	0.257079
692.578633	0.257533
692.780479	0.257820
692.982308	0.257666
693.184118	0.257929
693.385909	0.258164
