sample name	sample
index	321
start time	 02-25-2021  03:17:54 PM
880	0.450799
Peak Time (s)	91.623
Peak Height 	0.4508
calc peak height	90,93
Baseline Time (s)	10.035
Baseline Value 	-0.003307
subtract baseline	10,4
Abs	0.310745
Peak Time (s)	91.069
Peak Height 	0.3107
calc peak height	90,93
Baseline Time (s)	11.036
Baseline Value 	0.003809
subtract baseline	10,3
PK_550	0.158368
Peak Time (s)	90.037
Peak Height 	0.1584
calc peak height	90,93
Baseline Time (s)	9.535
Baseline Value 	-5.4098E-5
subtract baseline	10,2
PK_880	0.300163
Peak Time (s)	91.623
Peak Height 	0.3002
calc peak height	90,93
Baseline Time (s)	8.537
Baseline Value 	0.001437
subtract baseline	10,1


Time (s)	A880-A510	A880-A775	A880-A975	A880	I510	I775	I975	I880	
0.034500	-0.001667	-0.000734	0.002816	0.000454	6841.758465	44995.856757	4021.913866	23906.828000
0.534500	-0.003151	0.000329	-0.002059	0.003274	6803.706793	44826.394047	4003.086030	23771.339135
1.035500	-0.003538	-0.001013	-0.004575	0.004313	6791.184369	44597.763308	3994.498752	23721.648464
1.540000	-0.002503	0.000277	-0.006560	0.006279	6783.035186	44533.170047	3985.037531	23627.969868
2.036000	0.002022	0.000153	-0.001426	0.000298	6876.077032	45096.838940	4011.874882	23914.345087
2.536500	-0.001146	0.000523	-0.001185	0.000214	6848.527472	45140.864806	4012.670537	23918.409400
3.036500	-0.000975	0.000979	-0.004125	0.004321	6813.650738	44788.184403	3995.561874	23721.276610
3.536500	-0.000388	0.000019	-0.003936	0.003854	6822.958747	44740.804809	3997.142890	23743.585935
4.037000	-0.000305	0.000316	0.000442	-0.000408	6861.574910	45181.096845	4018.189857	23948.423552
4.535000	0.002740	0.000371	-0.001308	-0.000274	6887.653877	45173.400006	4013.562968	23941.935734
5.035000	-0.000215	0.000381	0.000760	0.001776	6842.919465	44975.922196	4013.607740	23843.225971
5.535500	-0.002824	-0.000758	-0.005822	0.002860	6810.230981	44761.648898	3994.993871	23791.180198
6.036000	0.000176	0.000780	-0.002036	-0.000430	6866.062384	45228.241770	4012.162644	23949.471412
6.536000	-0.000454	-0.000456	-0.004223	-0.001085	6866.281757	45171.822303	4008.422092	23981.115030
7.036000	0.000932	0.000129	-0.004588	-0.000634	6874.656786	45184.941556	4006.437620	23959.354340
7.536500	-0.002172	-0.000540	0.001377	0.004368	6802.690115	44637.786991	4008.780552	23719.011900
8.036500	-0.001213	-0.000007	-0.003369	0.000021	6849.643856	45108.072889	4007.806907	23927.693453
8.537000	0.000000	0.000349	0.002708	-0.000173	6862.198050	45161.482135	4023.197962	23937.084899
9.035000	0.001223	-0.000212	-0.001910	-0.000878	6879.446788	45175.461587	4013.567546	23971.108166
9.535000	-0.002608	0.000000	-0.000566	0.003392	6807.441281	44783.348663	4006.425071	23765.680306
10.035000	-0.000483	0.000564	-0.002183	0.000000	6856.340134	45165.547270	4010.753009	23928.722096
10.535500	0.001332	0.001170	0.003198	0.000537	6867.756501	45172.203440	4022.651975	23902.815875
11.036000	0.001127	-0.000387	0.000000	-0.001066	6880.280358	45176.736615	4018.719473	23980.205121
11.536000	-0.002377	-0.000065	0.001228	0.004021	6803.942175	44716.661172	4009.264551	23735.609879
12.036000	0.001304	0.000347	-0.002829	-0.000486	6876.668205	45191.685123	4010.362841	23952.190127
12.536500	-0.000090	-0.000495	0.002370	-0.001153	6870.154491	45174.712369	4024.786190	23984.447658
13.037000	-0.000380	-0.000149	-0.001941	-0.001155	6867.575567	45208.504928	4014.171991	23984.538927
13.537000	-0.003199	0.000436	-0.000497	0.004515	6792.384796	44717.361885	4003.864471	23711.988073
14.037500	-0.000486	-0.000222	-0.001405	0.001223	6845.422546	44971.085284	4009.667784	23869.821068
14.538500	-0.000196	0.000596	-0.002330	0.002243	6838.935266	44951.539294	4004.932259	23820.796139
15.035500	0.000144	-0.000323	0.000199	-0.000899	6869.971136	45166.672041	4018.798656	23972.140476
15.535500	-0.005571	-0.000570	-0.006468	0.003660	6779.103558	44702.890535	3991.520271	23752.889243
16.036000	0.001058	0.000461	0.003234	-0.000424	6873.904444	45196.740976	4025.117607	23949.181403
16.537500	0.000630	-0.000371	0.001412	-0.001043	6875.616644	45176.020448	4022.144754	23979.095984
17.036500	0.000240	0.000336	0.001014	-0.000984	6871.599984	45239.067483	4021.017167	23976.276048
17.536500	-0.003533	-0.000720	0.001018	0.001997	6811.592382	44848.360727	4013.698577	23832.585130
18.037000	-0.000307	-0.000413	-0.000303	0.000319	6855.062481	45039.908807	4014.573502	23913.315549
18.537000	-0.001165	-0.000302	-0.000965	0.000514	6845.684609	45031.825906	4012.473542	23903.918963
19.035000	-0.002066	0.000116	-0.002066	0.000873	6834.497646	45037.550318	4008.907073	23886.625516
19.535000	-0.003053	-0.000290	-0.000453	0.002122	6814.720579	44877.701428	4009.795149	23826.582058
20.035000	-0.000849	-0.000365	-0.000118	0.000627	6847.494144	45014.879373	4014.273122	23898.510045
20.536000	-0.000262	-0.000354	0.001200	0.000517	6853.703996	45026.505390	4017.778207	23903.786007
21.036000	0.000413	0.001071	0.001805	0.001340	6852.374563	45084.714799	4017.240620	23864.145574
21.536500	-0.003175	0.000408	-0.001478	0.002335	6811.767831	44924.541791	4006.780071	23816.383765
22.037000	-0.001145	0.000842	-0.002446	0.001482	6837.263778	45048.850387	4006.499607	23857.332852
22.537000	0.000035	0.000245	0.004940	0.001125	6850.934998	45025.665516	4025.508893	23874.530699
23.039500	-0.001100	0.000557	-0.000152	0.001228	6839.917160	45045.837109	4012.715017	23869.533076
23.537000	0.000783	0.001150	0.001080	0.002820	6842.505817	44949.376510	4011.836427	23793.120370
24.038000	-0.001824	-0.000197	-0.001052	0.000753	6837.705539	45018.866120	4011.677595	23892.417697
24.535500	0.002201	0.000635	-0.001749	0.001974	6862.683142	44981.359259	4006.998032	23833.716645
25.035000	0.000324	0.000567	0.002010	0.001725	6848.164518	44998.805106	4016.800206	23845.676367
25.536000	0.000171	0.000590	-0.007682	0.002718	6837.975606	44905.087666	3990.867593	23797.995868
26.036000	0.000736	0.000933	0.000248	0.001972	6849.630763	45010.327814	4011.875639	23833.811306
26.536500	0.000099	0.000657	0.000364	0.001507	6848.096285	45028.542362	4013.298048	23856.136547
27.037000	-0.000193	-0.000344	0.001493	0.001064	6849.440887	44974.550470	4017.151746	23877.429631
27.537000	-0.002405	0.000046	-0.000655	0.003876	6804.976392	44741.304525	4005.031358	23742.535791
28.037000	-0.001461	0.000057	-0.000173	-0.000469	6851.800041	45161.849502	4016.826354	23951.365163
28.540000	0.001147	0.000284	0.000048	-0.000476	6875.174636	45184.563880	4017.387058	23951.712361
29.035000	0.001733	0.000720	-0.000130	0.000378	6872.768692	45144.088364	4014.853966	23910.506619
29.537500	0.001020	0.000147	-0.001763	-0.000363	6873.020131	45160.336308	4012.667542	23946.244932
30.035500	0.000818	0.000650	-0.001297	-0.000411	6871.641487	45213.860856	4013.927056	23948.580574
30.535000	0.000779	0.000961	0.001371	0.000152	6866.247073	45189.274229	4019.095129	23921.377368
31.036000	-0.001770	0.000434	-0.002177	0.002432	6823.314784	44917.671552	4004.842850	23811.702316
31.539000	0.001076	0.000800	0.000095	0.000078	6869.568259	45180.843773	4016.140988	23924.944630
32.037000	-0.000979	-0.000086	-0.005676	-0.000537	6856.701607	45154.578240	4003.555983	23954.636193
32.537000	0.000941	0.000171	-0.002851	-0.000207	6870.916270	45147.535825	4009.627745	23938.702488
33.037500	-0.001867	-0.000002	-0.000206	0.000050	6843.579167	45105.886960	4015.472835	23926.325782
33.534500	0.001317	0.000505	0.003251	-0.000352	6875.579143	45193.948890	4024.982892	23945.709679
34.035000	-0.000490	0.000292	-0.000368	0.000953	6847.794300	45046.850843	4012.862194	23882.809129
34.535000	0.000344	-0.000164	0.002838	0.000770	6856.846028	45020.395648	4021.188323	23891.598362
35.036000	-0.002406	0.000066	0.002183	0.001427	6826.580831	44979.151284	4017.957694	23859.996973
35.536500	-0.001570	0.000611	-0.001725	0.001968	6829.194933	44979.612896	4007.070828	23834.000903
36.037000	-0.000076	0.000220	0.000147	0.001665	6845.132914	44970.994060	4012.378729	23848.538150
36.536500	0.000841	0.001045	0.002841	0.002235	6848.231565	44995.717907	4017.590593	23821.186705
37.036500	-0.001309	-0.000012	-0.002542	0.001230	6838.048384	44990.653100	4006.878947	23869.478749
37.537500	-0.001122	0.000620	-0.001131	0.001443	6837.820364	45031.171409	4009.799796	23859.236594
38.037500	0.000507	0.000380	0.002875	0.001347	6853.160799	45017.276991	4019.857647	23863.844919
38.540500	-0.000064	-0.000647	-0.000524	0.000689	6853.934190	44981.573677	4013.126599	23895.525717
39.035000	-0.000485	-0.000495	-0.002759	0.000778	6849.393998	44987.701730	4007.450565	23891.219674
39.535500	-0.001443	0.000092	-0.001017	0.002055	6829.550822	44921.056061	4008.584229	23829.824874
40.035500	0.000683	-0.000042	-0.000029	0.001394	6854.302184	44971.893133	4012.610736	23861.559693
40.536000	-0.000243	-0.000079	-0.004358	0.000769	6851.624345	45028.770769	4003.586331	23891.652024
41.036500	0.001328	0.000626	0.001095	0.001677	6857.543033	45009.137712	4014.671397	23847.984185
41.537000	0.000080	0.000630	0.002231	0.002574	6838.450964	44922.905824	4015.256751	23804.900035
42.037000	-0.002672	0.000442	-0.000241	0.001346	6824.941804	45023.370858	4012.211033	23863.899062
42.536500	-0.001492	0.000590	0.001093	0.001838	6831.031989	44990.064998	4014.271917	23840.207471
43.037500	-0.000237	-0.000593	-0.002363	0.000753	6851.819409	44980.596216	4008.476867	23892.431262
43.535500	-0.002526	0.000385	-0.003088	0.002112	6819.457318	44943.787449	4003.406688	23827.048099
44.035500	0.002973	0.000656	0.001694	-0.002335	6908.330771	45401.784960	4026.038802	24041.698797
44.536000	0.001674	0.000233	0.001496	-0.000648	6881.438047	45196.343890	4021.376229	23960.016117
45.036000	0.001267	0.000647	-0.000840	0.000155	6870.593979	45158.533804	4013.659054	23921.248651
45.536500	-0.002883	0.000187	-0.001376	0.004608	6794.335739	44684.460947	4001.506891	23707.546485
46.036500	0.001533	0.001134	0.003423	0.000347	6871.253137	45187.275802	4023.680842	23912.005207
46.536500	-0.001206	0.000201	0.001166	-0.000214	6851.803895	45151.129424	4019.493627	23939.064474
47.037500	0.000111	0.000147	0.002591	-0.000153	6863.006422	45139.985966	4022.857542	23936.103371
47.534500	-0.001237	0.000601	-0.001154	0.005040	6805.015475	44682.903001	4001.001098	23686.977174
48.034500	-0.000805	0.000532	-0.003716	0.002506	6831.200768	44920.015685	4000.932657	23808.174700
48.535500	-0.000252	0.000038	-0.003061	-0.000776	6865.331188	45189.797621	4010.504545	23966.187095
49.035500	-0.000942	0.000932	0.001069	-0.000215	6854.164483	45222.157955	4019.257489	23939.096903
49.536000	-0.001503	0.000518	0.000625	0.005297	6800.417475	44650.231733	4004.690113	23674.723051
50.036000	0.001373	0.001057	0.007839	-0.001980	6890.702478	45406.278639	4040.484236	24024.485430
50.536500	0.000125	0.000362	0.007464	0.001785	6845.863319	44973.169515	4030.136316	23842.786134
51.037000	-0.002489	-0.001566	0.007870	-0.001561	6852.371253	45110.380822	4039.508422	24004.177754
51.537000	-0.026457	-0.018208	-0.002271	0.160036	5506.981525	30941.597015	3683.587070	17470.165660
52.036500	-0.021314	-0.025724	0.013523	-0.053524	7159.160436	47893.336624	4194.104065	26677.040550
52.535000	-0.013352	-0.023346	0.015704	-0.084682	7552.783838	51495.775797	4293.390110	28440.028517
53.035000	-0.014483	-0.022232	0.011111	-0.082124	7514.134817	51334.888765	4271.445618	28290.477052
53.535500	-0.010482	-0.015403	0.001217	-0.084163	7577.592069	52331.646383	4247.756166	28409.629762
54.035500	0.003037	-0.009612	0.009019	-0.080852	7686.861183	52613.907249	4261.248921	28216.434639
54.535500	0.023728	-0.010229	0.025822	-0.108673	8242.747474	55819.883576	4403.167897	29886.326609
55.036000	0.032687	-0.001491	0.027294	-0.062420	7809.940058	51450.300660	4260.773787	27167.553526
55.536500	0.046644	0.004269	0.042370	-0.045675	7779.054093	50240.718063	4255.745989	26252.521311
56.037000	0.062771	0.009606	0.062350	-0.003281	7497.594548	46378.643174	4190.055249	24087.644156
56.537000	0.078379	0.016334	0.072712	0.048065	7140.973037	42145.219451	4078.364513	21733.393176
57.037500	0.097988	0.026989	0.104429	0.092874	6906.576227	39186.058434	4044.850870	19894.420700
57.535000	0.122054	0.039542	0.126727	0.146125	6651.588594	35950.863226	3969.519868	17941.985181
58.035000	0.147577	0.054148	0.149503	0.195039	6459.230127	33449.413743	3909.957850	16347.690011
58.535500	0.173332	0.071734	0.183708	0.240880	6302.132050	31532.767760	3884.575509	15008.108297
59.035500	0.193316	0.086273	0.204089	0.281248	6149.946162	29886.341137	3842.528691	13939.991769
59.536000	0.214854	0.104242	0.224891	0.312381	6080.750514	29084.219438	3821.541456	13181.451464
60.036500	0.229013	0.113694	0.243046	0.348247	5929.734421	27546.159384	3786.705331	12372.403017
60.536500	0.235975	0.121926	0.246193	0.376932	5785.974353	26417.867245	3738.912676	11771.748802
61.036500	0.246428	0.130417	0.264680	0.363619	5943.628176	27622.628933	3798.861333	12045.587406
61.534500	0.252859	0.137942	0.262852	0.363051	5991.717966	28085.363123	3796.400522	12057.457012
62.038000	0.261983	0.144176	0.271800	0.376287	5963.368483	27684.449263	3788.082966	11784.815316
62.535000	0.266549	0.148750	0.279524	0.387889	5915.479390	27288.595704	3780.631538	11552.586432
63.035000	0.270671	0.149932	0.278945	0.389737	5930.872347	27251.360885	3776.001568	11516.156264
63.540500	0.273168	0.152768	0.285315	0.391880	5933.275623	27290.058801	3784.081849	11474.107006
64.036000	0.277866	0.153433	0.290476	0.393740	5952.621947	27223.408628	3790.448361	11437.796680
64.536000	0.276909	0.157170	0.284387	0.400743	5898.688620	27042.063349	3765.484660	11302.426274
65.036500	0.276763	0.156489	0.278582	0.396546	5926.005021	27237.312603	3762.469445	11383.283150
65.536000	0.277564	0.157508	0.289179	0.397322	5926.180174	27250.847802	3781.055737	11368.272980
66.033500	0.281603	0.158676	0.287396	0.398843	5943.289432	27231.136118	3774.754895	11338.922737
66.535500	0.281874	0.160554	0.288200	0.404466	5907.038203	27023.264508	3765.651307	11231.331552
67.035000	0.283667	0.159925	0.288073	0.400395	5946.787451	27214.305327	3773.095591	11309.097586
67.538000	0.280100	0.160781	0.286322	0.406117	5884.071277	26944.746780	3759.049929	11200.009318
68.035500	0.287331	0.160644	0.289789	0.402242	5959.212293	27151.573676	3772.848487	11273.732363
68.537000	0.283871	0.161041	0.294207	0.408613	5892.601202	26821.847759	3769.155187	11152.871228
69.036000	0.286944	0.161197	0.291938	0.405013	5937.642787	27028.586946	3771.668449	11220.939898
69.536000	0.283756	0.160661	0.292279	0.412073	5868.743491	26612.291859	3759.051358	11087.966257
70.036000	0.288693	0.162096	0.292123	0.408067	5928.782863	26909.762765	3766.258609	11163.163166
70.534000	0.290350	0.163297	0.302134	0.411112	5919.381818	26808.529377	3779.458041	11105.941447
71.037000	0.286700	0.162018	0.291848	0.411713	5890.786133	26705.792922	3758.920929	11094.709522
71.537500	0.287061	0.161076	0.298467	0.417095	5857.359487	26363.376826	3761.226524	10994.691676
72.035000	0.291679	0.163355	0.296838	0.416530	5891.868771	26516.753221	3759.242724	11005.138376
72.535000	0.289554	0.161547	0.292934	0.416035	5880.973960	26445.812947	3752.913410	11014.297386
73.035500	0.290778	0.163127	0.305710	0.419998	5862.756570	26317.609725	3769.377881	10941.269954
73.536000	0.290435	0.163178	0.296979	0.427346	5812.205696	25929.419955	3739.587060	10807.605811
74.036000	0.292939	0.162413	0.295768	0.421801	5865.127138	26182.942650	3747.508441	10908.254449
74.539500	0.291610	0.162012	0.300436	0.422990	5848.466806	26098.336824	3753.923566	10886.565475
75.036500	0.291021	0.162018	0.308914	0.424772	5832.867569	26004.122982	3766.419988	10854.172399
75.539500	0.289013	0.162156	0.294913	0.425431	5815.424508	25976.588409	3739.314411	10842.232435
76.037500	0.291427	0.161691	0.304504	0.427938	5814.814116	25820.023832	3752.296640	10796.942141
76.540500	0.292697	0.160746	0.301431	0.427769	5824.210714	25779.340178	3746.949906	10799.988884
77.035000	0.294869	0.161239	0.307347	0.429245	5828.770917	25727.846064	3755.141457	10773.439994
77.538000	0.293179	0.160343	0.300118	0.430067	5812.355749	25638.165086	3740.346807	10758.681866
78.035500	0.291667	0.162084	0.308588	0.431877	5790.796272	25634.627261	3752.565313	10726.315201
78.538500	0.295701	0.161783	0.304000	0.433502	5806.416754	25534.575920	3741.163273	10697.371050
79.036500	0.296037	0.160908	0.305049	0.433441	5808.996221	25492.380884	3743.187716	10698.443664
79.536000	0.291630	0.160195	0.295627	0.433315	5781.276795	25462.022933	3726.385373	10700.687348
80.037000	0.294353	0.161430	0.304884	0.435412	5785.315986	25417.544574	3739.295924	10663.478905
80.536500	0.290410	0.159602	0.293967	0.440952	5724.789051	25040.696658	3709.936066	10566.012227
81.034500	0.293616	0.160073	0.302415	0.435968	5776.979297	25319.061579	3733.815008	10653.633425
81.537500	0.294371	0.159359	0.311218	0.436262	5779.947807	25267.390071	3749.328229	10648.442203
82.035500	0.294722	0.160524	0.298187	0.438397	5768.487961	25217.739861	3721.889360	10610.812239
82.535500	0.292537	0.159832	0.304333	0.443952	5719.284900	24900.716282	3722.940914	10513.764523
83.035500	0.294945	0.159195	0.297026	0.438829	5767.149189	25127.916809	3719.062876	10603.227169
83.536000	0.293744	0.159207	0.304302	0.438514	5761.467267	25144.529319	3732.626483	10608.749338
84.036500	0.298263	0.160931	0.303744	0.441428	5771.760085	25084.045816	3726.393256	10557.705553
84.539500	0.289273	0.158812	0.301949	0.446326	5683.997334	24730.424776	3714.516978	10472.669602
85.036500	0.295887	0.158881	0.306521	0.440895	5759.947611	25007.054393	3732.333763	10567.010664
85.537000	0.291987	0.157339	0.302451	0.446620	5699.090776	24642.276895	3714.883321	10467.597466
86.034500	0.296527	0.158793	0.304728	0.442285	5755.160031	24932.367279	3726.619325	10542.752743
86.540000	0.290417	0.157599	0.308727	0.448561	5677.216963	24558.695569	3722.557357	10434.168353
87.035000	0.295956	0.159308	0.308259	0.443764	5742.109727	24883.798680	3730.300300	10517.031039
87.535000	0.293122	0.157792	0.301421	0.448180	5696.429242	24587.180521	3710.332844	10440.716515
88.036500	0.296531	0.158139	0.306387	0.444357	5741.992728	24795.279258	3725.880631	10506.734770
88.536000	0.297139	0.157667	0.303691	0.445225	5740.336507	24728.185599	3719.538613	10491.688230
89.036500	0.298978	0.159597	0.311701	0.446790	5742.082849	24746.460865	3731.046517	10464.657597
89.545000	0.295275	0.157485	0.300482	0.451565	5688.741435	24404.586985	3702.797499	10382.756710
90.037000	0.295720	0.158368	0.307431	0.447561	5716.603651	24646.613120	3722.029566	10451.364184
90.537000	0.295596	0.157096	0.307226	0.447505	5716.179727	24586.170303	3721.767417	10452.343190
91.068500	0.297468	0.157572	0.310745	0.448715	5720.341104	24549.731613	3725.881818	10431.527153
91.623000	0.300163	0.158287	0.304846	0.450799	5724.198126	24481.958922	3711.746766	10395.834688
92.044000	0.298162	0.155572	0.304060	0.448208	5727.925648	24475.868809	3714.919763	10440.247618
92.538500	0.296689	0.156193	0.303283	0.449070	5713.210872	24463.955094	3712.036852	10425.443137
93.036500	0.298349	0.156990	0.307823	0.450184	5716.643376	24448.258594	3718.074203	10406.351234
93.545000	0.294415	0.155196	0.301790	0.454947	5662.448381	24127.200954	3699.211337	10325.300095
94.042000	0.299220	0.157663	0.307388	0.452442	5707.925304	24370.242910	3713.325527	10367.816715
94.537500	0.301525	0.158061	0.310960	0.453702	5714.489315	24327.848708	3717.400112	10346.390224
95.034000	0.298832	0.155626	0.303804	0.453211	5700.671303	24232.691280	3705.709415	10354.729747
95.537500	0.296522	0.156530	0.301090	0.459679	5646.300464	23962.646530	3689.895279	10245.635912
96.035000	0.301567	0.156427	0.305503	0.454091	5712.306845	24228.852190	3707.137159	10339.789271
