sample name	sample
index	661
start time	 03-22-2021  10:29:54 AM


Wavelength (nm)	Absorbance
494.344910	-0.127519
494.563924	-0.127519
494.782919	-0.127519
495.001897	0.074880
495.220856	-0.024153
495.439797	-0.027054
495.658719	-0.023198
495.877624	-0.004237
496.096510	-0.018327
496.315378	-0.021041
496.534227	-0.026785
496.753059	-0.040856
496.971872	-0.038151
497.190667	0.035376
497.409444	0.056940
497.628203	0.061317
497.846943	0.064163
498.065665	0.066613
498.284369	0.066384
498.503055	0.065701
498.721723	0.066196
498.940372	0.066440
499.159003	0.065282
499.377616	0.064799
499.596210	0.064885
499.814787	0.064587
500.033345	0.064206
500.251885	0.064338
500.470406	0.065192
500.688910	0.065643
500.907395	0.066145
501.125862	0.066655
501.344311	0.066903
501.562742	0.067375
501.781154	0.067392
501.999548	0.067717
502.217924	0.067377
502.436282	0.066890
502.654621	0.067019
502.872942	0.066773
503.091245	0.066158
503.309530	0.065824
503.527797	0.065747
503.746045	0.065428
503.964275	0.065598
504.182487	0.065698
504.400681	0.065709
504.618856	0.065376
504.837013	0.065356
505.055152	0.066284
505.273273	0.067098
505.491376	0.065940
505.709460	0.065983
505.927526	0.065605
506.145574	0.065837
506.363604	0.066361
506.581615	0.067315
506.799608	0.067169
507.017583	0.066734
507.235540	0.065781
507.453478	0.066499
507.671399	0.066952
507.889301	0.066583
508.107185	0.066011
508.325050	0.065286
508.542898	0.064333
508.760727	0.064164
508.978538	0.064334
509.196330	0.064582
509.414105	0.065271
509.631861	0.064700
509.849599	0.064759
510.067319	0.065366
510.285021	0.066050
510.502704	0.066131
510.720369	0.066500
510.938016	0.066448
511.155645	0.066687
511.373255	0.066075
511.590848	0.065338
511.808422	0.065811
512.025977	0.065916
512.243515	0.065548
512.461034	0.065268
512.678536	0.064847
512.896018	0.065261
513.113483	0.065277
513.330930	0.064807
513.548358	0.064719
513.765768	0.064273
513.983160	0.064664
514.200533	0.064754
514.417889	0.064922
514.635226	0.064892
514.852545	0.064529
515.069845	0.065103
515.287128	0.065720
515.504392	0.066389
515.721638	0.066420
515.938866	0.066360
516.156075	0.066774
516.373267	0.067277
516.590440	0.067659
516.807594	0.067775
517.024731	0.066640
517.241850	0.066911
517.458950	0.067488
517.676032	0.067335
517.893095	0.067384
518.110141	0.067521
518.327168	0.067646
518.544177	0.067544
518.761168	0.067938
518.978141	0.068915
519.195095	0.068892
519.412031	0.068679
519.628949	0.068930
519.845849	0.068454
520.062731	0.068039
520.279594	0.068082
520.496439	0.068457
520.713266	0.067657
520.930074	0.067962
521.146865	0.068117
521.363637	0.067893
521.580391	0.067870
521.797127	0.068125
522.013844	0.067967
522.230543	0.067845
522.447224	0.067528
522.663887	0.067666
522.880532	0.066966
523.097158	0.066998
523.313766	0.067604
523.530356	0.067848
523.746928	0.068054
523.963481	0.067706
524.180017	0.067353
524.396534	0.067559
524.613032	0.068253
524.829513	0.068065
525.045975	0.067652
525.262420	0.067321
525.478845	0.067786
525.695253	0.067801
525.911643	0.068453
526.128014	0.069100
526.344367	0.068896
526.560702	0.068661
526.777018	0.069108
526.993316	0.069796
527.209597	0.069713
527.425858	0.068726
527.642102	0.068425
527.858328	0.068723
528.074535	0.068462
528.290724	0.068878
528.506894	0.069204
528.723047	0.069284
528.939181	0.068754
529.155297	0.069480
529.371395	0.070362
529.587475	0.070713
529.803536	0.070744
530.019579	0.070624
530.235604	0.070659
530.451611	0.070445
530.667600	0.070028
530.883570	0.069892
531.099522	0.069717
531.315456	0.069395
531.531372	0.069383
531.747269	0.069447
531.963148	0.069873
532.179009	0.070107
532.394852	0.070196
532.610676	0.070691
532.826482	0.070863
533.042271	0.070677
533.258040	0.071068
533.473792	0.071489
533.689525	0.071253
533.905240	0.070903
534.120937	0.071038
534.336616	0.071275
534.552277	0.071318
534.767919	0.071580
534.983543	0.071786
535.199149	0.072020
535.414736	0.071759
535.630306	0.071758
535.845857	0.071911
536.061390	0.071379
536.276904	0.071301
536.492401	0.071187
536.707879	0.070987
536.923339	0.071558
537.138781	0.071581
537.354204	0.071414
537.569610	0.071459
537.784997	0.071814
538.000366	0.072229
538.215716	0.072491
538.431049	0.072492
538.646363	0.072959
538.861659	0.072245
539.076937	0.072493
539.292196	0.072952
539.507438	0.073021
539.722661	0.073089
539.937866	0.073467
540.153052	0.073159
540.368221	0.073483
540.583371	0.073640
540.798503	0.073577
541.013617	0.073435
541.228712	0.073508
541.443789	0.073974
541.658848	0.073596
541.873889	0.073035
542.088912	0.073233
542.303916	0.073541
542.518902	0.073510
542.733870	0.074061
542.948820	0.073913
543.163752	0.073569
543.378665	0.073673
543.593560	0.073991
543.808437	0.074524
544.023295	0.074894
544.238136	0.074783
544.452958	0.074844
544.667762	0.074678
544.882548	0.074984
545.097315	0.074898
545.312064	0.075049
545.526795	0.075042
545.741508	0.074760
545.956203	0.074462
546.170879	0.074564
546.385537	0.074638
546.600177	0.074564
546.814799	0.074490
547.029402	0.074841
547.243988	0.074355
547.458555	0.074425
547.673103	0.074569
547.887634	0.074470
548.102146	0.074459
548.316640	0.074463
548.531116	0.074406
548.745574	0.074507
548.960013	0.074642
549.174435	0.074761
549.388838	0.074818
549.603222	0.075184
549.817589	0.075331
550.031937	0.075213
550.246267	0.075224
550.460579	0.075262
550.674873	0.074924
550.889148	0.074839
551.103405	0.074998
551.317644	0.074932
551.531865	0.074808
551.746068	0.074794
551.960252	0.075055
552.174418	0.074831
552.388566	0.075010
552.602696	0.075465
552.816807	0.075554
553.030900	0.075481
553.244975	0.075658
553.459032	0.075646
553.673070	0.075989
553.887091	0.075842
554.101093	0.076215
554.315077	0.076268
554.529042	0.076414
554.742990	0.076606
554.956919	0.076883
555.170830	0.076766
555.384722	0.076721
555.598597	0.076649
555.812453	0.076801
556.026291	0.076725
556.240111	0.076487
556.453913	0.076309
556.667696	0.076295
556.881461	0.076268
557.095208	0.076574
557.308937	0.076892
557.522647	0.076693
557.736339	0.076691
557.950013	0.076833
558.163669	0.077137
558.377307	0.077299
558.590926	0.077273
558.804527	0.077226
559.018110	0.077300
559.231675	0.077118
559.445221	0.077373
559.658749	0.077244
559.872259	0.077376
560.085751	0.077275
560.299225	0.077064
560.512680	0.077381
560.726117	0.077542
560.939536	0.077545
561.152937	0.077586
561.366319	0.078017
561.579683	0.078452
561.793029	0.078106
562.006357	0.078232
562.219667	0.078363
562.432958	0.077990
562.646231	0.078003
562.859486	0.077930
563.072723	0.077692
563.285941	0.077093
563.499141	0.076838
563.712323	0.076905
563.925487	0.076958
564.138632	0.076765
564.351760	0.076950
564.564869	0.076672
564.777960	0.076483
564.991032	0.076473
565.204087	0.076729
565.417123	0.076856
565.630141	0.076933
565.843140	0.077056
566.056122	0.077037
566.269085	0.076981
566.482030	0.077322
566.694957	0.077633
566.907866	0.077787
567.120756	0.077582
567.333628	0.077560
567.546482	0.077692
567.759318	0.077687
567.972135	0.077703
568.184935	0.077508
568.397716	0.077555
568.610478	0.077360
568.823223	0.077582
569.035949	0.077861
569.248657	0.078228
569.461347	0.078239
569.674019	0.078078
569.886672	0.078352
570.099308	0.078604
570.311925	0.078785
570.524523	0.078833
570.737104	0.078424
570.949666	0.078539
571.162210	0.078157
571.374736	0.078018
571.587244	0.078104
571.799733	0.077902
572.012205	0.077930
572.224658	0.077616
572.437092	0.077774
572.649509	0.078025
572.861907	0.078001
573.074287	0.077917
573.286649	0.077957
573.498993	0.077982
573.711318	0.078236
573.923625	0.078119
574.135914	0.078199
574.348185	0.078155
574.560438	0.078304
574.772672	0.078202
574.984888	0.078310
575.197086	0.078391
575.409266	0.078700
575.621427	0.078678
575.833570	0.079038
576.045695	0.078912
576.257802	0.079177
576.469890	0.079112
576.681961	0.079159
576.894013	0.079211
577.106046	0.079324
577.318062	0.079250
577.530059	0.079314
577.742039	0.079172
577.954000	0.079154
578.165942	0.078957
578.377867	0.079085
578.589773	0.079243
578.801661	0.079201
579.013531	0.079220
579.225382	0.079124
579.437216	0.079231
579.649031	0.079216
579.860828	0.079907
580.072606	0.079872
580.284367	0.079675
580.496109	0.079210
580.707833	0.079125
580.919539	0.079178
581.131227	0.079276
581.342896	0.078905
581.554547	0.078920
581.766180	0.078529
581.977795	0.078532
582.189391	0.078638
582.400969	0.078890
582.612529	0.079293
582.824071	0.079422
583.035595	0.079685
583.247100	0.079928
583.458587	0.079979
583.670056	0.079864
583.881506	0.079957
584.092939	0.080219
584.304353	0.080439
584.515749	0.080325
584.727127	0.080380
584.938486	0.080275
585.149828	0.080199
585.361151	0.080478
585.572456	0.080665
585.783742	0.080809
585.995011	0.080627
586.206261	0.080580
586.417493	0.080456
586.628706	0.080568
586.839902	0.080181
587.051079	0.080629
587.262238	0.080275
587.473379	0.080262
587.684502	0.080344
587.895606	0.080600
588.106692	0.080617
588.317760	0.080851
588.528810	0.080851
588.739841	0.081177
588.950855	0.081186
589.161850	0.081356
589.372827	0.081466
589.583785	0.081348
589.794726	0.081191
590.005648	0.081241
590.216552	0.081275
590.427437	0.081001
590.638305	0.081161
590.849154	0.080951
591.059985	0.080944
591.270798	0.081024
591.481592	0.080917
591.692369	0.080973
591.903127	0.080952
592.113867	0.080893
592.324588	0.081169
592.535292	0.081085
592.745977	0.081186
592.956644	0.081823
593.167293	0.081827
593.377923	0.082061
593.588536	0.082312
593.799130	0.082765
594.009706	0.083006
594.220263	0.083232
594.430803	0.083433
594.641324	0.083535
594.851827	0.083183
595.062312	0.083236
595.272778	0.083383
595.483227	0.083321
595.693657	0.083118
595.904069	0.083294
596.114462	0.083299
596.324838	0.083269
596.535195	0.083424
596.745534	0.083431
596.955855	0.083367
597.166157	0.083240
597.376441	0.083242
597.586707	0.083315
597.796955	0.083088
598.007185	0.082739
598.217396	0.082812
598.427589	0.082337
598.637764	0.082492
598.847921	0.082669
599.058060	0.082514
599.268180	0.082465
599.478282	0.082435
599.688366	0.082329
599.898431	0.082604
600.108479	0.082643
600.318508	0.082793
600.528519	0.082852
600.738511	0.082708
600.948486	0.082837
601.158442	0.082812
601.368380	0.082844
601.578300	0.082899
601.788202	0.082560
601.998085	0.082257
602.207950	0.082100
602.417797	0.081816
602.627626	0.081967
602.837436	0.082052
603.047228	0.081948
603.257002	0.082015
603.466758	0.082278
603.676496	0.082519
603.886215	0.082675
604.095916	0.082879
604.305599	0.082930
604.515264	0.082793
604.724910	0.082807
604.934538	0.082974
605.144148	0.083032
605.353740	0.082737
605.563314	0.082688
605.772869	0.082980
605.982406	0.083128
606.191925	0.083408
606.401425	0.083517
606.610908	0.083436
606.820372	0.083473
607.029818	0.083466
607.239246	0.083566
607.448655	0.083474
607.658047	0.083453
607.867420	0.083491
608.076775	0.082983
608.286111	0.082932
608.495430	0.082773
608.704730	0.082646
608.914012	0.082567
609.123275	0.082710
609.332521	0.082842
609.541748	0.082677
609.750957	0.082581
609.960148	0.082769
610.169321	0.082666
610.378475	0.083021
610.587611	0.083128
610.796729	0.082974
611.005829	0.082735
611.214910	0.082720
611.423974	0.082687
611.633019	0.082910
611.842045	0.083029
612.051054	0.083044
612.260044	0.083136
612.469017	0.083447
612.677970	0.083701
612.886906	0.083841
613.095824	0.084007
613.304723	0.084198
613.513604	0.084219
613.722467	0.084357
613.931311	0.084624
614.140138	0.084609
614.348946	0.084363
614.557736	0.084298
614.766507	0.084286
614.975261	0.084163
615.183996	0.083993
615.392713	0.084019
615.601412	0.083961
615.810092	0.083910
616.018754	0.083860
616.227399	0.083839
616.436024	0.083811
616.644632	0.083867
616.853222	0.084015
617.061793	0.084131
617.270346	0.083932
617.478880	0.083915
617.687397	0.083851
617.895895	0.083920
618.104375	0.084010
618.312837	0.084239
618.521281	0.084343
618.729706	0.084199
618.938113	0.084201
619.146502	0.084515
619.354873	0.084369
619.563226	0.084350
619.771560	0.084387
619.979876	0.084445
620.188174	0.084410
620.396453	0.084678
620.604715	0.084841
620.812958	0.085183
621.021183	0.084940
621.229390	0.085220
621.437578	0.085553
621.645748	0.085460
621.853900	0.085472
622.062034	0.085234
622.270150	0.084776
622.478247	0.084818
622.686326	0.084501
622.894387	0.084565
623.102430	0.084588
623.310454	0.084220
623.518461	0.084138
623.726449	0.084103
623.934418	0.084082
624.142370	0.084423
624.350303	0.084315
624.558218	0.084517
624.766115	0.084475
624.973994	0.084459
625.181855	0.084760
625.389697	0.084933
625.597521	0.084872
625.805327	0.085121
626.013114	0.085196
626.220883	0.085274
626.428634	0.085195
626.636367	0.085433
626.844082	0.085319
627.051778	0.085146
627.259457	0.085405
627.467117	0.085495
627.674758	0.085478
627.882382	0.085170
628.089987	0.085119
628.297574	0.085126
628.505143	0.085118
628.712694	0.085127
628.920226	0.085059
629.127740	0.084740
629.335236	0.084898
629.542714	0.084583
629.750174	0.084733
629.957615	0.084779
630.165038	0.084716
630.372443	0.084407
630.579829	0.084410
630.787198	0.084581
630.994548	0.084661
631.201880	0.084627
631.409194	0.084953
631.616489	0.084877
631.823766	0.084948
632.031025	0.085041
632.238266	0.085206
632.445489	0.085390
632.652693	0.085569
632.859879	0.085849
633.067047	0.085811
633.274197	0.085649
633.481329	0.086046
633.688442	0.086235
633.895537	0.086253
634.102614	0.086445
634.309672	0.086420
634.516713	0.086465
634.723735	0.086401
634.930739	0.086615
635.137724	0.086871
635.344692	0.086635
635.551641	0.086689
635.758572	0.086707
635.965485	0.086893
636.172379	0.086800
636.379256	0.086741
636.586114	0.086575
636.792954	0.086268
636.999775	0.086287
637.206579	0.086315
637.413364	0.086171
637.620131	0.086149
637.826880	0.085966
638.033610	0.086024
638.240323	0.085966
638.447017	0.086088
638.653692	0.086130
638.860350	0.086023
639.066990	0.085946
639.273611	0.085911
639.480214	0.085905
639.686798	0.085895
639.893365	0.085956
640.099913	0.086138
640.306443	0.086162
640.512955	0.086360
640.719449	0.086509
640.925924	0.086468
641.132381	0.086429
641.338820	0.086486
641.545241	0.086514
641.751644	0.086672
641.958028	0.086584
642.164394	0.086606
642.370742	0.086609
642.577071	0.086710
642.783383	0.087010
642.989676	0.087237
643.195951	0.087348
643.402207	0.087405
643.608446	0.087205
643.814666	0.087112
644.020868	0.087067
644.227052	0.086901
644.433218	0.086701
644.639365	0.086520
644.845494	0.086506
645.051605	0.086520
645.257698	0.086339
645.463772	0.086416
645.669828	0.086560
645.875866	0.086914
646.081886	0.087168
646.287888	0.087215
646.493871	0.087379
646.699836	0.087467
646.905783	0.087446
647.111712	0.087756
647.317622	0.088030
647.523514	0.087911
647.729388	0.087683
647.935244	0.087703
648.141082	0.087903
648.346901	0.087992
648.552702	0.087939
648.758485	0.087977
648.964250	0.087936
649.169996	0.087605
649.375724	0.087886
649.581434	0.087847
649.787126	0.087639
649.992800	0.087607
650.198455	0.087476
650.404092	0.087411
650.609711	0.087421
650.815311	0.087331
651.020894	0.087288
651.226458	0.087149
651.432004	0.087072
651.637532	0.087266
651.843041	0.087311
652.048532	0.087415
652.254006	0.087366
652.459460	0.087357
652.664897	0.087270
652.870315	0.087627
653.075716	0.087685
653.281097	0.087609
653.486461	0.087569
653.691807	0.087448
653.897134	0.087317
654.102443	0.087320
654.307734	0.087572
654.513006	0.087649
654.718261	0.087454
654.923497	0.087565
655.128715	0.087809
655.333915	0.087880
655.539096	0.088030
655.744259	0.088061
655.949404	0.088058
656.154531	0.087904
656.359640	0.088009
656.564730	0.088120
656.769802	0.088229
656.974856	0.088227
657.179892	0.088198
657.384909	0.088195
657.589908	0.088365
657.794889	0.088708
657.999852	0.088920
658.204797	0.089158
658.409723	0.089311
658.614631	0.089210
658.819521	0.089410
659.024393	0.089598
659.229246	0.089642
659.434081	0.089763
659.638898	0.089745
659.843697	0.089626
660.048478	0.089658
660.253240	0.089708
660.457984	0.089883
660.662710	0.090047
660.867417	0.090093
661.072107	0.090279
661.276778	0.090401
661.481431	0.090286
661.686066	0.090386
661.890682	0.090233
662.095281	0.090305
662.299861	0.090073
662.504422	0.089666
662.708966	0.089598
662.913491	0.089499
663.117999	0.089435
663.322488	0.089459
663.526958	0.089299
663.731411	0.089118
663.935845	0.088870
664.140261	0.088810
664.344659	0.088829
664.549038	0.088776
664.753400	0.088491
664.957743	0.088344
665.162068	0.088193
665.366375	0.088205
665.570663	0.088369
665.774933	0.088465
665.979185	0.088677
666.183419	0.088959
666.387635	0.088937
666.591832	0.088934
666.796011	0.088956
667.000172	0.088972
667.204315	0.089057
667.408439	0.089222
667.612545	0.089363
667.816634	0.089322
668.020703	0.089176
668.224755	0.089392
668.428788	0.089697
668.632803	0.089805
668.836800	0.089931
669.040779	0.090049
669.244739	0.089840
669.448681	0.089982
669.652605	0.089870
669.856511	0.090039
670.060399	0.090196
670.264268	0.090178
670.468119	0.090157
670.671952	0.090167
670.875767	0.090133
671.079563	0.090295
671.283341	0.090290
671.487101	0.090578
671.690843	0.090591
671.894567	0.090491
672.098272	0.090667
672.301959	0.090646
672.505628	0.090980
672.709278	0.090988
672.912911	0.091006
673.116525	0.090888
673.320121	0.090975
673.523699	0.091063
673.727258	0.091030
673.930799	0.090972
674.134322	0.091051
674.337827	0.090943
674.541314	0.090998
674.744782	0.091054
674.948232	0.091067
675.151664	0.090893
675.355078	0.090770
675.558474	0.090918
675.761851	0.090975
675.965210	0.090919
676.168551	0.090834
676.371873	0.090768
676.575178	0.090781
676.778464	0.090780
676.981732	0.091030
677.184981	0.091215
677.388213	0.091117
677.591426	0.091241
677.794621	0.091339
677.997798	0.091388
678.200956	0.091527
678.404097	0.091547
678.607219	0.091536
678.810323	0.091382
679.013408	0.091116
679.216476	0.091063
679.419525	0.090816
679.622556	0.090921
679.825569	0.090982
680.028563	0.091087
680.231540	0.091122
680.434498	0.091236
680.637438	0.091353
680.840359	0.091553
681.043263	0.091757
681.246148	0.091911
681.449015	0.091967
681.651864	0.091762
681.854694	0.091710
682.057506	0.091685
682.260301	0.091640
682.463076	0.091588
682.665834	0.091594
682.868573	0.091465
683.071295	0.091511
683.273998	0.091377
683.476682	0.091522
683.679349	0.091437
683.881997	0.091407
684.084627	0.091360
684.287239	0.091225
684.489833	0.091228
684.692408	0.091183
684.894965	0.091155
685.097504	0.091360
685.300025	0.091672
685.502527	0.091722
685.705012	0.091783
685.907478	0.091908
686.109925	0.092107
686.312355	0.092185
686.514766	0.092314
686.717159	0.092311
686.919534	0.092280
687.121891	0.092158
687.324230	0.092222
687.526550	0.092435
687.728852	0.092487
687.931136	0.092613
688.133401	0.092691
688.335649	0.092667
688.537878	0.092774
688.740089	0.092759
688.942281	0.093032
689.144456	0.093133
689.346612	0.093205
689.548750	0.093267
689.750870	0.093281
689.952971	0.093025
690.155055	0.093144
690.357120	0.093047
690.559167	0.093042
690.761195	0.092695
690.963206	0.092721
691.165198	0.092573
691.367172	0.092507
691.569128	0.092252
691.771065	0.092497
691.972984	0.092380
692.174885	0.092487
692.376768	0.092691
692.578633	0.092866
692.780479	0.092758
692.982308	0.092743
693.184118	0.092907
693.385909	0.093081
