sample name	sample
index	431
start time	 03-08-2021  12:08:07 PM


Wavelength (nm)	Absorbance
494.344910	-0.427543
494.563924	-0.427543
494.782919	-0.427543
495.001897	1.826794
495.220856	-0.209146
495.439797	-0.217089
495.658719	-0.164969
495.877624	-0.140887
496.096510	-0.109368
496.315378	-0.071682
496.534227	-0.073893
496.753059	-0.030307
496.971872	0.076253
497.190667	0.083378
497.409444	0.087876
497.628203	0.085243
497.846943	0.084579
498.065665	0.082273
498.284369	0.082476
498.503055	0.083531
498.721723	0.082760
498.940372	0.081915
499.159003	0.081282
499.377616	0.081312
499.596210	0.080519
499.814787	0.080431
500.033345	0.080652
500.251885	0.079991
500.470406	0.080032
500.688910	0.080214
500.907395	0.080414
501.125862	0.081347
501.344311	0.079981
501.562742	0.080084
501.781154	0.079871
501.999548	0.080276
502.217924	0.080168
502.436282	0.079626
502.654621	0.079550
502.872942	0.078525
503.091245	0.078128
503.309530	0.078886
503.527797	0.079963
503.746045	0.080682
503.964275	0.080297
504.182487	0.080006
504.400681	0.080073
504.618856	0.080199
504.837013	0.081199
505.055152	0.080758
505.273273	0.080179
505.491376	0.080458
505.709460	0.079782
505.927526	0.079856
506.145574	0.080875
506.363604	0.081037
506.581615	0.081028
506.799608	0.081356
507.017583	0.081982
507.235540	0.082862
507.453478	0.081352
507.671399	0.082024
507.889301	0.082297
508.107185	0.082200
508.325050	0.082221
508.542898	0.082259
508.760727	0.082201
508.978538	0.082360
509.196330	0.082661
509.414105	0.083382
509.631861	0.082756
509.849599	0.082391
510.067319	0.082581
510.285021	0.082439
510.502704	0.082558
510.720369	0.082257
510.938016	0.082031
511.155645	0.081904
511.373255	0.081874
511.590848	0.082254
511.808422	0.082578
512.025977	0.083033
512.243515	0.083273
512.461034	0.082619
512.678536	0.083276
512.896018	0.083972
513.113483	0.083778
513.330930	0.084270
513.548358	0.084427
513.765768	0.083922
513.983160	0.083129
514.200533	0.083305
514.417889	0.084658
514.635226	0.083986
514.852545	0.083739
515.069845	0.083613
515.287128	0.083034
515.504392	0.083699
515.721638	0.084352
515.938866	0.084436
516.156075	0.084399
516.373267	0.084569
516.590440	0.084363
516.807594	0.084460
517.024731	0.084385
517.241850	0.084676
517.458950	0.083747
517.676032	0.083503
517.893095	0.084002
518.110141	0.084427
518.327168	0.083985
518.544177	0.085236
518.761168	0.085194
518.978141	0.085278
519.195095	0.085512
519.412031	0.086020
519.628949	0.085974
519.845849	0.086312
520.062731	0.086426
520.279594	0.086464
520.496439	0.086845
520.713266	0.086645
520.930074	0.087106
521.146865	0.087590
521.363637	0.087845
521.580391	0.088708
521.797127	0.088651
522.013844	0.088774
522.230543	0.088585
522.447224	0.088107
522.663887	0.088290
522.880532	0.087982
523.097158	0.088134
523.313766	0.088169
523.530356	0.087378
523.746928	0.087253
523.963481	0.087276
524.180017	0.087624
524.396534	0.087379
524.613032	0.087143
524.829513	0.088145
525.045975	0.087432
525.262420	0.087345
525.478845	0.088793
525.695253	0.088904
525.911643	0.088609
526.128014	0.088865
526.344367	0.089136
526.560702	0.089640
526.777018	0.089524
526.993316	0.090407
527.209597	0.090612
527.425858	0.090823
527.642102	0.091070
527.858328	0.091182
528.074535	0.091264
528.290724	0.091310
528.506894	0.091579
528.723047	0.091613
528.939181	0.091643
529.155297	0.091955
529.371395	0.091248
529.587475	0.091580
529.803536	0.091963
530.019579	0.092039
530.235604	0.092303
530.451611	0.092694
530.667600	0.092858
530.883570	0.092992
531.099522	0.093432
531.315456	0.093611
531.531372	0.093450
531.747269	0.093661
531.963148	0.094715
532.179009	0.094839
532.394852	0.095363
532.610676	0.095865
532.826482	0.096565
533.042271	0.096603
533.258040	0.096921
533.473792	0.097156
533.689525	0.097342
533.905240	0.096998
534.120937	0.097001
534.336616	0.096481
534.552277	0.095900
534.767919	0.095973
534.983543	0.095884
535.199149	0.095779
535.414736	0.095944
535.630306	0.096015
535.845857	0.095893
536.061390	0.096348
536.276904	0.096999
536.492401	0.097590
536.707879	0.097088
536.923339	0.097175
537.138781	0.097632
537.354204	0.097813
537.569610	0.097712
537.784997	0.098087
538.000366	0.098732
538.215716	0.098410
538.431049	0.098509
538.646363	0.099034
538.861659	0.099238
539.076937	0.099143
539.292196	0.099300
539.507438	0.099607
539.722661	0.098991
539.937866	0.099180
540.153052	0.098660
540.368221	0.098685
540.583371	0.098824
540.798503	0.099698
541.013617	0.099824
541.228712	0.100003
541.443789	0.099901
541.658848	0.100816
541.873889	0.100582
542.088912	0.101323
542.303916	0.101193
542.518902	0.101365
542.733870	0.101206
542.948820	0.101336
543.163752	0.101318
543.378665	0.101549
543.593560	0.101219
543.808437	0.101247
544.023295	0.101730
544.238136	0.102320
544.452958	0.102489
544.667762	0.102535
544.882548	0.102547
545.097315	0.102942
545.312064	0.103554
545.526795	0.103713
545.741508	0.103603
545.956203	0.103468
546.170879	0.103740
546.385537	0.103744
546.600177	0.103726
546.814799	0.104150
547.029402	0.103970
547.243988	0.103400
547.458555	0.103688
547.673103	0.104325
547.887634	0.104487
548.102146	0.104224
548.316640	0.104343
548.531116	0.104484
548.745574	0.104585
548.960013	0.104859
549.174435	0.105274
549.388838	0.105355
549.603222	0.104997
549.817589	0.105127
550.031937	0.105340
550.246267	0.105780
550.460579	0.106356
550.674873	0.106497
550.889148	0.106688
551.103405	0.107036
551.317644	0.107077
551.531865	0.107405
551.746068	0.107452
551.960252	0.107559
552.174418	0.107228
552.388566	0.106840
552.602696	0.107002
552.816807	0.107215
553.030900	0.107264
553.244975	0.107532
553.459032	0.107649
553.673070	0.107605
553.887091	0.108038
554.101093	0.108485
554.315077	0.108828
554.529042	0.108819
554.742990	0.108745
554.956919	0.108926
555.170830	0.109081
555.384722	0.109212
555.598597	0.109765
555.812453	0.109697
556.026291	0.109915
556.240111	0.110017
556.453913	0.110406
556.667696	0.110700
556.881461	0.110766
557.095208	0.110982
557.308937	0.111299
557.522647	0.111336
557.736339	0.111741
557.950013	0.111482
558.163669	0.111601
558.377307	0.111496
558.590926	0.111656
558.804527	0.111767
559.018110	0.111750
559.231675	0.111708
559.445221	0.111946
559.658749	0.111824
559.872259	0.111883
560.085751	0.111880
560.299225	0.112234
560.512680	0.112428
560.726117	0.112743
560.939536	0.113074
561.152937	0.113150
561.366319	0.113262
561.579683	0.113172
561.793029	0.113216
562.006357	0.112855
562.219667	0.112698
562.432958	0.112496
562.646231	0.112388
562.859486	0.112251
563.072723	0.112383
563.285941	0.112332
563.499141	0.112787
563.712323	0.113235
563.925487	0.113754
564.138632	0.113985
564.351760	0.114170
564.564869	0.114637
564.777960	0.115014
564.991032	0.115037
565.204087	0.114880
565.417123	0.114776
565.630141	0.114909
565.843140	0.114843
566.056122	0.115045
566.269085	0.115371
566.482030	0.115588
566.694957	0.115419
566.907866	0.115554
567.120756	0.115700
567.333628	0.116232
567.546482	0.116333
567.759318	0.116714
567.972135	0.116342
568.184935	0.116070
568.397716	0.115879
568.610478	0.116003
568.823223	0.116096
569.035949	0.116355
569.248657	0.115990
569.461347	0.115956
569.674019	0.115657
569.886672	0.116090
570.099308	0.116404
570.311925	0.116464
570.524523	0.116351
570.737104	0.116589
570.949666	0.116720
571.162210	0.116807
571.374736	0.116721
571.587244	0.117261
571.799733	0.117201
572.012205	0.117229
572.224658	0.117451
572.437092	0.117670
572.649509	0.117669
572.861907	0.117893
573.074287	0.118182
573.286649	0.118250
573.498993	0.118024
573.711318	0.118487
573.923625	0.118481
574.135914	0.118175
574.348185	0.118468
574.560438	0.118631
574.772672	0.118533
574.984888	0.118532
575.197086	0.118816
575.409266	0.119239
575.621427	0.119048
575.833570	0.119257
576.045695	0.119611
576.257802	0.119503
576.469890	0.119619
576.681961	0.119588
576.894013	0.119781
577.106046	0.120273
577.318062	0.120118
577.530059	0.120421
577.742039	0.120926
577.954000	0.120971
578.165942	0.121181
578.377867	0.121193
578.589773	0.121516
578.801661	0.121731
579.013531	0.121290
579.225382	0.121476
579.437216	0.121858
579.649031	0.121841
579.860828	0.121941
580.072606	0.122148
580.284367	0.122309
580.496109	0.122352
580.707833	0.122145
580.919539	0.122525
581.131227	0.122788
581.342896	0.122545
581.554547	0.122432
581.766180	0.122679
581.977795	0.122513
582.189391	0.122866
582.400969	0.123207
582.612529	0.123436
582.824071	0.123724
583.035595	0.123898
583.247100	0.124096
583.458587	0.124486
583.670056	0.124674
583.881506	0.124844
584.092939	0.124766
584.304353	0.124738
584.515749	0.124813
584.727127	0.124574
584.938486	0.124866
585.149828	0.125215
585.361151	0.124931
585.572456	0.125034
585.783742	0.125331
585.995011	0.125217
586.206261	0.125476
586.417493	0.125529
586.628706	0.125727
586.839902	0.125444
587.051079	0.125277
587.262238	0.125531
587.473379	0.125418
587.684502	0.125706
587.895606	0.125829
588.106692	0.125750
588.317760	0.125887
588.528810	0.126258
588.739841	0.126431
588.950855	0.126481
589.161850	0.126662
589.372827	0.126863
589.583785	0.126936
589.794726	0.127263
590.005648	0.127699
590.216552	0.127829
590.427437	0.127628
590.638305	0.127851
590.849154	0.128025
591.059985	0.128336
591.270798	0.128516
591.481592	0.128467
591.692369	0.128555
591.903127	0.128473
592.113867	0.128625
592.324588	0.129021
592.535292	0.128856
592.745977	0.128830
592.956644	0.128721
593.167293	0.128875
593.377923	0.129071
593.588536	0.129158
593.799130	0.129175
594.009706	0.129170
594.220263	0.129088
594.430803	0.129581
594.641324	0.129717
594.851827	0.129989
595.062312	0.130004
595.272778	0.130072
595.483227	0.130130
595.693657	0.129840
595.904069	0.130243
596.114462	0.130754
596.324838	0.130813
596.535195	0.131107
596.745534	0.130723
596.955855	0.130910
597.166157	0.130836
597.376441	0.131145
597.586707	0.131352
597.796955	0.131301
598.007185	0.130832
598.217396	0.130897
598.427589	0.131003
598.637764	0.131469
598.847921	0.131437
599.058060	0.131742
599.268180	0.131655
599.478282	0.132056
599.688366	0.132271
599.898431	0.132617
600.108479	0.132463
600.318508	0.132743
600.528519	0.132972
600.738511	0.133202
600.948486	0.133458
601.158442	0.134093
601.368380	0.134283
601.578300	0.134354
601.788202	0.134735
601.998085	0.135109
602.207950	0.134861
602.417797	0.134888
602.627626	0.134726
602.837436	0.134527
603.047228	0.134134
603.257002	0.134199
603.466758	0.134549
603.676496	0.134294
603.886215	0.134413
604.095916	0.134564
604.305599	0.134652
604.515264	0.135148
604.724910	0.135443
604.934538	0.135732
605.144148	0.135980
605.353740	0.135654
605.563314	0.135899
605.772869	0.135879
605.982406	0.136280
606.191925	0.136376
606.401425	0.136438
606.610908	0.136409
606.820372	0.136210
607.029818	0.136105
607.239246	0.136195
607.448655	0.136159
607.658047	0.136379
607.867420	0.136311
608.076775	0.136295
608.286111	0.136049
608.495430	0.136482
608.704730	0.136864
608.914012	0.136950
609.123275	0.136968
609.332521	0.136972
609.541748	0.137171
609.750957	0.137195
609.960148	0.137259
610.169321	0.137564
610.378475	0.137258
610.587611	0.137165
610.796729	0.137439
611.005829	0.137657
611.214910	0.137639
611.423974	0.137897
611.633019	0.138016
611.842045	0.138437
612.051054	0.138160
612.260044	0.138329
612.469017	0.138483
612.677970	0.138683
612.886906	0.138774
613.095824	0.139049
613.304723	0.138741
613.513604	0.138577
613.722467	0.138349
613.931311	0.138823
614.140138	0.138985
614.348946	0.139192
614.557736	0.138848
614.766507	0.138872
614.975261	0.138891
615.183996	0.139087
615.392713	0.139430
615.601412	0.139456
615.810092	0.139554
616.018754	0.139717
616.227399	0.139759
616.436024	0.140059
616.644632	0.140156
616.853222	0.140272
617.061793	0.140126
617.270346	0.140397
617.478880	0.140468
617.687397	0.140358
617.895895	0.140502
618.104375	0.140590
618.312837	0.140538
618.521281	0.140597
618.729706	0.140672
618.938113	0.140903
619.146502	0.140755
619.354873	0.141031
619.563226	0.141161
619.771560	0.140920
619.979876	0.140807
620.188174	0.140917
620.396453	0.141212
620.604715	0.141412
620.812958	0.141594
621.021183	0.141493
621.229390	0.141415
621.437578	0.141591
621.645748	0.142025
621.853900	0.142036
622.062034	0.142273
622.270150	0.142248
622.478247	0.142358
622.686326	0.142333
622.894387	0.142464
623.102430	0.142519
623.310454	0.142288
623.518461	0.142223
623.726449	0.142567
623.934418	0.142661
624.142370	0.142783
624.350303	0.142835
624.558218	0.142859
624.766115	0.143084
624.973994	0.143242
625.181855	0.143733
625.389697	0.143774
625.597521	0.144053
625.805327	0.144144
626.013114	0.144491
626.220883	0.144536
626.428634	0.144778
626.636367	0.144752
626.844082	0.144996
627.051778	0.144982
627.259457	0.145197
627.467117	0.145090
627.674758	0.145180
627.882382	0.144902
628.089987	0.145251
628.297574	0.145197
628.505143	0.145368
628.712694	0.145646
628.920226	0.145743
629.127740	0.145802
629.335236	0.145910
629.542714	0.146077
629.750174	0.146363
629.957615	0.146456
630.165038	0.146763
630.372443	0.146941
630.579829	0.146729
630.787198	0.146706
630.994548	0.146735
631.201880	0.146790
631.409194	0.146641
631.616489	0.146781
631.823766	0.146862
632.031025	0.146790
632.238266	0.146899
632.445489	0.147186
632.652693	0.147498
632.859879	0.147622
633.067047	0.147626
633.274197	0.147628
633.481329	0.147585
633.688442	0.147464
633.895537	0.147597
634.102614	0.147745
634.309672	0.147821
634.516713	0.147750
634.723735	0.148034
634.930739	0.148042
635.137724	0.148274
635.344692	0.148616
635.551641	0.148542
635.758572	0.148632
635.965485	0.148547
636.172379	0.148465
636.379256	0.148534
636.586114	0.148467
636.792954	0.148628
636.999775	0.148649
637.206579	0.148700
637.413364	0.148973
637.620131	0.149150
637.826880	0.149272
638.033610	0.149429
638.240323	0.149290
638.447017	0.149387
638.653692	0.149591
638.860350	0.149776
639.066990	0.149559
639.273611	0.149660
639.480214	0.149560
639.686798	0.149689
639.893365	0.149674
640.099913	0.150140
640.306443	0.150259
640.512955	0.150453
640.719449	0.150694
640.925924	0.151079
641.132381	0.151080
641.338820	0.151272
641.545241	0.151322
641.751644	0.151477
641.958028	0.151491
642.164394	0.151584
642.370742	0.151509
642.577071	0.151396
642.783383	0.151401
642.989676	0.151424
643.195951	0.151465
643.402207	0.151672
643.608446	0.151831
643.814666	0.151961
644.020868	0.152021
644.227052	0.152339
644.433218	0.152551
644.639365	0.152456
644.845494	0.152686
645.051605	0.153078
645.257698	0.153102
645.463772	0.153163
645.669828	0.153310
645.875866	0.153271
646.081886	0.153093
646.287888	0.153007
646.493871	0.153259
646.699836	0.153420
646.905783	0.153333
647.111712	0.153301
647.317622	0.153249
647.523514	0.153234
647.729388	0.153467
647.935244	0.153556
648.141082	0.153846
648.346901	0.153841
648.552702	0.153836
648.758485	0.153712
648.964250	0.153958
649.169996	0.154177
649.375724	0.154362
649.581434	0.154455
649.787126	0.154540
649.992800	0.154569
650.198455	0.154771
650.404092	0.154953
650.609711	0.155155
650.815311	0.155290
651.020894	0.155644
651.226458	0.155846
651.432004	0.156027
651.637532	0.156284
651.843041	0.156279
652.048532	0.156429
652.254006	0.156315
652.459460	0.156491
652.664897	0.156864
652.870315	0.156659
653.075716	0.156763
653.281097	0.156801
653.486461	0.156947
653.691807	0.156992
653.897134	0.156875
654.102443	0.157076
654.307734	0.157174
654.513006	0.156877
654.718261	0.157008
654.923497	0.156867
655.128715	0.156943
655.333915	0.157122
655.539096	0.157607
655.744259	0.157961
655.949404	0.158323
656.154531	0.158450
656.359640	0.158714
656.564730	0.158805
656.769802	0.158992
656.974856	0.159009
657.179892	0.159087
657.384909	0.158897
657.589908	0.158677
657.794889	0.158674
657.999852	0.158834
658.204797	0.158912
658.409723	0.158983
658.614631	0.159210
658.819521	0.159383
659.024393	0.159234
659.229246	0.159354
659.434081	0.159668
659.638898	0.159730
659.843697	0.159836
660.048478	0.159954
660.253240	0.160012
660.457984	0.160139
660.662710	0.160182
660.867417	0.160503
661.072107	0.160765
661.276778	0.160847
661.481431	0.160926
661.686066	0.160862
661.890682	0.161064
662.095281	0.161476
662.299861	0.161771
662.504422	0.162010
662.708966	0.162010
662.913491	0.162096
663.117999	0.162318
663.322488	0.162530
663.526958	0.162855
663.731411	0.162774
663.935845	0.162741
664.140261	0.162678
664.344659	0.162814
664.549038	0.162947
664.753400	0.163011
664.957743	0.162968
665.162068	0.163170
665.366375	0.163030
665.570663	0.163270
665.774933	0.163518
665.979185	0.163530
666.183419	0.163713
666.387635	0.163818
666.591832	0.164000
666.796011	0.164287
667.000172	0.164415
667.204315	0.164759
667.408439	0.164962
667.612545	0.164795
667.816634	0.165069
668.020703	0.165222
668.224755	0.165390
668.428788	0.165604
668.632803	0.165868
668.836800	0.165855
669.040779	0.166144
669.244739	0.166096
669.448681	0.166313
669.652605	0.166496
669.856511	0.166436
670.060399	0.166714
670.264268	0.166681
670.468119	0.166552
670.671952	0.166661
670.875767	0.166662
671.079563	0.166679
671.283341	0.166947
671.487101	0.166937
671.690843	0.167313
671.894567	0.167202
672.098272	0.167193
672.301959	0.167194
672.505628	0.167289
672.709278	0.167439
672.912911	0.167512
673.116525	0.167428
673.320121	0.167417
673.523699	0.167355
673.727258	0.167363
673.930799	0.167489
674.134322	0.167727
674.337827	0.167879
674.541314	0.167828
674.744782	0.168139
674.948232	0.168276
675.151664	0.168569
675.355078	0.168504
675.558474	0.168806
675.761851	0.168945
675.965210	0.169134
676.168551	0.169204
676.371873	0.169462
676.575178	0.169663
676.778464	0.169799
676.981732	0.169669
677.184981	0.169850
677.388213	0.170168
677.591426	0.170304
677.794621	0.170271
677.997798	0.170395
678.200956	0.170413
678.404097	0.170479
678.607219	0.170521
678.810323	0.170714
679.013408	0.170913
679.216476	0.170870
679.419525	0.170952
679.622556	0.171083
679.825569	0.171137
680.028563	0.171249
680.231540	0.171192
680.434498	0.171434
680.637438	0.171446
680.840359	0.171405
681.043263	0.171409
681.246148	0.171508
681.449015	0.171646
681.651864	0.171787
681.854694	0.171966
682.057506	0.172417
682.260301	0.172562
682.463076	0.172942
682.665834	0.173251
682.868573	0.173578
683.071295	0.173900
683.273998	0.174167
683.476682	0.174481
683.679349	0.174534
683.881997	0.174417
684.084627	0.174594
684.287239	0.174625
684.489833	0.174666
684.692408	0.174743
684.894965	0.174732
685.097504	0.174799
685.300025	0.174935
685.502527	0.175154
685.705012	0.175118
685.907478	0.175136
686.109925	0.175056
686.312355	0.175128
686.514766	0.175013
686.717159	0.175095
686.919534	0.175174
687.121891	0.175097
687.324230	0.175057
687.526550	0.175143
687.728852	0.174891
687.931136	0.174966
688.133401	0.174963
688.335649	0.174982
688.537878	0.174923
688.740089	0.175007
688.942281	0.175216
689.144456	0.175060
689.346612	0.175248
689.548750	0.175610
689.750870	0.175981
689.952971	0.176379
690.155055	0.176627
690.357120	0.177012
690.559167	0.177093
690.761195	0.177113
690.963206	0.177319
691.165198	0.177474
691.367172	0.177611
691.569128	0.177446
691.771065	0.177318
691.972984	0.177362
692.174885	0.177589
692.376768	0.177759
692.578633	0.177733
692.780479	0.178145
692.982308	0.178243
693.184118	0.178452
693.385909	0.178544
