sample name	sample
index	146
start time	 02-15-2021  02:09:20 PM
880	0.449457
Peak Time (s)	92.537
Peak Height 	0.4495
calc peak height	90,93
Baseline Time (s)	10.036
Baseline Value 	-0.004416
subtract baseline	10,4
Abs	0.340841
Peak Time (s)	91.537
Peak Height 	0.3408
calc peak height	90,93
Baseline Time (s)	8.536
Baseline Value 	0.009478
subtract baseline	10,3
PK_550	0.154655
Peak Time (s)	90.535
Peak Height 	0.1547
calc peak height	90,93
Baseline Time (s)	8.536
Baseline Value 	0.002556
subtract baseline	10,2
PK_880	0.306665
Peak Time (s)	92.037
Peak Height 	0.3067
calc peak height	90,93
Baseline Time (s)	8.536
Baseline Value 	0.002424
subtract baseline	10,1


Time (s)	A880-A510	A880-A775	A880-A975	A880	I510	I775	I975	I880	
0.035500	-0.003708	-0.002397	-0.005794	0.001872	4086.417776	13808.399059	3236.219839	8063.724608
0.536500	-0.005766	-0.003287	-0.022705	0.004543	4074.957881	13720.704331	3225.307427	8032.771011
1.036500	-0.003716	-0.001448	0.001615	0.003963	4081.317440	13780.189591	3239.269688	8039.480045
1.537500	-0.005881	-0.002995	-0.010662	0.006881	4069.060389	13670.643284	3230.654317	8005.834229
2.037000	-0.003050	-0.001926	-0.000919	0.000493	4091.395183	13854.231126	3239.809822	8079.778399
2.534500	-0.007804	-0.003386	-0.020864	0.004981	4069.007226	13707.543073	3226.073182	8027.716954
3.037500	0.003369	-0.000970	-0.001845	-0.000986	4110.907223	13914.879865	3240.129585	8097.050575
3.535500	-0.006314	-0.001311	0.000701	0.002301	4079.049790	13824.655902	3239.701255	8058.743619
4.035500	0.001421	-0.001575	-0.001753	0.000671	4101.956833	13858.530144	3239.225741	8077.704400
4.535500	-0.000282	0.001686	0.014057	0.002211	4093.966301	13901.366310	3247.593251	8059.779534
5.036000	-0.004161	-0.001030	-0.021830	0.000745	4088.061299	13870.224533	3227.866977	8076.836032
5.536000	0.005158	0.000373	-0.005231	0.000874	4110.733108	13901.989166	3237.111133	8075.341958
6.036500	-0.001942	-0.001229	0.001519	0.000035	4095.235604	13882.969315	3241.490161	8085.122373
6.536500	-0.000688	-0.000078	-0.002005	0.000725	4096.622449	13894.442749	3239.048801	8077.075082
7.034500	-0.000253	-0.001736	-0.003735	-0.000248	4100.092010	13877.383386	3238.613482	8088.431874
7.534500	0.003659	0.001594	0.008086	0.002059	4104.058866	13902.864746	3244.147898	8061.544637
8.039000	0.001999	-0.001813	-0.006967	-0.000231	4105.623286	13875.033320	3236.750350	8088.227025
8.535500	0.000000	0.000000	0.000000	0.000769	4098.206880	13895.283484	3240.181725	8076.557335
9.035500	0.002282	0.000202	-0.015121	-0.000445	4106.856867	13930.666600	3232.256884	8090.732138
9.535500	-0.003132	0.000530	0.001921	0.000380	4091.468901	13918.213727	3241.523143	8081.094126
10.036000	0.000545	-0.000507	-0.007903	0.000000	4101.449952	13901.815709	3236.084676	8085.530177
10.536500	-0.001942	-0.002641	0.008547	-0.001877	4099.943933	13895.416969	3246.747264	8107.489485
11.036500	0.000769	0.000270	0.005967	0.000533	4100.685307	13907.905602	3243.799664	8079.309952
11.537000	-0.001695	-0.000590	-0.011351	-0.000218	4096.464491	13905.207799	3234.251960	8088.078366
12.037000	-0.001587	-0.000625	-0.013872	-0.001039	4098.753041	13924.825511	3233.292224	8097.675318
12.537500	-0.003381	0.000208	-0.003957	0.003367	4083.574715	13835.864600	3236.414354	8046.372267
13.035000	0.002512	0.000222	-0.010833	-0.000063	4106.477410	13921.591388	3234.456477	8086.260144
13.535000	-0.000614	-0.000757	-0.005943	-0.000962	4100.964563	13919.612644	3237.754566	8096.774765
14.035500	-0.002067	-0.000973	0.003391	0.001635	4091.005104	13849.561885	3241.648614	8066.483000
14.536000	-0.003897	-0.000817	-0.000147	0.003847	4081.156072	13798.615279	3238.321296	8040.812827
15.036500	0.003612	0.000255	0.004888	0.000702	4107.313154	13903.325717	3243.067872	8077.344996
15.536500	-0.001430	-0.000696	-0.017210	-0.000921	4098.847361	13920.099013	3231.353798	8096.288813
16.037000	-0.000620	-0.001042	-0.003102	-0.001656	4102.664757	13929.830168	3239.790439	8104.904749
16.541000	-0.005556	-0.001815	-0.000115	0.003036	4079.105424	13794.004943	3238.806276	8050.213385
17.037500	0.000762	-0.000783	0.008977	-0.004129	4112.245797	13998.348580	3248.346078	8133.962724
17.537000	0.000468	-0.000515	-0.000915	0.000526	4099.959447	13888.501776	3239.792986	8079.389819
18.035500	-0.000746	-0.001887	-0.001408	-0.000386	4099.214911	13877.067856	3240.035219	8090.037579
18.535500	0.000918	-0.000665	0.003925	0.001758	4098.034494	13854.152573	3241.887989	8065.052609
19.035500	-0.003321	-0.002486	-0.005489	-0.000862	4094.052666	13874.013397	3237.957878	8095.606795
19.536000	-0.003003	-0.002146	0.003103	-0.000543	4094.048368	13874.528861	3242.751328	8091.873819
20.036000	0.003353	-0.000195	-0.001581	0.000250	4107.789847	13903.359098	3239.567521	8082.606881
20.536500	0.001439	-0.003166	-0.012820	-0.000612	4105.180043	13850.887761	3233.644813	8092.681575
21.036500	-0.001150	0.000721	-0.006292	0.000446	4096.170510	13921.354722	3236.748989	8080.325444
21.537000	0.000384	-0.000810	0.004975	0.000252	4100.430260	13888.000906	3243.382677	8082.593554
22.037500	0.004596	-0.000603	0.004430	-0.001062	4114.160128	13925.951472	3243.833540	8097.940451
22.535000	0.008385	-0.000983	0.000436	0.001409	4117.462885	13854.907010	3240.063690	8069.110185
23.035500	-0.001495	0.001159	0.005074	0.000498	4095.196373	13931.015198	3243.296195	8079.722629
23.535500	0.001132	-0.001591	-0.016459	-0.001416	4106.412487	13910.114932	3232.050732	8102.085982
24.036000	0.001093	0.000642	-0.007339	0.000791	4100.850775	13910.771407	3235.955297	8076.306614
24.536500	0.003393	0.001180	-0.001595	0.002815	4101.531624	13873.732768	3238.082747	8052.777216
25.036500	-0.004419	-0.000275	0.002780	-0.000450	4090.352566	13918.861376	3242.508355	8090.786617
25.537000	-0.000490	-0.000262	-0.002780	-0.000870	4101.041739	13929.676193	3239.521835	8095.696858
26.037500	-0.000855	-0.001217	-0.029158	-0.001081	4100.662035	13911.081718	3224.856186	8098.165845
26.537500	-0.004454	-0.000737	0.007948	0.000026	4089.101347	13895.422810	3245.264745	8085.224076
27.037500	-0.001410	0.000160	0.010343	-0.002183	4102.014987	13973.160063	3247.999565	8111.082165
27.535000	-0.001985	-0.001447	-0.003627	-0.001261	4098.318543	13909.830879	3239.258947	8100.274947
28.035500	0.002031	-0.000258	0.001866	-0.001822	4109.659215	13953.621910	3242.775978	8106.849581
28.535000	-0.002346	-0.001339	-0.006595	-0.001813	4098.789208	13926.316935	3237.868539	8106.737651
29.035500	-0.003591	0.000130	0.003776	-0.001256	4094.354799	13949.149051	3243.563215	8100.212410
29.536000	-0.004816	-0.002689	-0.003469	-0.003381	4096.566667	13931.767712	3240.576403	8125.151928
30.036500	-0.000785	-0.001937	-0.006100	-0.002377	4104.041030	13925.482645	3238.477269	8113.360532
30.539500	-0.001897	-0.000228	0.000596	0.000711	4093.686500	13891.068165	3240.561444	8077.242300
31.037500	-0.002448	0.000128	0.003907	0.000469	4092.928377	13905.979411	3242.630074	8080.059624
31.540500	-0.002833	-0.000491	-0.002203	-0.001192	4096.059341	13931.992567	3240.041674	8099.460515
32.035000	0.005950	-0.000500	-0.020151	-0.002381	4120.866880	13961.551532	3230.527796	8113.407007
32.538500	0.005294	-0.000582	-0.002770	-0.002409	4119.288478	13960.213223	3240.418398	8113.734616
33.035500	0.001124	-0.000768	-0.008133	-0.002203	4108.347816	13950.356878	3237.210680	8111.309064
33.535500	0.001458	-0.000213	0.008080	-0.002785	4110.629252	13978.911703	3247.009395	8118.150030
34.035500	-0.000456	-0.000859	0.003210	-0.000239	4099.569762	13899.007839	3242.636305	8088.326200
34.536500	-0.003098	-0.001062	-0.009866	-0.000700	4094.201584	13905.447229	3235.366707	8093.712227
35.037000	0.000616	-0.001062	-0.003507	-0.000517	4102.903400	13900.861374	3238.898990	8091.565824
35.537000	-0.001035	0.000224	-0.006162	0.000079	4097.356708	13918.089599	3237.033447	8084.607933
36.037500	-0.001339	-0.001749	0.021196	-0.001265	4099.920019	13902.394161	3253.998908	8100.315617
36.534500	-0.001140	-0.001082	-0.009154	-0.000247	4097.900399	13893.630872	3235.513437	8088.409855
37.035000	0.000775	0.000997	-0.011644	0.000925	4099.732959	13916.272557	3233.441209	8074.742541
37.535500	-0.004054	-0.000561	-0.002455	0.000417	4089.124371	13890.069702	3238.966760	8080.661836
38.036000	0.000537	0.000161	0.003019	0.000152	4101.054239	13914.686010	3242.295731	8083.750395
38.536000	0.001441	-0.000149	0.006556	0.000972	4101.262447	13886.522264	3243.888091	8074.200880
39.036500	-0.003119	-0.000507	-0.013130	-0.001117	4095.175918	13929.734201	3233.754809	8098.591788
39.537000	-0.001078	-0.000296	-0.000274	-0.001074	4100.094530	13933.938462	3241.091955	8098.085680
40.037000	-0.001204	-0.000765	0.012006	-0.000136	4097.471978	13898.781062	3247.770484	8087.121470
40.537500	-0.003275	-0.000193	-0.004384	-0.000237	4092.630098	13915.566314	3238.233316	8088.296841
41.040000	0.000450	-0.002348	-0.000966	-0.002541	4107.512468	13919.308083	3241.543283	8115.285964
41.535000	-0.002185	0.000232	-0.005319	-0.000211	4095.242521	13925.562297	3237.682217	8087.999645
42.035500	-0.006919	-0.001420	0.007041	-0.001582	4087.010628	13918.512154	3245.679252	8104.032799
42.535500	-0.004495	-0.001141	-0.006733	-0.001095	4091.744551	13913.315016	3237.378308	8098.325724
43.035500	-0.004678	-0.000694	-0.009511	-0.001135	4091.393849	13925.504966	3235.815625	8098.798050
43.536500	-0.004822	-0.000421	0.007513	-0.001816	4092.708559	13949.363011	3246.097289	8106.773296
44.036000	-0.000447	-0.000592	0.003865	-0.002873	4106.109515	13971.586535	3244.566692	8119.185525
44.536000	-0.002588	0.000020	-0.007205	0.003160	4086.008476	13836.358714	3234.686608	8048.776342
45.036500	-0.004378	-0.002908	0.002944	-0.002740	4096.070508	13910.300602	3243.946928	8117.624041
45.540000	-0.000125	-0.001209	0.001373	-0.002211	4105.264877	13939.528016	3242.714972	8111.401892
46.037500	-0.001301	-0.001196	0.006585	-0.003292	4105.028952	13966.933773	3246.422835	8124.107077
46.535000	-0.003926	-0.000099	-0.008296	0.003721	4081.392887	13819.519756	3233.752709	8042.279558
47.035000	-0.001120	-0.000602	-0.023044	-0.000619	4098.867026	13914.893598	3227.949621	8092.761861
47.535500	-0.002518	-0.000951	-0.000483	0.000329	4093.099528	13882.569849	3240.157230	8081.695078
48.036000	-0.001989	0.000114	-0.005225	-0.000759	4097.073746	13936.301857	3238.050213	8094.402096
48.537000	-0.005656	-0.001892	-0.008796	0.001502	4082.579283	13830.038911	3234.724168	8068.023251
49.036500	-0.005162	-0.001549	-0.004475	-0.000570	4088.829748	13890.065252	3238.372678	8092.187802
49.536500	0.002534	0.002187	-0.006019	-0.002836	4113.441877	14040.627790	3238.787944	8118.745536
50.037000	0.002213	-0.001991	0.003629	-0.000336	4106.413525	13873.216022	3242.937891	8089.452568
50.537500	-0.005887	-0.005410	-0.010334	0.035527	4002.599993	12938.892544	3215.381365	7687.289586
51.034500	-0.022638	-0.016570	0.005121	0.157829	3735.597410	10327.568334	3165.943969	6540.673056
51.535000	0.004308	-0.005579	-0.007425	-0.018451	4157.780231	14240.733695	3247.105189	8305.570661
52.035500	-0.001641	-0.008854	0.003910	-0.018501	4142.540293	14158.090920	3253.969008	8306.186170
52.536000	-0.006967	-0.012910	0.019931	0.012293	4053.601769	13303.001593	3245.097427	7944.031565
53.036000	-0.003238	-0.009404	0.037550	0.019410	4045.630852	13218.273359	3251.372569	7863.919633
53.536000	0.008160	-0.004506	0.023346	-0.008047	4140.867027	14003.269392	3259.512134	8180.348858
54.036500	0.032687	0.007383	0.049692	-0.010313	4211.680554	14365.532798	3277.954107	8207.372572
54.537000	0.052577	0.016459	0.056053	0.013323	4201.515358	13993.080030	3266.674750	7932.361003
55.040000	0.070603	0.023684	0.098030	0.062457	4120.401799	12988.196572	3262.131106	7406.397736
55.537500	0.100386	0.036479	0.133931	0.106707	4084.614120	12295.171800	3256.925094	6981.048966
56.035000	0.134783	0.051132	0.164310	0.150820	4061.240118	11690.065494	3248.575091	6598.026075
56.535000	0.151093	0.062950	0.173170	0.195329	3996.285741	11064.960612	3228.095748	6249.053251
57.035500	0.177960	0.076394	0.192245	0.228975	3981.290424	10701.548394	3220.197589	6007.998289
57.536000	0.191115	0.084705	0.210052	0.269778	3922.500444	10151.353908	3208.258720	5739.647262
58.036500	0.216251	0.098733	0.232723	0.303766	3904.454995	9833.235278	3202.611606	5534.584557
58.536500	0.224650	0.103155	0.230575	0.330208	3868.790443	9498.808864	3188.983378	5385.781916
59.037000	0.227144	0.109366	0.253083	0.354134	3828.310197	9241.824810	3188.330856	5258.731512
59.537000	0.242373	0.116960	0.258323	0.354687	3855.813412	9342.714707	3190.496555	5255.876198
60.034500	0.239682	0.121294	0.257843	0.355579	3849.013721	9392.637380	3189.860179	5251.281323
60.534500	0.260111	0.132560	0.275193	0.373258	3854.227400	9299.950044	3189.707889	5162.095991
61.034500	0.254982	0.131026	0.272868	0.377582	3836.438678	9216.451794	3186.653821	5140.825499
61.535500	0.256687	0.132913	0.299152	0.374869	3844.704366	9281.924280	3200.321864	5154.147064
62.035500	0.280269	0.140035	0.286891	0.386364	3867.750790	9219.669420	3189.057087	5098.279428
62.536000	0.281890	0.139522	0.281958	0.386708	3870.225758	9207.555020	3186.637968	5096.634198
63.036500	0.285174	0.143138	0.305626	0.387089	3875.872156	9253.440189	3197.540532	5094.808033
63.535500	0.284415	0.141348	0.297185	0.385906	3876.701180	9244.804232	3194.079170	5100.479135
64.036500	0.286305	0.143259	0.288323	0.384580	3883.007774	9291.004252	3190.546216	5106.853671
64.540000	0.278880	0.144972	0.286862	0.384219	3869.214120	9320.784392	3190.035535	5108.593203
65.034500	0.285306	0.143592	0.296994	0.383818	3882.540666	9306.716554	3194.978211	5110.526486
65.537500	0.293235	0.149450	0.312990	0.388713	3888.533022	9320.575028	3200.319317	5087.048856
66.035500	0.298374	0.152259	0.308569	0.389534	3897.128067	9349.238124	3197.780131	5083.132568
66.535500	0.293240	0.150422	0.288426	0.389243	3887.491690	9326.922845	3188.438218	5084.519646
67.036000	0.290099	0.149651	0.298590	0.389463	3880.865967	9312.667140	3193.064281	5083.470373
67.536000	0.293754	0.151311	0.298980	0.391332	3884.382465	9309.660087	3192.369757	5074.592679
68.036000	0.292670	0.149509	0.314123	0.391053	3882.795219	9287.813928	3199.731398	5075.914662
68.536500	0.290222	0.151163	0.297070	0.398820	3862.926549	9200.892753	3188.009664	5039.393561
69.037500	0.294414	0.150292	0.299117	0.399874	3868.980714	9173.777733	3188.466242	5034.489307
69.537500	0.294347	0.152313	0.285258	0.397812	3872.850879	9231.445511	3183.112674	5044.095554
70.034500	0.301159	0.155131	0.311533	0.401584	3878.784537	9217.910624	3193.451367	5026.551600
70.535000	0.304791	0.153574	0.316898	0.401552	3885.993873	9196.364797	3196.012036	5026.703146
71.035500	0.294144	0.151323	0.324845	0.406835	3855.094173	9090.981331	3197.286956	5002.383650
71.535500	0.298968	0.152605	0.317489	0.403166	3871.426334	9160.024509	3195.523819	5019.239751
72.036000	0.290966	0.149280	0.300715	0.402387	3857.517015	9124.435032	3188.045503	5022.839619
72.536500	0.299227	0.153750	0.312714	0.406400	3865.670249	9130.811781	3191.745104	5004.376010
73.037000	0.296574	0.149879	0.295469	0.411382	3851.073609	9008.491285	3181.614748	4981.689532
73.570000	0.292803	0.152846	0.304873	0.409901	3846.745034	9069.637672	3186.510912	4988.406295
74.040000	0.296452	0.150824	0.311399	0.408837	3855.679070	9056.407822	3189.998199	4993.246659
74.537500	0.295718	0.151701	0.309521	0.413175	3846.069669	9008.893974	3187.138131	4973.591076
75.035000	0.292944	0.153536	0.310366	0.419792	3828.571370	8943.843952	3184.517954	4943.979976
75.535000	0.294843	0.152867	0.296521	0.415440	3840.177069	8993.882532	3180.284382	4963.404331
76.035500	0.297631	0.153691	0.301884	0.417363	3841.794751	8978.895956	3181.807543	4954.797300
76.536000	0.296450	0.154481	0.295968	0.424405	3826.531986	8894.428393	3176.131354	4923.604141
77.036000	0.294559	0.155827	0.299690	0.420401	3830.427102	8966.633715	3179.495114	4941.277141
77.536000	0.299971	0.156480	0.283378	0.422516	3836.541250	8946.811179	3171.569533	4931.921042
78.036500	0.301663	0.154335	0.325684	0.423850	3837.207374	8899.917275	3189.661153	4926.044220
78.539500	0.295159	0.154854	0.306273	0.422631	3827.422030	8923.311877	3181.417462	4931.417584
79.037000	0.291492	0.151235	0.308222	0.428814	3809.497237	8792.653797	3179.547857	4904.332716
79.537500	0.295632	0.152866	0.298480	0.425142	3823.678797	8862.966784	3176.898537	4920.367794
80.035000	0.294554	0.152390	0.319328	0.424277	3823.290001	8868.160919	3186.546907	4924.168814
80.535000	0.295554	0.152600	0.292030	0.425210	3823.411596	8858.514781	3174.095568	4920.070599
81.035000	0.294367	0.154519	0.312417	0.434842	3803.844811	8756.603020	3178.744163	4878.296578
81.535000	0.297618	0.152953	0.317855	0.427277	3823.405716	8835.703704	3184.519607	4911.027490
82.036000	0.303926	0.154950	0.313374	0.430865	3828.403677	8814.628003	3180.915422	4895.432911
82.536000	0.294070	0.153337	0.289221	0.428840	3814.101215	8820.073324	3171.366824	4904.217357
83.036500	0.295685	0.152811	0.319169	0.435714	3804.642016	8722.912818	3181.334285	4874.559691
83.537500	0.300952	0.155579	0.331040	0.433153	3818.766460	8792.729219	3187.843396	4885.556086
84.037000	0.295993	0.151292	0.302377	0.430879	3813.891328	8766.247327	3176.102882	4895.370673
84.535000	0.295355	0.155853	0.315718	0.440050	3796.342434	8706.088197	3177.911172	4856.088651
85.035500	0.303969	0.153836	0.317906	0.434789	3821.282536	8748.358801	3181.184163	4878.521491
85.535500	0.294715	0.153258	0.315158	0.434433	3805.197170	8745.448502	3180.127359	4880.049919
86.035500	0.300174	0.153692	0.325374	0.436027	3812.145085	8730.312712	3183.965426	4873.220562
86.536000	0.304903	0.156641	0.325350	0.442442	3809.106119	8685.310924	3181.092052	4845.980749
87.036500	0.299378	0.152453	0.321341	0.442349	3799.396865	8632.603856	3179.364685	4846.371376
87.536500	0.308392	0.153775	0.318222	0.438493	3822.597196	8699.344924	3179.688579	4862.701427
88.039500	0.302897	0.153562	0.317034	0.439855	3810.150911	8678.961055	3178.570683	4856.916501
88.537500	0.305336	0.154944	0.296115	0.443672	3807.672484	8647.589297	3168.058509	4840.801587
89.035000	0.299148	0.151345	0.323411	0.446099	3792.363226	8570.721453	3178.628762	4830.632591
89.535000	0.304835	0.152176	0.305888	0.441431	3810.803201	8640.823464	3173.089612	4850.247115
90.035000	0.298372	0.154161	0.311724	0.442348	3797.615443	8654.545450	3175.189795	4846.375828
90.535000	0.306259	0.154655	0.322216	0.445833	3805.455774	8616.212375	3178.223051	4831.743317
91.036000	0.300113	0.154327	0.301825	0.446564	3793.242103	8602.709641	3169.226670	4828.690525
91.536500	0.305550	0.153206	0.340841	0.447871	3800.553368	8571.846956	3185.601285	4823.241388
92.036500	0.306665	0.152457	0.308648	0.447262	3803.626722	8570.076423	3171.790420	4825.777066
92.537000	0.300855	0.153917	0.319735	0.449457	3789.461961	8560.773976	3175.577708	4816.650722
93.036500	0.302607	0.153616	0.318287	0.454002	3784.581048	8499.835928	3173.016660	4797.899182
93.537000	0.312894	0.151642	0.315018	0.450448	3809.078994	8519.627098	3173.137397	4812.545289
94.034000	0.310027	0.155354	0.325677	0.452681	3799.960912	8538.214890	3176.750671	4803.327171
94.534500	0.306343	0.152588	0.322465	0.451302	3795.875771	8520.787812	3175.958700	4809.013915
95.034500	0.305772	0.154036	0.317529	0.459533	3780.470414	8436.301518	3170.366583	4775.343193
95.535500	0.307260	0.154897	0.320239	0.454932	3791.093873	8504.222343	3173.450619	4794.085651
96.035500	0.310214	0.152278	0.331100	0.453628	3798.613049	8487.795266	3178.698856	4799.436332
