sample name	sample
index	1410
start time	 05-10-2021  11:37:51 AM


Wavelength (nm)	Absorbance
494.344910	0.044403
494.563924	0.044403
494.782919	0.044403
495.001897	-0.006436
495.220856	-0.011456
495.439797	-0.014902
495.658719	-0.026493
495.877624	-0.032552
496.096510	-0.021366
496.315378	-0.018240
496.534227	-0.018564
496.753059	-0.005138
496.971872	-0.006475
497.190667	0.045761
497.409444	0.064249
497.628203	0.068599
497.846943	0.073691
498.065665	0.075237
498.284369	0.077023
498.503055	0.079584
498.721723	0.079928
498.940372	0.079945
499.159003	0.079646
499.377616	0.079871
499.596210	0.082084
499.814787	0.081080
500.033345	0.081672
500.251885	0.082105
500.470406	0.081568
500.688910	0.080721
500.907395	0.081357
501.125862	0.082449
501.344311	0.081780
501.562742	0.080675
501.781154	0.081119
501.999548	0.080840
502.217924	0.080103
502.436282	0.080356
502.654621	0.081176
502.872942	0.081748
503.091245	0.080849
503.309530	0.082690
503.527797	0.082342
503.746045	0.083097
503.964275	0.082915
504.182487	0.083540
504.400681	0.083613
504.618856	0.083495
504.837013	0.082784
505.055152	0.083084
505.273273	0.081366
505.491376	0.081829
505.709460	0.082000
505.927526	0.082779
506.145574	0.082922
506.363604	0.082910
506.581615	0.082672
506.799608	0.083618
507.017583	0.084146
507.235540	0.084949
507.453478	0.084256
507.671399	0.083696
507.889301	0.083106
508.107185	0.082762
508.325050	0.082411
508.542898	0.082763
508.760727	0.082708
508.978538	0.082180
509.196330	0.081764
509.414105	0.083033
509.631861	0.083372
509.849599	0.083568
510.067319	0.083968
510.285021	0.083972
510.502704	0.084152
510.720369	0.084280
510.938016	0.084680
511.155645	0.084814
511.373255	0.084514
511.590848	0.084149
511.808422	0.083847
512.025977	0.083642
512.243515	0.084351
512.461034	0.084786
512.678536	0.084775
512.896018	0.085039
513.113483	0.085841
513.330930	0.085657
513.548358	0.085571
513.765768	0.086330
513.983160	0.086578
514.200533	0.085457
514.417889	0.085123
514.635226	0.085234
514.852545	0.085879
515.069845	0.085809
515.287128	0.085579
515.504392	0.086358
515.721638	0.086305
515.938866	0.086642
516.156075	0.087730
516.373267	0.087474
516.590440	0.087136
516.807594	0.087043
517.024731	0.086669
517.241850	0.087428
517.458950	0.086927
517.676032	0.086295
517.893095	0.085686
518.110141	0.085581
518.327168	0.085734
518.544177	0.085881
518.761168	0.085718
518.978141	0.086165
519.195095	0.086365
519.412031	0.086536
519.628949	0.086363
519.845849	0.087268
520.062731	0.088156
520.279594	0.089100
520.496439	0.089588
520.713266	0.089287
520.930074	0.089238
521.146865	0.089639
521.363637	0.090085
521.580391	0.091585
521.797127	0.091086
522.013844	0.090066
522.230543	0.089456
522.447224	0.089274
522.663887	0.089995
522.880532	0.089952
523.097158	0.089999
523.313766	0.090217
523.530356	0.089247
523.746928	0.089901
523.963481	0.091116
524.180017	0.091579
524.396534	0.092128
524.613032	0.091673
524.829513	0.092138
525.045975	0.092416
525.262420	0.093043
525.478845	0.094146
525.695253	0.094104
525.911643	0.093593
526.128014	0.093623
526.344367	0.093694
526.560702	0.094255
526.777018	0.094244
526.993316	0.093844
527.209597	0.093409
527.425858	0.093531
527.642102	0.093590
527.858328	0.093884
528.074535	0.094000
528.290724	0.094724
528.506894	0.095206
528.723047	0.095585
528.939181	0.096007
529.155297	0.096154
529.371395	0.095724
529.587475	0.096473
529.803536	0.096555
530.019579	0.096723
530.235604	0.096369
530.451611	0.096225
530.667600	0.096126
530.883570	0.096226
531.099522	0.096374
531.315456	0.096948
531.531372	0.096512
531.747269	0.096954
531.963148	0.096904
532.179009	0.096709
532.394852	0.096618
532.610676	0.097064
532.826482	0.097915
533.042271	0.098422
533.258040	0.098365
533.473792	0.098375
533.689525	0.098563
533.905240	0.098811
534.120937	0.099147
534.336616	0.099632
534.552277	0.099532
534.767919	0.099454
534.983543	0.099052
535.199149	0.099698
535.414736	0.100813
535.630306	0.100795
535.845857	0.101242
536.061390	0.101610
536.276904	0.101698
536.492401	0.101679
536.707879	0.101602
536.923339	0.102254
537.138781	0.101418
537.354204	0.101024
537.569610	0.101199
537.784997	0.101310
538.000366	0.101517
538.215716	0.101676
538.431049	0.102365
538.646363	0.102540
538.861659	0.102769
539.076937	0.103262
539.292196	0.103301
539.507438	0.103479
539.722661	0.103726
539.937866	0.103930
540.153052	0.103949
540.368221	0.103923
540.583371	0.103900
540.798503	0.103813
541.013617	0.103742
541.228712	0.104062
541.443789	0.104352
541.658848	0.104342
541.873889	0.104000
542.088912	0.104257
542.303916	0.104237
542.518902	0.103601
542.733870	0.103510
542.948820	0.104149
543.163752	0.104298
543.378665	0.104036
543.593560	0.103978
543.808437	0.104241
544.023295	0.104296
544.238136	0.104792
544.452958	0.105788
544.667762	0.106217
544.882548	0.106210
545.097315	0.106290
545.312064	0.106549
545.526795	0.106816
545.741508	0.106961
545.956203	0.107095
546.170879	0.106518
546.385537	0.106463
546.600177	0.106635
546.814799	0.106699
547.029402	0.106563
547.243988	0.107185
547.458555	0.107413
547.673103	0.107377
547.887634	0.107747
548.102146	0.108072
548.316640	0.107986
548.531116	0.107522
548.745574	0.108050
548.960013	0.108202
549.174435	0.107453
549.388838	0.107514
549.603222	0.108360
549.817589	0.108198
550.031937	0.108699
550.246267	0.108947
550.460579	0.109342
550.674873	0.108938
550.889148	0.109270
551.103405	0.110155
551.317644	0.110145
551.531865	0.109893
551.746068	0.109885
551.960252	0.110149
552.174418	0.110402
552.388566	0.110712
552.602696	0.111026
552.816807	0.110887
553.030900	0.110775
553.244975	0.111612
553.459032	0.111577
553.673070	0.112100
553.887091	0.111868
554.101093	0.112212
554.315077	0.112578
554.529042	0.112476
554.742990	0.112555
554.956919	0.112858
555.170830	0.112268
555.384722	0.112569
555.598597	0.112614
555.812453	0.112918
556.026291	0.112504
556.240111	0.112319
556.453913	0.112778
556.667696	0.112984
556.881461	0.112915
557.095208	0.113232
557.308937	0.113374
557.522647	0.113458
557.736339	0.113446
557.950013	0.114245
558.163669	0.114442
558.377307	0.114724
558.590926	0.114891
558.804527	0.114743
559.018110	0.115067
559.231675	0.115229
559.445221	0.115355
559.658749	0.115538
559.872259	0.115233
560.085751	0.115246
560.299225	0.115258
560.512680	0.115277
560.726117	0.115523
560.939536	0.115324
561.152937	0.115251
561.366319	0.115606
561.579683	0.115657
561.793029	0.115768
562.006357	0.116021
562.219667	0.115811
562.432958	0.115971
562.646231	0.116080
562.859486	0.116336
563.072723	0.116362
563.285941	0.116164
563.499141	0.116329
563.712323	0.116637
563.925487	0.116833
564.138632	0.117205
564.351760	0.117517
564.564869	0.117160
564.777960	0.117477
564.991032	0.117745
565.204087	0.118075
565.417123	0.118012
565.630141	0.118001
565.843140	0.117887
566.056122	0.117929
566.269085	0.118044
566.482030	0.118580
566.694957	0.118132
566.907866	0.118228
567.120756	0.117936
567.333628	0.118187
567.546482	0.118442
567.759318	0.118705
567.972135	0.118785
568.184935	0.118532
568.397716	0.118538
568.610478	0.119115
568.823223	0.119303
569.035949	0.119426
569.248657	0.119505
569.461347	0.119365
569.674019	0.119241
569.886672	0.119426
570.099308	0.119887
570.311925	0.120224
570.524523	0.120109
570.737104	0.120225
570.949666	0.121024
571.162210	0.120880
571.374736	0.120959
571.587244	0.121152
571.799733	0.121221
572.012205	0.121307
572.224658	0.121674
572.437092	0.122172
572.649509	0.122086
572.861907	0.121681
573.074287	0.122285
573.286649	0.122699
573.498993	0.122629
573.711318	0.122698
573.923625	0.122871
574.135914	0.122799
574.348185	0.122686
574.560438	0.123134
574.772672	0.123111
574.984888	0.123233
575.197086	0.123235
575.409266	0.123648
575.621427	0.123863
575.833570	0.124232
576.045695	0.124096
576.257802	0.124119
576.469890	0.124303
576.681961	0.124487
576.894013	0.124402
577.106046	0.124407
577.318062	0.124435
577.530059	0.124294
577.742039	0.124022
577.954000	0.124421
578.165942	0.124539
578.377867	0.124396
578.589773	0.124851
578.801661	0.125024
579.013531	0.125146
579.225382	0.125411
579.437216	0.125637
579.649031	0.125720
579.860828	0.125713
580.072606	0.125774
580.284367	0.125695
580.496109	0.125384
580.707833	0.125600
580.919539	0.125690
581.131227	0.125533
581.342896	0.125766
581.554547	0.126276
581.766180	0.126543
581.977795	0.126771
582.189391	0.127410
582.400969	0.127555
582.612529	0.127575
582.824071	0.127560
583.035595	0.127923
583.247100	0.128020
583.458587	0.127889
583.670056	0.128120
583.881506	0.128133
584.092939	0.127975
584.304353	0.128341
584.515749	0.128620
584.727127	0.128912
584.938486	0.128830
585.149828	0.128716
585.361151	0.128720
585.572456	0.128763
585.783742	0.128945
585.995011	0.129201
586.206261	0.129212
586.417493	0.129231
586.628706	0.129199
586.839902	0.129417
587.051079	0.129414
587.262238	0.129651
587.473379	0.129784
587.684502	0.129594
587.895606	0.129508
588.106692	0.129561
588.317760	0.129684
588.528810	0.130175
588.739841	0.130443
588.950855	0.130834
589.161850	0.130983
589.372827	0.130717
589.583785	0.131202
589.794726	0.131409
590.005648	0.131707
590.216552	0.131592
590.427437	0.131421
590.638305	0.131276
590.849154	0.131427
591.059985	0.131409
591.270798	0.131722
591.481592	0.131888
591.692369	0.132024
591.903127	0.132301
592.113867	0.132577
592.324588	0.132973
592.535292	0.133344
592.745977	0.133368
592.956644	0.133441
593.167293	0.133393
593.377923	0.133269
593.588536	0.133267
593.799130	0.133288
594.009706	0.133283
594.220263	0.133128
594.430803	0.133048
594.641324	0.133387
594.851827	0.133249
595.062312	0.133214
595.272778	0.133489
595.483227	0.133523
595.693657	0.133416
595.904069	0.133230
596.114462	0.133465
596.324838	0.133490
596.535195	0.133451
596.745534	0.133836
596.955855	0.134297
597.166157	0.134164
597.376441	0.134169
597.586707	0.134222
597.796955	0.134389
598.007185	0.134689
598.217396	0.134897
598.427589	0.134758
598.637764	0.134636
598.847921	0.134734
599.058060	0.134850
599.268180	0.135396
599.478282	0.135443
599.688366	0.135830
599.898431	0.136023
600.108479	0.136192
600.318508	0.136490
600.528519	0.136736
600.738511	0.136701
600.948486	0.136652
601.158442	0.136396
601.368380	0.136531
601.578300	0.136617
601.788202	0.136280
601.998085	0.136218
602.207950	0.136397
602.417797	0.136465
602.627626	0.136680
602.837436	0.137081
603.047228	0.137108
603.257002	0.137299
603.466758	0.137244
603.676496	0.137621
603.886215	0.137767
604.095916	0.137790
604.305599	0.137836
604.515264	0.138044
604.724910	0.138006
604.934538	0.138127
605.144148	0.138015
605.353740	0.138419
605.563314	0.138301
605.772869	0.138393
605.982406	0.138436
606.191925	0.138814
606.401425	0.138589
606.610908	0.138639
606.820372	0.138365
607.029818	0.138697
607.239246	0.138648
607.448655	0.138707
607.658047	0.138710
607.867420	0.138717
608.076775	0.138582
608.286111	0.138621
608.495430	0.138782
608.704730	0.139128
608.914012	0.139281
609.123275	0.139290
609.332521	0.139314
609.541748	0.139486
609.750957	0.139755
609.960148	0.139727
610.169321	0.139918
610.378475	0.140131
610.587611	0.140588
610.796729	0.140861
611.005829	0.140935
611.214910	0.141053
611.423974	0.141309
611.633019	0.141328
611.842045	0.141704
612.051054	0.141619
612.260044	0.141689
612.469017	0.141503
612.677970	0.141386
612.886906	0.141279
613.095824	0.141437
613.304723	0.141451
613.513604	0.141387
613.722467	0.141350
613.931311	0.141722
614.140138	0.141650
614.348946	0.141723
614.557736	0.141723
614.766507	0.142008
614.975261	0.142056
615.183996	0.141987
615.392713	0.141876
615.601412	0.142059
615.810092	0.142154
616.018754	0.142445
616.227399	0.142758
616.436024	0.142647
616.644632	0.143092
616.853222	0.143269
617.061793	0.143318
617.270346	0.143815
617.478880	0.143613
617.687397	0.143684
617.895895	0.143777
618.104375	0.143567
618.312837	0.143785
618.521281	0.143492
618.729706	0.143500
618.938113	0.143720
619.146502	0.143317
619.354873	0.143566
619.563226	0.143278
619.771560	0.143044
619.979876	0.143359
620.188174	0.143495
620.396453	0.143684
620.604715	0.143754
620.812958	0.143903
621.021183	0.144243
621.229390	0.144330
621.437578	0.144503
621.645748	0.144722
621.853900	0.144729
622.062034	0.144750
622.270150	0.144771
622.478247	0.145029
622.686326	0.144997
622.894387	0.145356
623.102430	0.145675
623.310454	0.145846
623.518461	0.146147
623.726449	0.146340
623.934418	0.146600
624.142370	0.146853
624.350303	0.146847
624.558218	0.147080
624.766115	0.147127
624.973994	0.147083
625.181855	0.147039
625.389697	0.147108
625.597521	0.147116
625.805327	0.147053
626.013114	0.147093
626.220883	0.147036
626.428634	0.147165
626.636367	0.147098
626.844082	0.147190
627.051778	0.147401
627.259457	0.147150
627.467117	0.147369
627.674758	0.147557
627.882382	0.147492
628.089987	0.147715
628.297574	0.147632
628.505143	0.147823
628.712694	0.147756
628.920226	0.147902
629.127740	0.148098
629.335236	0.148004
629.542714	0.147895
629.750174	0.148010
629.957615	0.147985
630.165038	0.148100
630.372443	0.148015
630.579829	0.147958
630.787198	0.148058
630.994548	0.148421
631.201880	0.148571
631.409194	0.148672
631.616489	0.148700
631.823766	0.148902
632.031025	0.149097
632.238266	0.149394
632.445489	0.150009
632.652693	0.150213
632.859879	0.150156
633.067047	0.150299
633.274197	0.150539
633.481329	0.150865
633.688442	0.151197
633.895537	0.151362
634.102614	0.151509
634.309672	0.151257
634.516713	0.151351
634.723735	0.151470
634.930739	0.151543
635.137724	0.151473
635.344692	0.151249
635.551641	0.151102
635.758572	0.151052
635.965485	0.151082
636.172379	0.151272
636.379256	0.151322
636.586114	0.151548
636.792954	0.151634
636.999775	0.151935
637.206579	0.152193
637.413364	0.152336
637.620131	0.152271
637.826880	0.152270
638.033610	0.152173
638.240323	0.152250
638.447017	0.152070
638.653692	0.152241
638.860350	0.152320
639.066990	0.152405
639.273611	0.152305
639.480214	0.152556
639.686798	0.152736
639.893365	0.153051
640.099913	0.153252
640.306443	0.153493
640.512955	0.153474
640.719449	0.153724
640.925924	0.153990
641.132381	0.154279
641.338820	0.154480
641.545241	0.154537
641.751644	0.154555
641.958028	0.154481
642.164394	0.154632
642.370742	0.154969
642.577071	0.154864
642.783383	0.154916
642.989676	0.155241
643.195951	0.155152
643.402207	0.155501
643.608446	0.155634
643.814666	0.156007
644.020868	0.156180
644.227052	0.156177
644.433218	0.156239
644.639365	0.156244
644.845494	0.156297
645.051605	0.156420
645.257698	0.156282
645.463772	0.156471
645.669828	0.156665
645.875866	0.156603
646.081886	0.156824
646.287888	0.156929
646.493871	0.157133
646.699836	0.156939
646.905783	0.157019
647.111712	0.157157
647.317622	0.157199
647.523514	0.156969
647.729388	0.157028
647.935244	0.157033
648.141082	0.157112
648.346901	0.157024
648.552702	0.157351
648.758485	0.157736
648.964250	0.157905
649.169996	0.158094
649.375724	0.158150
649.581434	0.158340
649.787126	0.158385
649.992800	0.158541
650.198455	0.158725
650.404092	0.158678
650.609711	0.158453
650.815311	0.158331
651.020894	0.158539
651.226458	0.158832
651.432004	0.158887
651.637532	0.158923
651.843041	0.159225
652.048532	0.159294
652.254006	0.159594
652.459460	0.159976
652.664897	0.160426
652.870315	0.160329
653.075716	0.160558
653.281097	0.160796
653.486461	0.161023
653.691807	0.160797
653.897134	0.161112
654.102443	0.161056
654.307734	0.161044
654.513006	0.160989
654.718261	0.160982
654.923497	0.160794
655.128715	0.160832
655.333915	0.160694
655.539096	0.161067
655.744259	0.161224
655.949404	0.161279
656.154531	0.161191
656.359640	0.161315
656.564730	0.161388
656.769802	0.161473
656.974856	0.161293
657.179892	0.161550
657.384909	0.161378
657.589908	0.161136
657.794889	0.161208
657.999852	0.161487
658.204797	0.161543
658.409723	0.161784
658.614631	0.162021
658.819521	0.162244
659.024393	0.162276
659.229246	0.162420
659.434081	0.162746
659.638898	0.162829
659.843697	0.163019
660.048478	0.162904
660.253240	0.163069
660.457984	0.163250
660.662710	0.163463
660.867417	0.163669
661.072107	0.164005
661.276778	0.164306
661.481431	0.164535
661.686066	0.164831
661.890682	0.165427
662.095281	0.165386
662.299861	0.165464
662.504422	0.165645
662.708966	0.165936
662.913491	0.166175
663.117999	0.166286
663.322488	0.166546
663.526958	0.166426
663.731411	0.166547
663.935845	0.166886
664.140261	0.167088
664.344659	0.167257
664.549038	0.167252
664.753400	0.167094
664.957743	0.167007
665.162068	0.167271
665.366375	0.167533
665.570663	0.167369
665.774933	0.167844
665.979185	0.168006
666.183419	0.168016
666.387635	0.168159
666.591832	0.168402
666.796011	0.168779
667.000172	0.168713
667.204315	0.168655
667.408439	0.169027
667.612545	0.168684
667.816634	0.168669
668.020703	0.168818
668.224755	0.168982
668.428788	0.169262
668.632803	0.169188
668.836800	0.169202
669.040779	0.169476
669.244739	0.169543
669.448681	0.169784
669.652605	0.169846
669.856511	0.170101
670.060399	0.170105
670.264268	0.170351
670.468119	0.170435
670.671952	0.170618
670.875767	0.170712
671.079563	0.170676
671.283341	0.170571
671.487101	0.170789
671.690843	0.170867
671.894567	0.171189
672.098272	0.171058
672.301959	0.171210
672.505628	0.171367
672.709278	0.171498
672.912911	0.171751
673.116525	0.171966
673.320121	0.172288
673.523699	0.172334
673.727258	0.172439
673.930799	0.172587
674.134322	0.172766
674.337827	0.172895
674.541314	0.172854
674.744782	0.172828
674.948232	0.173002
675.151664	0.173002
675.355078	0.173388
675.558474	0.173434
675.761851	0.173615
675.965210	0.173924
676.168551	0.173996
676.371873	0.174275
676.575178	0.174752
676.778464	0.174842
676.981732	0.174754
677.184981	0.174677
677.388213	0.174842
677.591426	0.174952
677.794621	0.174971
677.997798	0.175022
678.200956	0.175088
678.404097	0.174956
678.607219	0.175191
678.810323	0.175476
679.013408	0.175465
679.216476	0.175511
679.419525	0.175457
679.622556	0.175459
679.825569	0.175455
680.028563	0.175435
680.231540	0.175459
680.434498	0.175315
680.637438	0.175312
680.840359	0.175490
681.043263	0.175802
681.246148	0.175989
681.449015	0.176144
681.651864	0.176386
681.854694	0.176687
682.057506	0.176844
682.260301	0.177243
682.463076	0.177521
682.665834	0.177688
682.868573	0.177645
683.071295	0.177812
683.273998	0.178010
683.476682	0.178034
683.679349	0.178286
683.881997	0.178498
684.084627	0.178594
684.287239	0.178590
684.489833	0.178490
684.692408	0.178559
684.894965	0.178503
685.097504	0.178592
685.300025	0.179130
685.502527	0.178973
685.705012	0.178857
685.907478	0.178930
686.109925	0.179072
686.312355	0.179529
686.514766	0.179547
686.717159	0.179759
686.919534	0.179770
687.121891	0.179523
687.324230	0.179707
687.526550	0.180023
687.728852	0.180030
687.931136	0.180213
688.133401	0.180343
688.335649	0.180558
688.537878	0.180825
688.740089	0.181018
688.942281	0.181410
689.144456	0.181615
689.346612	0.181659
689.548750	0.181797
689.750870	0.182069
689.952971	0.182067
690.155055	0.182293
690.357120	0.182383
690.559167	0.182399
690.761195	0.182429
690.963206	0.182584
691.165198	0.182688
691.367172	0.182902
691.569128	0.182658
691.771065	0.182828
691.972984	0.182821
692.174885	0.183146
692.376768	0.183349
692.578633	0.183327
692.780479	0.183345
692.982308	0.183576
693.184118	0.183732
693.385909	0.183939
