sample name	sample
index	1153
start time	 04-22-2021  03:37:50 PM
880	0.064480
Peak Time (s)	101.037
Peak Height 	0.06448
calc peak height	100,103
Baseline Time (s)	10.036
Baseline Value 	-0.00254
subtract baseline	10,4
Abs	0.024470
Peak Time (s)	102.037
Peak Height 	0.02447
calc peak height	100,103
Baseline Time (s)	8.536
Baseline Value 	0.001977
subtract baseline	10,3
PK_550	0.030468
Peak Time (s)	100.535
Peak Height 	0.03047
calc peak height	100,103
Baseline Time (s)	10.036
Baseline Value 	8.7339E-4
subtract baseline	10,2
PK_880	0.026200
Peak Time (s)	102.037
Peak Height 	0.0262
calc peak height	100,103
Baseline Time (s)	11.54
Baseline Value 	1.8226E-4
subtract baseline	10,1


Time (s)	A880-A510	A880-A775	A880-A975	A880	I510	I775	I975	I880	
0.036000	-0.000954	0.000178	-0.005940	0.002002	6249.779941	43133.059000	3904.149648	22668.548155
0.536500	-0.003591	-0.000714	-0.002289	0.006779	6193.938558	42612.791212	3901.609567	22452.858203
1.036500	-0.002442	-0.000603	-0.007903	0.002940	6231.400590	42974.546533	3897.618899	22625.990505
1.540000	0.001135	0.000959	-0.000492	0.002258	6263.730615	43181.641112	3915.946502	22656.933424
2.037500	0.002426	-0.000209	-0.006057	0.000872	6284.220597	43201.851230	3906.441266	22719.923556
2.537500	-0.001873	-0.000273	-0.007234	0.006795	6206.676502	42651.537285	3890.499112	22452.143068
3.037500	0.003553	0.000072	-0.001753	-0.000662	6304.701240	43370.136124	3919.746339	22789.855357
3.535500	-0.003225	-0.001314	-0.002800	-0.000187	6249.159816	43197.584970	3916.260121	22768.188312
4.035500	-0.000664	-0.000522	-0.002645	0.000543	6263.096804	43203.306855	3914.948380	22734.923713
4.535500	-0.000858	0.000214	-0.004487	0.002473	6246.934261	43093.022774	3906.370414	22647.199965
5.036000	0.002786	0.000602	0.000130	0.001361	6283.226054	43231.555966	3919.423202	22697.654353
5.536500	0.002965	-0.000510	-0.006637	-0.000068	6295.588246	43260.993512	3907.256906	22762.769106
6.037000	0.001279	-0.000507	0.001454	0.000189	6280.654147	43237.465701	3925.167007	22751.037269
6.537000	0.000213	0.000610	-0.002078	0.000449	6270.506392	43316.942907	3916.458767	22739.206049
7.040000	0.002525	0.000255	-0.002251	0.000082	6291.046967	43318.063045	3916.900249	22755.930272
7.534500	-0.001444	-0.000844	-0.002508	-0.000450	6264.720909	43265.413967	3917.530307	22780.197580
8.035000	0.001870	-0.000171	-0.001226	-0.000065	6287.141476	43292.144499	3919.585407	22762.629773
8.535500	-0.000179	-0.000500	0.000000	-0.000273	6273.024345	43280.900571	3922.880502	22772.103637
9.035500	0.000969	0.000247	0.000582	0.000042	6279.409498	43320.973766	3923.494775	22757.738512
9.535500	0.000887	0.000254	0.001992	0.000017	6278.970504	43324.001802	3926.805121	22758.881002
10.036000	0.001939	0.000000	-0.000020	0.000000	6287.171418	43301.976491	3922.207237	22759.655099
10.537000	-0.000864	-0.000187	-0.001191	-0.000487	6269.434129	43329.891505	3920.635086	22781.895272
11.036500	-0.000242	-0.000320	-0.002103	-0.000392	6273.456719	43308.626362	3918.323552	22777.527624
11.539500	0.000000	0.000276	0.003105	0.000133	6271.289466	43315.196233	3929.111697	22753.568433
12.037500	-0.000389	-0.000348	0.000963	-0.000592	6273.866117	43324.609698	3925.835917	22786.688199
12.534500	0.000341	-0.000556	-0.005162	-0.000051	6275.310968	43255.115932	3910.566115	22761.984393
13.035500	0.001321	-0.000001	-0.001681	0.000084	6281.784464	43294.145454	3918.200646	22755.835855
13.537000	0.000755	-0.000597	-0.004153	-0.000584	6282.566550	43300.831086	3914.077518	22786.329788
14.036000	0.000435	-0.000052	-0.006452	0.002030	6260.130024	43109.281980	3902.930999	22667.281369
14.536500	-0.001711	0.000024	-0.004579	0.002115	6243.178132	43108.398490	3906.973206	22663.412702
15.036500	-0.000064	0.000866	0.000805	0.001065	6263.688421	43283.497556	3921.655156	22711.135255
15.537000	-0.000017	0.000020	-0.004430	0.000082	6271.558001	43296.267441	3911.929704	22755.935358
16.037000	0.001433	0.000291	-0.000758	0.000116	6282.396140	43318.251846	3920.244850	22754.374386
16.537500	-0.001140	-0.000202	-0.002264	0.001511	6252.094480	43143.335355	3913.605757	22690.849391
17.034000	0.003351	-0.000159	-0.001545	-0.002357	6316.252343	43506.415784	3924.121236	22867.455463
17.535000	0.000084	0.000033	-0.003044	0.000582	6268.507029	43251.144803	3913.947226	22733.142846
18.035500	0.001442	0.000135	-0.005344	0.001018	6275.555738	43220.136969	3907.724983	22713.273417
18.535500	0.000712	-0.000181	-0.004316	0.001170	6268.803381	43176.810077	3909.712312	22706.340403
19.035500	0.000893	-0.000392	-0.003153	0.000693	6273.838745	43201.424921	3913.444378	22728.082259
19.536500	0.001524	0.000434	0.000615	0.001078	6275.720219	43242.271924	3921.187837	22710.528651
20.036000	-0.000340	0.000126	-0.003430	0.000568	6265.368506	43260.980219	3913.096728	22733.747648
20.536500	0.000795	0.000153	0.001450	0.000933	6271.253645	43229.741780	3923.443168	22717.159444
21.040000	-0.001658	-0.000478	0.000736	0.000476	6256.024626	43213.490907	3922.849844	22737.938271
21.537500	0.000189	-0.000376	-0.001774	0.000472	6270.144672	43223.313743	3917.099119	22738.128349
22.035000	-0.000266	-0.000745	-0.008581	0.000137	6269.226960	43220.204499	3902.398836	22753.409639
22.535500	0.000666	0.000141	-0.000128	0.000976	6269.941653	43224.599190	3919.715836	22715.175898
23.037500	0.003023	-0.000238	-0.002321	0.001068	6287.294050	43180.994617	3914.487136	22711.002780
23.535500	-0.000031	-0.000435	0.000382	0.000692	6266.786133	43197.509658	3921.539756	22728.118568
24.036500	-0.003098	-0.001164	-0.001554	0.000065	6248.207270	43188.112801	3918.536331	22756.690652
24.536500	0.000222	0.000085	-0.003947	0.000871	6267.352749	43229.120225	3911.232391	22719.988530
25.036500	0.000043	0.000025	-0.000368	0.000779	6266.680794	43232.058448	3919.616513	22724.141309
25.537000	-0.000614	-0.000179	-0.001198	0.000720	6262.119208	43218.650618	3917.849468	22726.840746
26.037500	-0.001153	-0.000330	-0.000466	0.000671	6258.388030	43209.203809	3919.641008	22729.090082
26.534500	-0.000252	0.000578	0.003567	0.000972	6262.965328	43265.489828	3928.241438	22715.389560
27.035000	0.003855	0.000182	-0.000829	-0.001176	6311.019791	43428.217248	3923.051348	22813.389147
27.538500	0.001092	-0.000330	-0.001915	-0.001517	6292.324472	43412.262568	3921.337356	22828.957826
28.035000	0.000145	-0.000197	0.000530	-0.000401	6276.492472	43320.891642	3924.397947	22777.963824
28.538500	0.001126	0.001172	0.005786	0.000427	6277.664145	43371.181389	3934.656476	22740.192060
29.036000	0.000992	0.000190	0.001002	0.000684	6274.663817	43256.194998	3922.983578	22728.484800
29.536000	0.002877	0.001745	0.006938	0.001085	6286.045004	43363.220218	3935.807062	22710.223932
30.036500	0.000957	-0.000096	0.003727	-0.000313	6282.037336	43322.103992	3931.590015	22773.940571
30.540000	0.000410	-0.000024	-0.004909	0.003420	6249.368665	42983.753087	3903.275860	22604.286822
31.037500	-0.001292	-0.000840	-0.005670	0.001425	6251.591502	43092.411546	3906.065455	22694.758613
31.535000	-0.000764	0.000016	0.000179	-0.000194	6267.949257	43321.478829	3923.110254	22768.495497
32.035000	0.002269	-0.000404	-0.000361	-0.000506	6293.600396	43311.414895	3922.586060	22782.731333
32.535500	-0.000224	0.000030	-0.002423	0.000769	6264.723725	43233.462364	3914.938309	22724.622114
33.036000	0.002612	-0.000515	0.004345	0.000076	6291.760771	43247.158422	3932.120079	22756.173927
33.536000	0.004154	0.000557	-0.001688	-0.001826	6318.359169	43523.655837	3922.569604	22843.104836
34.036500	0.001583	-0.000403	-0.001749	0.000975	6276.961062	43174.340571	3916.005047	22715.221648
34.536500	-0.000779	-0.000085	-0.001624	0.001256	6256.780575	43177.716474	3915.650116	22702.432692
35.036500	0.001127	-0.000378	0.001684	0.000720	6275.427869	43200.259244	3924.472483	22726.855273
35.540000	-0.000348	-0.000883	0.001078	0.000274	6267.551173	43194.728687	3924.103729	22747.149530
36.038000	-0.000857	-0.000035	-0.003814	0.000964	6258.413870	43209.429415	3911.323073	22715.741892
36.534000	-0.001295	-0.000369	0.002047	0.000492	6258.672376	43222.131698	3925.836588	22737.222442
37.035000	-0.000235	-0.000039	-0.002467	0.000779	6264.563741	43226.186744	3914.814267	22724.157249
37.535000	-0.000389	-0.000695	0.002982	0.000558	6265.076304	43185.905558	3927.842921	22734.218829
38.035500	-0.002422	0.000173	-0.000932	0.001334	6243.706061	43194.370787	3917.052918	22698.900294
38.536000	0.000224	0.000724	-0.002071	0.001890	6259.589545	43193.930122	3913.182539	22673.620741
39.036500	-0.001345	0.000238	-0.005826	0.001587	6249.955242	43176.967128	3905.345386	22687.383265
39.536500	0.000835	0.000644	-0.001011	0.001700	6265.703396	43204.100330	3916.035997	22682.268381
40.039500	-0.000645	-0.000320	-0.000816	0.001645	6254.840305	43120.126900	3916.608131	22684.771844
40.534500	-0.000993	-0.000237	0.001802	0.001439	6253.763646	43146.809403	3923.086809	22694.120359
41.035000	-0.000894	0.000285	-0.003994	0.002049	6249.876485	43138.633191	3908.448580	22666.404370
41.535000	-0.000224	-0.000017	0.001539	0.002173	6254.029365	43099.350359	3920.796775	22660.804711
42.035500	0.000264	-0.000042	-0.001344	0.001635	6261.837629	43146.634848	3915.422911	22685.205181
42.535500	0.001444	0.000037	-0.001318	0.001719	6270.209398	43146.179004	3915.290159	22681.401579
43.036000	-0.000676	-0.000097	-0.000634	0.002007	6251.852478	43107.245228	3916.195810	22668.325502
43.536000	0.001098	0.000011	0.001864	0.001757	6267.272361	43140.348628	3922.498373	22679.678773
44.036500	0.000257	0.000295	-0.000825	0.000080	6273.658799	43321.879759	3920.172793	22755.995489
44.536500	0.001817	0.000191	0.005193	0.000748	6280.495595	43250.325730	3932.529250	22725.548000
45.037000	-0.000446	0.000483	-0.003029	0.003084	6245.421770	43061.428395	3908.289904	22619.489872
45.535000	0.001041	-0.000092	-0.001609	0.000365	6277.489090	43259.668149	3917.722946	22743.028966
46.035000	-0.001469	-0.000101	-0.001647	0.000114	6260.218860	43281.974584	3918.208530	22754.438336
46.535000	0.002043	0.001434	-0.002017	0.001523	6276.289256	43293.679026	3914.142207	22690.298343
47.035500	-0.000435	0.000473	-0.003354	0.003196	6244.657717	43050.116937	3907.300181	22614.420653
47.536000	-0.000933	0.000513	-0.002213	0.002722	6244.468137	43097.557158	3910.964924	22635.875395
48.035500	0.002551	0.000155	0.000104	0.000849	6285.359659	43237.684825	3920.541323	22720.991504
48.536000	0.001434	0.001108	0.005731	0.001039	6275.330534	43308.406249	3933.103105	22712.324373
49.036500	-0.001315	-0.000406	-0.005308	0.002017	6246.920131	43077.734548	3905.543137	22667.848089
49.536500	0.002894	0.000130	0.003676	-0.003144	6318.807897	43606.838429	3938.062840	22903.569158
50.036500	0.001948	-0.000248	0.003013	0.000669	6282.106261	43216.940529	3927.657650	22729.151481
50.537500	-0.000217	0.000069	0.005840	0.028794	6057.677063	40723.238953	3870.824289	21488.929058
51.035000	0.020438	-0.018332	-0.014678	0.552464	3926.415915	13834.604386	3193.918462	8502.178997
51.535000	0.008826	-0.017196	-0.015983	0.011864	6249.156851	40694.168096	3860.208884	22225.860249
52.035500	-0.004744	-0.078021	-0.030402	-0.255063	8861.790565	63580.587565	4599.060923	38589.431174
52.535500	0.002319	-0.084639	-0.013329	-0.270972	9182.863041	64890.358485	4731.287944	39919.151462
53.036000	0.000096	-0.085094	-0.014366	-0.271960	9165.167107	64966.284776	4731.080879	40003.352558
53.539500	-0.006176	-0.077941	-0.016010	-0.263592	8959.174080	64793.346515	4689.884782	39296.280628
54.039000	-0.010539	-0.057773	-0.015645	-0.235901	8531.681333	63732.326472	4582.153386	37051.225186
54.536500	-0.008457	-0.053652	-0.015393	-0.232364	8513.010867	63813.959835	4569.652299	36774.592392
55.037500	-0.006274	-0.046445	-0.016954	-0.221960	8408.719803	63368.097434	4524.915054	35973.983276
55.534500	-0.008909	-0.041646	-0.016785	-0.211590	8247.703636	62598.694647	4487.732021	35194.808022
56.035500	-0.005453	-0.028754	-0.015983	-0.184092	7962.431932	60627.914827	4394.458762	33216.499277
56.535500	-0.006572	-0.019041	-0.013870	-0.152182	7595.408707	57756.967884	4296.901892	31072.432270
57.036000	-0.005151	-0.012583	-0.015486	-0.125302	7330.959256	55242.247792	4209.665829	29384.684762
57.535500	0.001239	-0.010560	-0.012494	-0.100479	7148.941138	52570.890100	4146.600895	27916.182653
58.036000	-0.003537	-0.007289	-0.016276	-0.073291	6851.041374	49915.237898	4062.398982	26401.180317
58.536500	-0.001373	-0.002864	-0.016211	-0.038006	6564.646715	46697.893771	3973.664720	24571.266080
59.037000	-0.001412	-0.002609	-0.007292	-0.027065	6474.426437	45636.055167	3968.786355	24033.405986
59.537000	-0.002554	-0.001550	-0.010132	-0.014957	6368.536417	44565.166200	3933.412437	23453.732438
60.034500	0.000571	-0.000310	-0.006729	-0.025553	6478.243141	45713.398557	3966.506305	23960.141252
60.535000	-0.004123	-0.000098	-0.016158	0.008483	6177.284303	42513.715829	3867.150234	22376.487910
61.035000	-0.000967	0.001548	-0.009074	0.020910	6109.138239	41545.084182	3855.609572	21828.528216
61.535500	0.004771	0.004113	-0.005861	0.020112	6157.027035	41844.673651	3864.260335	21863.235815
62.036000	-0.004238	0.005712	-0.005901	0.035486	5981.967109	40632.152960	3831.446259	21205.443384
62.539000	0.002959	0.005552	-0.011101	0.034092	6042.525616	40739.199419	3823.523226	21264.129397
63.036500	0.002194	0.005570	-0.008008	0.034021	6037.594455	40746.955493	3830.105065	21267.121730
63.539500	-0.000726	0.002643	-0.010594	0.026296	6071.940542	41166.248020	3840.899666	21595.852064
64.036500	-0.002235	0.005727	-0.012548	0.027201	6054.635133	41358.126516	3834.879219	21557.024528
64.537500	-0.002249	0.005450	-0.004045	0.038243	5976.618990	40371.627711	3829.565534	21089.945898
65.035000	0.004653	0.005985	-0.001006	0.049613	5945.640681	39450.921756	3812.343726	20621.192222
65.535000	0.004996	0.006239	-0.003320	0.077995	5758.394951	37165.585942	3751.674311	19503.340893
66.035500	0.001948	0.007265	0.001490	0.084392	5697.990796	36745.800364	3748.651435	19261.321580
66.535500	-0.002827	0.008820	-0.001563	0.074439	5730.944801	37651.668022	3761.871610	19639.446924
67.036000	0.000407	0.008815	-0.006134	0.063252	5824.809693	38555.171772	3774.742725	20074.891536
67.536500	-0.001162	0.011512	0.000158	0.053785	5877.562356	39564.897068	3806.208394	20452.284836
68.037000	-0.004732	0.011533	-0.006221	0.047893	5893.253641	40066.008371	3805.219876	20691.346445
68.537000	-0.000999	0.014076	-0.000268	0.037605	5989.797756	41177.075032	3838.824580	21116.589029
69.037500	0.001898	0.014121	-0.000415	0.030754	6058.785740	41788.039071	3853.069336	21405.457149
69.537000	0.000673	0.014700	-0.001499	0.026115	6083.309230	42256.683582	3860.710098	21603.619604
70.035000	0.001670	0.014891	-0.003618	0.028445	6073.710946	42063.904822	3851.155784	21503.821707
70.535500	0.001276	0.015707	-0.002816	0.026192	6087.113631	42340.943867	3857.707121	21600.333627
71.035500	0.004056	0.015712	0.003568	0.027218	6099.799597	42248.451064	3869.304434	21556.291826
71.536000	0.003379	0.016819	0.004959	0.027925	6089.778674	42284.658746	3870.796489	21526.041603
72.036000	0.002867	0.016361	-0.000044	0.026698	6094.952727	42354.284661	3862.593526	21578.584669
72.536500	0.002976	0.017452	0.003057	0.027677	6088.658683	42364.370933	3867.195764	21536.649625
73.039000	0.002447	0.017024	0.005808	0.027837	6083.682313	42311.120221	3872.843171	21529.795094
73.537000	0.001984	0.017432	0.006953	0.027814	6080.518443	42350.202606	3875.402566	21530.806255
74.034500	-0.000185	0.017207	0.001141	0.032504	6031.474378	41907.506744	3852.654002	21331.229561
74.535000	0.004247	0.017373	0.002896	0.028473	6092.096375	42285.234965	3865.119697	21502.637461
75.035000	0.002446	0.018173	0.002517	0.028453	6079.238023	42359.447339	3864.340052	21503.477402
75.535000	0.002137	0.017542	0.000440	0.027317	6085.202166	42405.221801	3862.303353	21552.072416
76.036000	0.002065	0.018623	-0.002814	0.027570	6082.863318	42480.452340	3854.751259	21541.248052
76.535500	0.004050	0.019546	0.006444	0.028368	6091.433412	42491.774345	3873.074284	21507.104315
77.035500	0.003484	0.019087	0.002933	0.028889	6083.579296	42402.706738	3864.295347	21484.846514
77.539500	0.005625	0.019714	0.009559	0.029428	6095.156092	42410.770669	3877.577957	21461.864704
78.037000	0.000384	0.019404	0.001836	0.034643	6020.354956	41912.726405	3849.568606	21240.934856
78.534500	0.006455	0.021583	0.008566	0.032110	6081.777172	42337.025437	3869.536217	21347.892423
79.037500	0.003966	0.022171	0.003711	0.033836	6051.534654	42234.124881	3855.304905	21274.926748
79.535000	0.008007	0.023501	0.008997	0.035611	6067.755498	42193.954072	3862.870753	21200.182644
80.035000	0.005647	0.023441	-0.000336	0.041760	6007.273674	41637.706918	3829.965393	20943.614383
80.535500	0.008393	0.024233	0.008909	0.037720	6055.414058	42069.889979	3858.129891	21111.787319
81.035500	0.007020	0.024382	0.007652	0.038636	6039.094199	42000.984040	3853.463411	21073.519559
81.536000	0.007744	0.024597	0.007189	0.040506	6030.957714	41852.734195	3848.482193	20995.673300
82.036500	0.006822	0.024544	0.003391	0.047189	5977.485762	41254.869689	3826.420406	20720.119138
82.536500	0.008950	0.024970	0.006652	0.043882	6015.605569	41585.081552	3840.181473	20855.940393
83.036500	0.011285	0.025957	0.010261	0.046405	6014.275444	41448.840162	3842.477600	20752.211559
83.534500	0.009628	0.025081	0.011272	0.046322	6003.187792	41378.712058	3844.794987	20755.601401
84.034500	0.009851	0.025686	0.009599	0.047459	5996.775415	41331.759011	3838.852225	20709.066163
84.535000	0.012367	0.024819	0.011183	0.047358	6015.187919	41264.221007	3842.411861	20713.202186
85.035500	0.010739	0.024650	0.013113	0.048323	5996.937969	41164.457638	3844.455686	20673.755565
85.535500	0.011556	0.025123	0.012444	0.049659	5993.306102	41088.726265	3840.214230	20619.356043
86.036000	0.012088	0.025092	0.010634	0.050453	5991.473542	41016.453413	3834.731731	20587.077814
86.536000	0.014382	0.024893	0.005930	0.051841	5997.819712	40877.784210	3822.036576	20530.792835
87.039500	0.014436	0.025584	0.013687	0.053234	5988.440259	40816.642163	3835.302660	20474.488311
87.536500	0.015654	0.025039	0.015695	0.053809	5992.937564	40719.296115	3838.317807	20451.299666
88.037000	0.013919	0.024765	0.013444	0.054784	5974.013929	40610.929546	3831.544911	20412.045407
88.534500	0.015417	0.026573	0.014983	0.056432	5972.978130	40624.867946	3831.318533	20345.940342
89.034500	0.017185	0.026933	0.016955	0.057959	5974.653571	40523.927420	3832.249574	20284.890802
89.535500	0.019074	0.026724	0.016310	0.058214	5986.048840	40483.777083	3830.365097	20274.683305
90.034500	0.012934	0.025256	0.009432	0.063908	5904.456167	39870.880022	3804.484624	20049.045269
90.535500	0.016417	0.026767	0.012001	0.059473	5958.803043	40379.095850	3818.811662	20224.558962
91.036000	0.019996	0.027306	0.016299	0.060229	5978.419829	40360.392151	3826.145726	20194.509860
91.536500	0.019411	0.027863	0.014114	0.060687	5971.160245	40368.901673	3820.666532	20176.342423
92.037000	0.015530	0.026873	0.013333	0.065620	5910.474759	39862.820156	3808.936157	19981.767447
92.537000	0.018393	0.028582	0.016012	0.061389	5959.220150	40370.444750	3823.143128	20148.531499
93.037000	0.019028	0.028016	0.015052	0.061393	5963.594379	40321.343641	3821.146555	20148.358147
93.534500	0.020381	0.027880	0.015276	0.061223	5974.178558	40324.282266	3821.962195	20155.086007
94.035000	0.018036	0.028452	0.009066	0.067884	5912.127076	39804.780579	3795.717032	19893.233269
94.536000	0.019269	0.028454	0.020333	0.062453	5957.913494	40267.998830	3829.915129	20106.423163
95.035500	0.018829	0.028555	0.017029	0.063295	5949.049963	40204.464163	3821.301702	20073.198448
95.536000	0.020145	0.029462	0.026014	0.063486	5956.826853	40265.849705	3839.670499	20065.670409
96.036500	0.016055	0.028389	0.015499	0.068659	5893.390502	39733.845157	3807.157096	19863.012587
96.534500	0.022810	0.028241	0.015093	0.062663	5981.074891	40231.728562	3818.608884	20098.148644
97.037000	0.020382	0.028743	0.019284	0.063755	5956.606838	40181.154578	3825.019722	20055.063197
