sample name	sample
index	1070
start time	 04-22-2021  10:31:39 AM
880	0.217287
Peak Time (s)	102.036
Peak Height 	0.2173
calc peak height	100,103
Baseline Time (s)	8.537
Baseline Value 	-0.008216
subtract baseline	10,4
Abs	0.147899
Peak Time (s)	101.535
Peak Height 	0.1479
calc peak height	100,103
Baseline Time (s)	8.537
Baseline Value 	5.2127E-4
subtract baseline	10,3
PK_550	0.099525
Peak Time (s)	102.537
Peak Height 	0.09953
calc peak height	100,103
Baseline Time (s)	9.534
Baseline Value 	-6.7312E-4
subtract baseline	10,2
PK_880	0.138247
Peak Time (s)	102.537
Peak Height 	0.1382
calc peak height	100,103
Baseline Time (s)	10.535
Baseline Value 	-0.001872
subtract baseline	10,1


Time (s)	A880-A510	A880-A775	A880-A975	A880	I510	I775	I975	I880	
0.035000	0.003141	0.001103	0.002147	0.006003	6257.900863	43379.751537	3857.126570	22708.114709
0.537500	0.000014	0.001160	-0.000644	0.010800	6194.129077	42938.712572	3837.279851	22488.604849
1.035500	0.002399	0.001013	0.001431	0.007325	6241.185687	43247.951310	3851.764136	22647.401354
1.536000	0.003884	0.000667	0.004234	0.004279	6277.998393	43500.449359	3867.227317	22787.620274
2.036000	0.002891	0.001119	0.006610	0.004056	6271.714033	43563.775521	3874.163933	22797.891094
2.536000	-0.001710	-0.000677	0.000478	0.007164	6209.408246	43105.526807	3849.683043	22654.761785
3.036500	0.003331	-0.000008	-0.000133	0.000243	6306.553810	43816.878848	3866.343011	22974.888128
3.537000	0.002165	-0.000094	-0.003181	0.001749	6284.629649	43666.717295	3854.296850	22904.820057
4.037500	0.001794	0.000482	0.002706	0.001830	6280.931921	43713.322458	3869.678971	22901.040277
4.534500	0.001142	-0.000008	0.000676	0.005158	6248.538109	43354.885984	3855.475149	22747.021386
5.035000	0.001815	-0.000400	0.002177	0.000327	6293.404590	43771.971488	3872.280368	22970.973705
5.538000	0.002632	-0.000442	-0.000067	0.000168	6301.426053	43783.040805	3866.721525	22978.419174
6.038500	0.001573	0.000448	-0.002334	0.000098	6293.302513	43873.806051	3860.889965	22981.685988
6.535500	-0.000200	-0.000166	0.000494	-0.000624	6284.688989	43884.057577	3870.325262	23015.365432
7.036500	0.002720	-0.000045	0.002637	-0.000384	6306.697440	43872.819142	3875.416613	23004.180494
7.536500	0.001459	-0.000089	-0.001660	-0.000444	6296.811550	43874.248895	3864.113002	23006.945202
8.036500	0.001290	-0.000320	-0.002793	-0.000955	6299.626943	43900.816407	3862.463165	23030.827779
8.537000	0.000676	0.000531	0.000000	0.000000	6286.755646	43890.905496	3867.345283	22986.235656
9.034500	0.001868	-0.000021	-0.000072	-0.000380	6299.646360	43874.665627	3868.165571	23003.966380
9.534500	-0.000123	0.000000	0.000887	-0.000012	6280.316786	43841.799095	3869.740200	22986.785856
10.037500	0.001692	0.000702	0.003026	0.000057	6294.617766	43901.729854	3875.275822	22983.569153
10.535000	0.000000	-0.000178	-0.000051	-0.000427	6284.718931	43864.250312	3868.347916	23006.182180
11.035500	-0.000259	0.000627	0.001278	0.000360	6276.167563	43865.901038	3869.791291	22969.433095
11.536000	-0.001161	-0.000691	-0.000373	0.000407	6268.427679	43736.915675	3865.271764	22967.249816
12.036000	-0.000900	-0.000236	0.000970	0.001574	6261.051590	43669.778987	3865.738412	22912.933674
12.540000	-0.000857	0.000159	-0.000972	-0.000049	6274.618262	43860.390732	3864.889498	22988.511763
13.037000	0.002229	-0.000186	0.001273	-0.000137	6300.621881	43836.094110	3871.103858	22992.629653
13.537500	0.000883	0.000401	-0.003092	-0.000120	6289.433040	43890.046048	3859.462444	22991.844909
14.037500	-0.000393	-0.000280	0.000363	0.001772	6263.564652	43647.002389	3863.600824	22903.736942
14.542500	0.000614	-0.000195	-0.003604	0.000143	6285.074227	43808.716551	3857.415227	22979.574060
15.035000	0.000946	-0.000727	0.003602	-0.002770	6311.729494	44034.365249	3884.431327	23115.854703
15.535500	0.000674	-0.000238	0.001808	-0.001013	6295.041493	43914.001744	3874.877013	23033.532266
16.035500	0.000040	-0.000369	0.001809	0.001274	6271.145045	43685.552062	3868.768431	22926.880617
16.536000	0.002326	0.000243	0.001935	-0.000412	6303.676608	43902.755783	3873.610957	23005.473026
17.036500	0.003205	0.000312	0.002643	-0.002703	6329.846486	44126.856203	3881.661786	23112.707128
17.536500	0.000317	0.000304	-0.001698	0.000280	6281.524822	43842.899237	3862.091554	22973.172388
18.037000	-0.000266	0.000780	0.006353	0.001037	6270.589941	43816.406761	3881.582448	22937.925503
18.537000	-0.001974	0.000376	-0.001662	0.001067	6256.446475	43775.338510	3860.103399	22936.512288
19.034500	-0.000941	0.000370	-0.000719	0.000769	6267.272510	43803.005799	3863.390746	22950.400513
19.538000	0.002012	0.000699	0.004380	0.000368	6294.692620	43872.009865	3878.074058	22969.079916
20.035500	-0.000290	0.000034	-0.000730	-0.000807	6285.451263	43920.294172	3867.551143	23023.916784
20.536000	0.001095	0.001210	-0.001169	0.000046	6289.812497	43950.914643	3864.116978	22984.092529
21.036000	0.002109	0.000715	0.003587	-0.000697	6304.238481	43974.545379	3878.806452	23018.792399
21.536000	0.000216	0.000805	0.000741	-0.000674	6288.506039	43980.818270	3871.117388	23017.695658
22.037000	0.000758	0.001268	-0.003135	-0.000515	6291.650838	44009.732570	3860.392280	23010.294862
22.537000	0.000136	0.000715	0.002279	-0.000443	6285.965407	43950.397073	3874.614658	23006.925078
23.037000	0.000085	0.000743	0.002913	-0.000820	6288.630697	43988.836699	3877.326033	23024.539091
23.534500	0.000163	0.001184	-0.000055	-0.000290	6284.925310	43980.309837	3867.970160	22999.757167
24.037500	-0.001625	-0.000023	-0.002254	-0.001010	6276.201457	43934.128493	3864.037864	23033.412606
24.535500	-0.000172	0.000657	-0.005195	-0.000091	6280.556664	43911.499882	3853.838930	22990.469051
25.035500	-0.001243	0.000033	0.001619	-0.000495	6275.116991	43890.698384	3872.987354	23009.361879
25.536000	0.001808	0.000556	0.001629	-0.000059	6296.520139	43898.893053	3871.848199	22988.983608
26.036500	0.001193	0.001145	0.000963	0.000800	6284.436413	43873.343651	3867.778795	22948.940671
26.536000	-0.000218	-0.000073	0.001350	0.000016	6279.306729	43832.202212	3870.900701	22985.478645
27.036500	0.000443	0.000082	-0.000425	0.000283	6282.539227	43821.694959	3865.464713	22973.058259
27.537000	0.003323	0.000943	0.003235	-0.001624	6321.895974	44084.257489	3880.351629	23062.128805
28.037500	0.001080	0.000703	0.005928	-0.000154	6291.322024	43921.855249	3883.646792	22993.407684
28.538000	-0.002153	0.000372	-0.000204	0.001582	6250.820384	43726.441400	3862.602614	22912.587056
29.037500	0.002569	0.000867	0.002341	-0.001583	6315.332358	44073.121136	3877.838901	23060.221665
29.535000	0.001061	0.000862	0.002418	-0.001393	6301.338995	44054.511866	3877.532203	23051.309855
30.036000	0.003781	0.001496	0.001586	-0.001079	6321.177724	44084.943645	3874.460784	23036.619771
30.535000	-0.001413	-0.000226	0.000449	0.001945	6253.873333	43635.776387	3863.370090	22895.703642
31.036000	-0.000596	0.000347	-0.002243	0.001505	6264.088580	43731.318870	3857.412593	22916.149835
31.539500	0.001996	0.000430	-0.003161	-0.000825	6304.357160	43959.562246	3861.143231	23024.753327
32.037000	0.001398	0.000174	-0.001974	-0.001557	6305.467022	44004.816410	3866.236544	23059.006739
32.536500	-0.002446	0.000305	-0.000231	0.004180	6227.467035	43475.745543	3855.662383	22792.172226
33.037500	0.001128	0.000695	0.001905	-0.000667	6295.922297	43969.715791	3874.210289	23017.354783
33.543000	0.001987	0.000366	0.002577	-0.000306	6300.017418	43904.242225	3875.043659	23000.499858
34.034500	-0.001268	0.000160	0.001223	0.001775	6256.430319	43688.134197	3865.876587	22903.578842
34.535500	-0.001445	0.000367	0.000418	0.001685	6255.728966	43716.185680	3863.976032	22907.774278
35.035500	0.000040	0.000209	0.003124	0.001685	6267.805281	43701.297432	3871.183351	22907.787300
35.536000	0.000015	0.000589	0.000001	0.001736	6267.180313	43732.247679	3862.734609	22905.394208
36.036500	0.001165	0.000124	0.000385	0.001505	6278.443662	43710.250201	3864.365821	22916.134285
36.536000	0.000911	0.000473	0.004335	0.002428	6268.848837	43656.213796	3872.433329	22873.299046
37.037000	0.002340	0.000943	0.000188	0.002140	6282.860728	43727.658730	3862.161649	22886.652682
37.540000	-0.001881	-0.000082	0.001328	0.001562	6253.187445	43685.441300	3866.720854	22913.484332
38.035000	-0.000846	-0.000052	0.005504	0.001664	6260.764330	43678.686271	3877.612143	22908.746060
38.538000	0.000159	-0.000423	0.000099	0.001355	6271.463582	43672.897277	3864.008790	22923.144309
39.035000	0.000544	-0.000372	0.002226	0.001359	6274.563764	43677.301325	3869.654855	22922.937169
39.535500	0.003673	0.000704	-0.003543	0.002192	6293.349945	43700.127582	3852.179246	22884.231132
40.035500	-0.000749	0.000612	-0.002139	0.002097	6258.039355	43700.447579	3856.126329	22888.665075
40.536500	0.001982	0.000423	-0.002850	0.002153	6279.830853	43677.388154	3854.107068	22886.064393
41.036000	-0.001188	0.000155	0.003453	0.001757	6257.233206	43689.455129	3871.869010	22904.441613
41.539500	0.000216	-0.000018	0.004138	0.001766	6268.571903	43672.299635	3873.677523	22904.017327
42.040000	-0.001009	0.000400	0.000249	0.002177	6255.271987	43672.931317	3862.223859	22884.918626
42.537500	0.000558	0.000513	-0.000493	0.002600	6264.566656	43643.740909	3859.141923	22865.307318
43.040500	-0.000433	0.000102	0.002652	0.002421	6257.972801	43621.899731	3867.962414	22873.628281
43.535000	0.002125	0.000624	-0.000495	0.000273	6296.394938	43873.944260	3865.302645	22973.509413
44.035000	0.001172	0.000988	0.004819	0.002163	6273.125583	43729.658421	3874.435686	22885.568184
44.535500	-0.000134	0.000177	0.002346	-0.000158	6281.417853	43872.363353	3874.029596	22993.595600
45.041000	0.002031	0.000715	0.001189	0.000428	6294.352294	43867.894650	3869.373633	22966.292378
45.542000	0.003361	0.000675	0.003123	0.000654	6303.421462	43842.656932	3873.933647	22955.728060
46.039000	0.001129	0.000354	0.007185	0.005612	6244.756090	43346.256253	3871.537972	22726.093480
46.537000	0.002253	0.000556	0.001074	0.002074	6282.686860	43697.311546	3864.686031	22889.725209
47.036500	0.001507	0.001788	0.000849	0.003817	6262.388188	43649.207764	3859.472427	22808.950239
47.538000	0.000747	0.000021	0.002613	0.002989	6262.940574	43560.901093	3866.346316	22847.278794
48.035000	-0.002297	0.000117	0.000376	0.005905	6214.802068	43296.733723	3852.720791	22712.625753
48.535500	-0.000482	-0.000318	0.000947	0.000002	6277.269717	43810.396318	3869.865224	22986.151970
49.035000	0.003505	0.000405	0.003629	0.000023	6309.803206	43876.893469	3876.985682	22985.178440
49.536000	0.001870	0.000728	0.002213	-0.001834	6311.639373	44083.836912	3878.168492	23071.993631
50.035500	-0.002560	0.003381	0.003020	-0.000217	6262.121876	44182.461869	3875.992207	22996.357001
50.536500	-0.004242	-0.003970	0.012298	0.044055	5907.545579	39539.742994	3785.831543	21031.859484
51.036500	0.020114	-0.016364	0.017882	0.297577	4604.968423	22696.940093	3318.445299	12937.016613
51.537000	-0.006743	-0.021760	-0.043387	-0.078975	6923.689586	49625.917754	3966.062052	27026.705618
52.036500	-0.019661	-0.133555	-0.058773	-0.317691	9782.848648	65535.000000	4809.690967	44831.111635
52.537500	-0.006196	-0.126935	-0.034241	-0.311071	9894.877916	65535.000000	4898.046200	44194.163218
53.035000	-0.009977	-0.122785	-0.028432	-0.306921	9765.226729	65535.000000	4906.414088	43799.790332
53.535000	-0.011804	-0.089070	-0.030123	-0.273158	9211.747419	65527.985381	4734.336898	40727.558714
54.035000	-0.014466	-0.064827	-0.026633	-0.243239	8743.326637	64712.928030	4614.895783	38197.750812
54.538500	-0.018616	-0.058960	-0.032461	-0.235355	8579.021893	64425.926786	4555.739408	37559.673675
55.036000	-0.015197	-0.068058	-0.031588	-0.248077	8800.455506	64942.611943	4614.387065	38595.138074
55.536000	-0.008683	-0.060161	-0.026007	-0.236847	8734.901952	64467.137019	4589.791136	37679.484575
56.036500	-0.006554	-0.036196	-0.020597	-0.197157	8237.428012	62272.635902	4447.220240	34626.716446
56.537000	-0.003763	-0.016808	-0.017307	-0.145816	7655.001081	58051.102144	4265.403602	31069.927960
57.037000	0.003237	-0.013033	-0.008414	-0.127900	7532.771685	56279.557484	4233.449802	29924.426883
57.535500	0.003656	-0.006515	-0.007255	-0.092623	7162.397875	52850.093027	4118.449169	27802.503030
58.035500	0.005216	-0.002478	0.000009	-0.048440	6748.133204	48427.063804	4003.774547	25376.845660
58.535500	0.006840	-0.000095	0.002223	-0.042748	6710.671715	48080.461503	3993.467183	25081.923243
59.035000	0.012446	0.002784	0.005999	-0.040481	6741.387517	48144.404296	3997.930127	24965.521293
59.535500	0.021571	0.009409	0.023333	-0.006988	6522.557137	45421.566883	3950.940186	23314.891539
60.036500	0.022339	0.011186	0.018909	0.019604	6303.657388	43052.052961	3865.498969	22092.046217
60.536500	0.029857	0.015615	0.033510	0.044485	6163.632254	41198.438229	3838.500083	21013.740386
61.037000	0.038558	0.019599	0.038064	0.062734	6088.984482	39956.239589	3803.510910	20261.219878
61.537000	0.046104	0.024133	0.046413	0.075548	6048.486696	39253.700460	3792.337194	19751.384731
62.037500	0.058802	0.030038	0.058382	0.112632	5867.319342	36725.284786	3731.597082	18357.925396
62.535000	0.058123	0.029287	0.066410	0.116701	5833.216245	36350.422114	3740.939442	18212.158401
63.035500	0.066272	0.034530	0.067290	0.113143	5917.992255	37038.193150	3751.515187	18339.565713
63.535000	0.065759	0.038793	0.073431	0.160860	5582.980074	33774.107152	3656.556098	16714.952726
64.036000	0.067527	0.039162	0.074906	0.175808	5497.718033	32750.182328	3627.683097	16241.671378
64.536000	0.070623	0.041432	0.083210	0.180391	5488.258587	32590.850111	3635.566987	16099.787706
65.036000	0.073543	0.045684	0.087402	0.175761	5536.615084	33207.263847	3654.533755	16243.120664
65.536500	0.076958	0.048447	0.086644	0.172881	5577.585610	33605.439253	3659.152606	16333.044776
66.045500	0.080528	0.050578	0.090195	0.170520	5616.729258	33926.204363	3672.143252	16407.233739
66.540500	0.080737	0.052387	0.092448	0.167577	5637.753493	34269.126016	3683.707962	16500.251192
67.035000	0.085468	0.053633	0.093765	0.164297	5691.872844	34599.243030	3694.054315	16604.675249
67.535500	0.085818	0.055153	0.090391	0.160874	5717.714946	34963.824806	3694.167393	16714.517702
68.038000	0.087060	0.056297	0.094272	0.158672	5741.493357	35212.859444	3708.030709	16785.619794
68.536000	0.086110	0.057958	0.095150	0.160708	5720.864636	35184.925314	3705.376345	16719.865885
69.036000	0.089490	0.059134	0.102189	0.163520	5724.780059	35062.912181	3715.098045	16629.539957
69.536500	0.091760	0.059622	0.102444	0.165517	5726.658370	34950.891736	3711.080111	16565.751249
70.037000	0.093339	0.060366	0.103193	0.164503	5744.604113	35081.508781	3715.147260	16598.109643
70.537000	0.094974	0.061737	0.104482	0.163827	5760.678708	35234.164449	3719.698116	16619.706208
71.037000	0.099926	0.063249	0.109753	0.163578	5797.186218	35366.147398	3732.598235	16627.691773
71.537000	0.100308	0.063717	0.104840	0.162477	5807.678202	35484.173234	3723.673154	16662.975929
72.035000	0.101554	0.065965	0.106770	0.163164	5811.635423	35601.983260	3726.572676	16640.935403
72.535000	0.103513	0.067028	0.110425	0.162495	5830.341611	35733.260570	3736.731658	16662.396126
73.035500	0.105449	0.067559	0.111900	0.161192	5853.536360	35872.785797	3743.311311	16704.253740
73.536000	0.106186	0.069070	0.114360	0.160778	5861.824677	36019.894264	3750.161444	16717.582134
74.035500	0.105732	0.069824	0.111949	0.160999	5856.967678	36060.764210	3743.886079	16710.478594
74.536500	0.107111	0.070747	0.113200	0.160743	5868.755991	36151.300481	3747.476733	16718.736600
75.036500	0.108234	0.072139	0.114803	0.160280	5880.239306	36294.272163	3752.416930	16733.654935
75.537000	0.111274	0.073324	0.118106	0.160414	5901.379157	36375.494725	3760.041081	16729.328980
76.040000	0.111468	0.074210	0.115448	0.162051	5890.866372	36317.447128	3749.721857	16676.658495
76.535000	0.110785	0.075018	0.123859	0.161228	5891.889226	36443.721796	3772.037650	16703.118017
77.035500	0.114078	0.074795	0.117761	0.161102	5916.873055	36436.218776	3757.549835	16707.171682
77.535000	0.112377	0.075092	0.121307	0.161297	5902.985277	36444.094162	3765.651978	16700.877311
78.035500	0.115583	0.075689	0.119971	0.164768	5901.048021	36221.826934	3754.047005	16589.626395
78.536000	0.113258	0.076784	0.120695	0.164466	5886.324649	36329.724859	3756.515408	16599.295691
79.036000	0.114421	0.077179	0.121952	0.165627	5886.332653	36270.532588	3756.745092	16562.250617
79.536000	0.113288	0.077640	0.124149	0.166640	5870.777093	36227.978351	3759.597878	16530.005206
80.037000	0.115442	0.079687	0.123803	0.170062	5861.621707	36122.133072	3750.543952	16421.655628
80.540000	0.115578	0.080282	0.119620	0.170170	5861.831990	36159.618620	3740.328630	16418.275166
81.037500	0.112615	0.080412	0.124110	0.170925	5835.135714	36111.528223	3749.214704	16394.475282
81.534500	0.116114	0.082138	0.123310	0.173155	5844.220742	36072.876138	3741.999949	16324.485664
82.035500	0.117778	0.082982	0.128754	0.175735	5837.661078	35940.006971	3748.816945	16243.937532
82.535500	0.115360	0.083759	0.125266	0.175909	5819.175746	35986.101339	3740.106382	16238.522511
83.036000	0.118604	0.083135	0.125292	0.176741	5836.373346	35874.875760	3738.199062	16212.649858
83.536500	0.117929	0.085653	0.129570	0.179077	5814.912340	35888.699113	3742.799803	16140.305619
84.036500	0.120856	0.087095	0.132961	0.182743	5809.668819	35719.485007	3742.146076	16027.542130
84.537000	0.120174	0.086967	0.131173	0.182521	5806.411023	35726.615167	3738.438282	16034.349918
85.037000	0.120173	0.088549	0.133867	0.184068	5795.467496	35729.259119	3741.152980	15987.020995
85.537000	0.121675	0.088230	0.129860	0.184821	5800.757461	35647.978732	3729.928018	15964.049533
86.037500	0.122138	0.089884	0.128790	0.188118	5780.797780	35523.829732	3719.738465	15863.956937
86.535500	0.120755	0.089467	0.134588	0.187308	5776.775685	35553.537837	3735.198340	15888.482817
87.035000	0.122525	0.089656	0.134116	0.188260	5782.508746	35495.929202	3731.846906	15859.644218
87.535500	0.124951	0.091033	0.132772	0.190194	5785.975292	35453.989087	3724.172112	15801.297575
88.035500	0.121208	0.090734	0.136521	0.194507	5729.824118	35108.552005	3722.858719	15672.087050
88.536000	0.124795	0.091218	0.135360	0.191427	5776.210601	35375.147646	3727.336175	15764.213847
89.036500	0.124854	0.092224	0.141431	0.193454	5762.448667	35298.540638	3736.844201	15703.520977
89.537000	0.125671	0.092728	0.138962	0.194603	5760.130027	35250.287642	3728.334832	15669.232157
90.040000	0.124430	0.092219	0.136792	0.199603	5716.907118	34840.610017	3711.681474	15521.050983
90.537500	0.124255	0.093667	0.140026	0.196746	5735.406087	35160.302358	3725.811052	15605.502678
91.035000	0.129506	0.093415	0.137319	0.197830	5764.370606	35060.736324	3716.993798	15573.399458
91.535000	0.131604	0.093947	0.139736	0.198639	5773.389724	35040.199890	3720.725485	15549.493181
92.035500	0.124757	0.093264	0.136688	0.203037	5695.622253	34664.675708	3703.567901	15420.298358
92.535500	0.129243	0.092672	0.139102	0.199677	5749.676434	34868.737856	3716.846379	15518.897392
93.036000	0.130515	0.094773	0.142349	0.201656	5744.754117	34877.700017	3719.783995	15460.706930
93.536500	0.131366	0.094736	0.138842	0.202077	5747.741994	34843.831250	3710.706847	15448.381000
94.036500	0.125805	0.094504	0.139619	0.207601	5671.719087	34421.419847	3699.843960	15287.598061
94.536500	0.130132	0.096417	0.138135	0.204132	5724.981892	34816.242367	3704.369495	15388.317027
95.037000	0.131452	0.094794	0.140476	0.202821	5743.177641	34793.214180	3712.756835	15426.610387
95.534500	0.133823	0.096038	0.141108	0.204556	5747.593275	34757.040666	3710.217443	15375.976752
96.035000	0.134841	0.097451	0.145084	0.205790	5746.089875	34770.203389	3716.541644	15340.063277
96.535000	0.133678	0.096856	0.144250	0.206115	5735.783568	34702.485721	3713.865195	15330.646688
97.036000	0.135081	0.097246	0.145019	0.207149	5738.336107	34655.095763	3713.252643	15300.665446
97.536000	0.134953	0.096631	0.146876	0.206895	5739.202534	34628.570603	3718.133935	15308.011405
