sample name	sample
index	1215
start time	 04-29-2021  10:02:04 AM


Wavelength (nm)	Absorbance
494.344910	0.247813
494.563924	0.247813
494.782919	0.247813
495.001897	0.007375
495.220856	0.065981
495.439797	0.065742
495.658719	-0.001695
495.877624	-0.051476
496.096510	-0.071913
496.315378	-0.077209
496.534227	-0.039717
496.753059	-0.036241
496.971872	-0.057688
497.190667	0.093562
497.409444	0.115175
497.628203	0.128037
497.846943	0.135646
498.065665	0.136199
498.284369	0.135915
498.503055	0.135438
498.721723	0.136084
498.940372	0.137983
499.159003	0.137259
499.377616	0.137463
499.596210	0.137108
499.814787	0.136396
500.033345	0.137798
500.251885	0.139076
500.470406	0.139841
500.688910	0.138972
500.907395	0.138713
501.125862	0.139532
501.344311	0.139209
501.562742	0.139168
501.781154	0.139193
501.999548	0.138954
502.217924	0.138660
502.436282	0.138299
502.654621	0.138401
502.872942	0.138174
503.091245	0.137477
503.309530	0.139006
503.527797	0.139369
503.746045	0.139249
503.964275	0.139906
504.182487	0.139895
504.400681	0.140429
504.618856	0.140944
504.837013	0.140601
505.055152	0.141461
505.273273	0.140931
505.491376	0.141142
505.709460	0.142329
505.927526	0.141390
506.145574	0.141639
506.363604	0.141876
506.581615	0.141787
506.799608	0.143566
507.017583	0.142070
507.235540	0.142157
507.453478	0.142745
507.671399	0.141793
507.889301	0.142305
508.107185	0.142713
508.325050	0.142744
508.542898	0.143079
508.760727	0.142267
508.978538	0.143632
509.196330	0.143660
509.414105	0.143513
509.631861	0.143987
509.849599	0.144035
510.067319	0.143865
510.285021	0.143682
510.502704	0.143620
510.720369	0.143654
510.938016	0.143455
511.155645	0.143693
511.373255	0.143251
511.590848	0.144629
511.808422	0.144457
512.025977	0.144716
512.243515	0.145634
512.461034	0.145136
512.678536	0.145280
512.896018	0.145269
513.113483	0.145201
513.330930	0.145709
513.548358	0.144929
513.765768	0.145523
513.983160	0.146066
514.200533	0.145714
514.417889	0.147325
514.635226	0.148210
514.852545	0.148837
515.069845	0.150605
515.287128	0.150766
515.504392	0.150813
515.721638	0.152330
515.938866	0.151168
516.156075	0.151151
516.373267	0.150913
516.590440	0.150600
516.807594	0.150593
517.024731	0.148950
517.241850	0.149196
517.458950	0.149865
517.676032	0.149520
517.893095	0.150478
518.110141	0.150973
518.327168	0.150632
518.544177	0.151786
518.761168	0.152263
518.978141	0.153170
519.195095	0.152989
519.412031	0.152898
519.628949	0.152165
519.845849	0.151707
520.062731	0.151424
520.279594	0.152298
520.496439	0.151889
520.713266	0.151604
520.930074	0.152404
521.146865	0.154019
521.363637	0.154632
521.580391	0.155696
521.797127	0.157116
522.013844	0.157259
522.230543	0.157624
522.447224	0.157982
522.663887	0.158504
522.880532	0.158484
523.097158	0.158167
523.313766	0.157937
523.530356	0.157142
523.746928	0.156633
523.963481	0.156844
524.180017	0.156893
524.396534	0.156747
524.613032	0.157342
524.829513	0.157338
525.045975	0.158238
525.262420	0.158714
525.478845	0.159948
525.695253	0.160634
525.911643	0.161010
526.128014	0.161875
526.344367	0.162247
526.560702	0.161833
526.777018	0.162113
526.993316	0.161750
527.209597	0.161421
527.425858	0.161453
527.642102	0.161286
527.858328	0.161937
528.074535	0.161871
528.290724	0.162411
528.506894	0.163112
528.723047	0.163290
528.939181	0.163856
529.155297	0.164728
529.371395	0.164890
529.587475	0.165842
529.803536	0.165703
530.019579	0.165071
530.235604	0.165286
530.451611	0.165758
530.667600	0.166187
530.883570	0.165912
531.099522	0.165550
531.315456	0.165393
531.531372	0.164993
531.747269	0.165449
531.963148	0.165830
532.179009	0.166259
532.394852	0.165999
532.610676	0.166044
532.826482	0.166414
533.042271	0.166816
533.258040	0.167723
533.473792	0.168836
533.689525	0.170106
533.905240	0.170708
534.120937	0.170663
534.336616	0.171211
534.552277	0.171296
534.767919	0.171350
534.983543	0.172000
535.199149	0.172213
535.414736	0.172266
535.630306	0.172337
535.845857	0.172894
536.061390	0.173277
536.276904	0.173675
536.492401	0.173953
536.707879	0.174627
536.923339	0.174506
537.138781	0.174413
537.354204	0.174737
537.569610	0.174417
537.784997	0.174669
538.000366	0.174860
538.215716	0.175128
538.431049	0.175987
538.646363	0.176547
538.861659	0.177203
539.076937	0.178149
539.292196	0.177831
539.507438	0.177755
539.722661	0.178134
539.937866	0.178408
540.153052	0.179000
540.368221	0.178898
540.583371	0.178511
540.798503	0.178555
541.013617	0.178184
541.228712	0.178794
541.443789	0.179960
541.658848	0.180094
541.873889	0.180726
542.088912	0.180556
542.303916	0.180858
542.518902	0.181420
542.733870	0.181597
542.948820	0.181664
543.163752	0.181906
543.378665	0.181493
543.593560	0.181697
543.808437	0.181721
544.023295	0.182037
544.238136	0.182114
544.452958	0.182445
544.667762	0.183748
544.882548	0.184685
545.097315	0.184811
545.312064	0.185205
545.526795	0.184762
545.741508	0.185010
545.956203	0.185073
546.170879	0.185371
546.385537	0.185032
546.600177	0.184489
546.814799	0.184638
547.029402	0.185199
547.243988	0.185376
547.458555	0.185843
547.673103	0.186546
547.887634	0.187254
548.102146	0.187282
548.316640	0.188114
548.531116	0.188379
548.745574	0.188310
548.960013	0.188496
549.174435	0.188911
549.388838	0.189279
549.603222	0.189070
549.817589	0.189225
550.031937	0.189498
550.246267	0.189184
550.460579	0.189010
550.674873	0.189295
550.889148	0.189212
551.103405	0.189503
551.317644	0.189947
551.531865	0.189953
551.746068	0.189548
551.960252	0.189921
552.174418	0.190501
552.388566	0.190925
552.602696	0.190981
552.816807	0.191321
553.030900	0.191398
553.244975	0.191448
553.459032	0.191536
553.673070	0.192075
553.887091	0.192265
554.101093	0.192696
554.315077	0.192720
554.529042	0.192838
554.742990	0.192791
554.956919	0.192654
555.170830	0.192676
555.384722	0.193129
555.598597	0.193134
555.812453	0.193280
556.026291	0.193127
556.240111	0.193566
556.453913	0.193322
556.667696	0.193793
556.881461	0.193847
557.095208	0.194039
557.308937	0.193960
557.522647	0.194397
557.736339	0.194675
557.950013	0.194487
558.163669	0.195040
558.377307	0.195649
558.590926	0.195575
558.804527	0.196043
559.018110	0.196230
559.231675	0.196483
559.445221	0.196328
559.658749	0.195993
559.872259	0.196154
560.085751	0.195965
560.299225	0.196218
560.512680	0.196529
560.726117	0.196855
560.939536	0.197328
561.152937	0.197495
561.366319	0.197785
561.579683	0.198168
561.793029	0.198109
562.006357	0.197761
562.219667	0.197750
562.432958	0.198183
562.646231	0.197837
562.859486	0.197808
563.072723	0.198020
563.285941	0.198222
563.499141	0.198574
563.712323	0.199253
563.925487	0.199793
564.138632	0.200016
564.351760	0.199715
564.564869	0.200385
564.777960	0.200184
564.991032	0.200455
565.204087	0.200434
565.417123	0.200475
565.630141	0.200832
565.843140	0.201038
566.056122	0.201283
566.269085	0.201125
566.482030	0.200598
566.694957	0.200923
566.907866	0.200442
567.120756	0.200593
567.333628	0.200564
567.546482	0.200174
567.759318	0.200280
567.972135	0.200382
568.184935	0.201011
568.397716	0.202017
568.610478	0.202367
568.823223	0.202806
569.035949	0.203391
569.248657	0.203473
569.461347	0.204281
569.674019	0.204666
569.886672	0.204638
570.099308	0.204564
570.311925	0.204182
570.524523	0.204311
570.737104	0.204654
570.949666	0.204355
571.162210	0.204842
571.374736	0.204719
571.587244	0.204371
571.799733	0.204648
572.012205	0.205069
572.224658	0.205734
572.437092	0.206017
572.649509	0.205889
572.861907	0.206201
573.074287	0.206241
573.286649	0.206263
573.498993	0.206559
573.711318	0.206525
573.923625	0.206820
574.135914	0.206513
574.348185	0.206731
574.560438	0.207246
574.772672	0.207022
574.984888	0.207185
575.197086	0.207585
575.409266	0.207842
575.621427	0.207805
575.833570	0.207916
576.045695	0.208044
576.257802	0.207596
576.469890	0.207332
576.681961	0.207524
576.894013	0.207361
577.106046	0.207217
577.318062	0.207295
577.530059	0.207528
577.742039	0.207412
577.954000	0.207214
578.165942	0.207900
578.377867	0.208160
578.589773	0.208626
578.801661	0.209040
579.013531	0.209377
579.225382	0.209331
579.437216	0.209701
579.649031	0.209891
579.860828	0.210339
580.072606	0.210578
580.284367	0.210928
580.496109	0.211110
580.707833	0.211279
580.919539	0.211428
581.131227	0.211800
581.342896	0.211866
581.554547	0.211722
581.766180	0.211684
581.977795	0.211420
582.189391	0.211015
582.400969	0.211101
582.612529	0.211278
582.824071	0.210890
583.035595	0.210750
583.247100	0.210740
583.458587	0.211069
583.670056	0.211275
583.881506	0.211318
584.092939	0.212077
584.304353	0.211904
584.515749	0.211706
584.727127	0.211990
584.938486	0.212258
585.149828	0.212782
585.361151	0.212966
585.572456	0.212924
585.783742	0.213163
585.995011	0.213011
586.206261	0.213245
586.417493	0.213805
586.628706	0.214636
586.839902	0.214727
587.051079	0.214556
587.262238	0.214413
587.473379	0.214902
587.684502	0.214813
587.895606	0.215046
588.106692	0.214849
588.317760	0.214679
588.528810	0.214583
588.739841	0.214329
588.950855	0.214654
589.161850	0.214857
589.372827	0.214811
589.583785	0.215265
589.794726	0.215239
590.005648	0.215768
590.216552	0.215979
590.427437	0.216059
590.638305	0.216478
590.849154	0.216425
591.059985	0.216769
591.270798	0.217193
591.481592	0.217144
591.692369	0.217837
591.903127	0.217947
592.113867	0.218376
592.324588	0.218187
592.535292	0.218600
592.745977	0.218680
592.956644	0.218925
593.167293	0.218970
593.377923	0.219228
593.588536	0.218845
593.799130	0.219069
594.009706	0.218843
594.220263	0.219089
594.430803	0.218959
594.641324	0.219547
594.851827	0.219493
595.062312	0.219331
595.272778	0.219369
595.483227	0.219493
595.693657	0.219477
595.904069	0.219699
596.114462	0.219646
596.324838	0.220057
596.535195	0.220048
596.745534	0.220174
596.955855	0.220524
597.166157	0.220840
597.376441	0.221121
597.586707	0.221256
597.796955	0.221455
598.007185	0.221840
598.217396	0.221897
598.427589	0.221794
598.637764	0.222252
598.847921	0.222445
599.058060	0.222733
599.268180	0.223007
599.478282	0.223484
599.688366	0.223649
599.898431	0.223568
600.108479	0.223713
600.318508	0.224197
600.528519	0.223976
600.738511	0.224180
600.948486	0.223962
601.158442	0.224108
601.368380	0.224283
601.578300	0.224509
601.788202	0.224765
601.998085	0.225025
602.207950	0.224865
602.417797	0.224948
602.627626	0.225031
602.837436	0.225158
603.047228	0.225137
603.257002	0.224941
603.466758	0.225035
603.676496	0.225135
603.886215	0.225521
604.095916	0.225698
604.305599	0.225937
604.515264	0.226044
604.724910	0.226243
604.934538	0.226134
605.144148	0.226063
605.353740	0.226295
605.563314	0.226524
605.772869	0.226694
605.982406	0.226909
606.191925	0.227070
606.401425	0.227430
606.610908	0.227604
606.820372	0.227875
607.029818	0.228372
607.239246	0.228347
607.448655	0.228543
607.658047	0.227961
607.867420	0.227739
608.076775	0.228036
608.286111	0.227763
608.495430	0.228056
608.704730	0.228144
608.914012	0.228221
609.123275	0.228711
609.332521	0.228502
609.541748	0.229278
609.750957	0.229937
609.960148	0.229622
610.169321	0.230069
610.378475	0.230027
610.587611	0.230021
610.796729	0.230132
611.005829	0.229774
611.214910	0.230112
611.423974	0.229909
611.633019	0.229943
611.842045	0.230480
612.051054	0.230424
612.260044	0.230832
612.469017	0.231359
612.677970	0.231499
612.886906	0.231961
613.095824	0.231981
613.304723	0.232283
613.513604	0.232589
613.722467	0.232690
613.931311	0.232943
614.140138	0.232835
614.348946	0.232564
614.557736	0.232580
614.766507	0.232612
614.975261	0.232600
615.183996	0.232570
615.392713	0.231919
615.601412	0.231803
615.810092	0.231652
616.018754	0.231831
616.227399	0.231962
616.436024	0.231837
616.644632	0.231499
616.853222	0.231679
617.061793	0.231520
617.270346	0.231959
617.478880	0.232061
617.687397	0.232093
617.895895	0.232027
618.104375	0.232411
618.312837	0.232483
618.521281	0.232924
618.729706	0.233047
618.938113	0.233509
619.146502	0.233532
619.354873	0.233523
619.563226	0.233712
619.771560	0.233822
619.979876	0.233465
620.188174	0.233622
620.396453	0.233337
620.604715	0.233606
620.812958	0.233577
621.021183	0.233923
621.229390	0.234191
621.437578	0.234313
621.645748	0.234622
621.853900	0.235171
622.062034	0.235390
622.270150	0.235718
622.478247	0.235679
622.686326	0.235743
622.894387	0.235801
623.102430	0.235917
623.310454	0.236095
623.518461	0.236197
623.726449	0.236169
623.934418	0.236272
624.142370	0.236421
624.350303	0.236342
624.558218	0.236616
624.766115	0.236633
624.973994	0.236902
625.181855	0.237019
625.389697	0.236847
625.597521	0.237241
625.805327	0.237641
626.013114	0.238149
626.220883	0.238642
626.428634	0.238750
626.636367	0.239220
626.844082	0.239329
627.051778	0.239659
627.259457	0.239855
627.467117	0.239917
627.674758	0.240005
627.882382	0.240032
628.089987	0.240222
628.297574	0.240458
628.505143	0.240472
628.712694	0.240611
628.920226	0.240917
629.127740	0.241223
629.335236	0.241348
629.542714	0.241641
629.750174	0.241813
629.957615	0.241927
630.165038	0.242052
630.372443	0.242141
630.579829	0.242204
630.787198	0.241960
630.994548	0.241797
631.201880	0.241942
631.409194	0.241887
631.616489	0.241527
631.823766	0.241592
632.031025	0.241699
632.238266	0.241591
632.445489	0.241828
632.652693	0.242083
632.859879	0.242345
633.067047	0.242235
633.274197	0.242174
633.481329	0.242655
633.688442	0.242773
633.895537	0.242835
634.102614	0.243106
634.309672	0.243479
634.516713	0.243653
634.723735	0.244291
634.930739	0.244671
635.137724	0.244945
635.344692	0.245099
635.551641	0.245282
635.758572	0.245307
635.965485	0.245787
636.172379	0.245914
636.379256	0.246376
636.586114	0.246422
636.792954	0.246298
636.999775	0.246543
637.206579	0.246474
637.413364	0.246545
637.620131	0.246729
637.826880	0.246783
638.033610	0.246576
638.240323	0.246338
638.447017	0.246202
638.653692	0.246561
638.860350	0.246408
639.066990	0.246525
639.273611	0.246824
639.480214	0.247088
639.686798	0.247378
639.893365	0.247606
640.099913	0.247725
640.306443	0.247532
640.512955	0.247856
640.719449	0.248320
640.925924	0.248818
641.132381	0.248863
641.338820	0.248969
641.545241	0.248888
641.751644	0.249076
641.958028	0.249274
642.164394	0.249884
642.370742	0.249685
642.577071	0.249598
642.783383	0.249632
642.989676	0.249732
643.195951	0.249850
643.402207	0.250005
643.608446	0.250168
643.814666	0.250316
644.020868	0.250366
644.227052	0.250506
644.433218	0.250661
644.639365	0.250687
644.845494	0.250937
645.051605	0.251032
645.257698	0.251110
645.463772	0.251118
645.669828	0.251511
645.875866	0.251622
646.081886	0.251909
646.287888	0.252128
646.493871	0.252369
646.699836	0.252571
646.905783	0.252700
647.111712	0.253165
647.317622	0.253277
647.523514	0.253201
647.729388	0.253478
647.935244	0.253416
648.141082	0.253552
648.346901	0.253765
648.552702	0.253813
648.758485	0.253940
648.964250	0.253919
649.169996	0.254133
649.375724	0.254360
649.581434	0.254384
649.787126	0.254852
649.992800	0.254963
650.198455	0.254858
650.404092	0.254975
650.609711	0.255310
650.815311	0.255242
651.020894	0.255557
651.226458	0.255554
651.432004	0.255749
651.637532	0.255860
651.843041	0.256218
652.048532	0.256553
652.254006	0.256661
652.459460	0.256690
652.664897	0.256983
652.870315	0.256976
653.075716	0.256901
653.281097	0.257088
653.486461	0.257147
653.691807	0.257541
653.897134	0.257775
654.102443	0.257926
654.307734	0.258130
654.513006	0.258284
654.718261	0.258707
654.923497	0.259368
655.128715	0.259727
655.333915	0.260284
655.539096	0.260156
655.744259	0.260442
655.949404	0.261022
656.154531	0.260990
656.359640	0.261235
656.564730	0.261383
656.769802	0.261362
656.974856	0.261268
657.179892	0.261010
657.384909	0.261096
657.589908	0.261106
657.794889	0.260929
657.999852	0.261250
658.204797	0.261356
658.409723	0.261283
658.614631	0.261520
658.819521	0.261828
659.024393	0.262017
659.229246	0.262160
659.434081	0.262426
659.638898	0.262594
659.843697	0.262666
660.048478	0.262778
660.253240	0.262943
660.457984	0.263129
660.662710	0.263192
660.867417	0.263434
661.072107	0.263706
661.276778	0.263672
661.481431	0.264119
661.686066	0.264458
661.890682	0.264628
662.095281	0.265350
662.299861	0.265611
662.504422	0.266078
662.708966	0.266366
662.913491	0.266492
663.117999	0.267112
663.322488	0.267191
663.526958	0.267354
663.731411	0.267675
663.935845	0.267612
664.140261	0.267590
664.344659	0.267721
664.549038	0.267776
664.753400	0.268241
664.957743	0.268218
665.162068	0.268533
665.366375	0.268797
665.570663	0.269124
665.774933	0.269247
665.979185	0.269838
666.183419	0.269878
666.387635	0.270176
666.591832	0.270222
666.796011	0.270438
667.000172	0.270573
667.204315	0.270901
667.408439	0.270690
667.612545	0.270777
667.816634	0.270690
668.020703	0.271004
668.224755	0.271141
668.428788	0.271394
668.632803	0.271643
668.836800	0.271716
669.040779	0.271759
669.244739	0.272300
669.448681	0.272627
669.652605	0.272908
669.856511	0.272972
670.060399	0.273199
670.264268	0.273329
670.468119	0.273590
670.671952	0.273680
670.875767	0.273778
671.079563	0.273877
671.283341	0.273872
671.487101	0.274040
671.690843	0.274225
671.894567	0.274228
672.098272	0.274520
672.301959	0.274450
672.505628	0.274788
672.709278	0.274957
672.912911	0.275069
673.116525	0.275343
673.320121	0.275500
673.523699	0.275405
673.727258	0.275960
673.930799	0.275914
674.134322	0.276301
674.337827	0.276438
674.541314	0.276614
674.744782	0.276745
674.948232	0.276797
675.151664	0.276748
675.355078	0.277285
675.558474	0.277283
675.761851	0.277410
675.965210	0.277276
676.168551	0.277438
676.371873	0.277822
676.575178	0.278040
676.778464	0.278258
676.981732	0.278840
677.184981	0.278992
677.388213	0.279271
677.591426	0.279736
677.794621	0.279964
677.997798	0.280205
678.200956	0.280414
678.404097	0.280855
678.607219	0.281152
678.810323	0.280911
679.013408	0.281015
679.216476	0.281290
679.419525	0.281392
679.622556	0.281704
679.825569	0.281684
680.028563	0.281482
680.231540	0.281522
680.434498	0.281588
680.637438	0.281918
680.840359	0.282161
681.043263	0.282364
681.246148	0.282510
681.449015	0.282750
681.651864	0.283037
681.854694	0.283450
682.057506	0.283609
682.260301	0.283936
682.463076	0.284284
682.665834	0.284619
682.868573	0.284619
683.071295	0.284910
683.273998	0.284946
683.476682	0.285250
683.679349	0.285675
683.881997	0.285700
684.084627	0.285898
684.287239	0.286074
684.489833	0.286155
684.692408	0.286154
684.894965	0.286004
685.097504	0.286216
685.300025	0.286245
685.502527	0.286196
685.705012	0.286469
685.907478	0.286637
686.109925	0.286857
686.312355	0.286838
686.514766	0.287425
686.717159	0.287821
686.919534	0.287882
687.121891	0.288015
687.324230	0.288206
687.526550	0.288238
687.728852	0.288169
687.931136	0.288048
688.133401	0.288196
688.335649	0.288012
688.537878	0.287950
688.740089	0.288243
688.942281	0.288334
689.144456	0.288337
689.346612	0.288629
689.548750	0.288912
689.750870	0.289205
689.952971	0.289281
690.155055	0.289498
690.357120	0.289897
690.559167	0.289844
690.761195	0.290044
690.963206	0.290551
691.165198	0.290541
691.367172	0.290537
691.569128	0.290488
691.771065	0.290838
691.972984	0.290888
692.174885	0.291106
692.376768	0.291342
692.578633	0.291397
692.780479	0.291446
692.982308	0.291581
693.184118	0.291965
693.385909	0.292183
