sample name	sample
index	1026
start time	 04-19-2021  12:25:39 PM


Wavelength (nm)	Absorbance
494.344910	0.097369
494.563924	0.097369
494.782919	0.097369
495.001897	0.050566
495.220856	0.038937
495.439797	0.041192
495.658719	0.029890
495.877624	0.023561
496.096510	0.017465
496.315378	0.028765
496.534227	0.016935
496.753059	0.027017
496.971872	0.034885
497.190667	0.077943
497.409444	0.089635
497.628203	0.098283
497.846943	0.099974
498.065665	0.102974
498.284369	0.105697
498.503055	0.108824
498.721723	0.108593
498.940372	0.107743
499.159003	0.107746
499.377616	0.108220
499.596210	0.108216
499.814787	0.108029
500.033345	0.107799
500.251885	0.106325
500.470406	0.105586
500.688910	0.106985
500.907395	0.107290
501.125862	0.107353
501.344311	0.107112
501.562742	0.106512
501.781154	0.107410
501.999548	0.108109
502.217924	0.109487
502.436282	0.108846
502.654621	0.107390
502.872942	0.107811
503.091245	0.108105
503.309530	0.108301
503.527797	0.108527
503.746045	0.108232
503.964275	0.107592
504.182487	0.107707
504.400681	0.108356
504.618856	0.108701
504.837013	0.109173
505.055152	0.108766
505.273273	0.109595
505.491376	0.110551
505.709460	0.111511
505.927526	0.111374
506.145574	0.110979
506.363604	0.111901
506.581615	0.112808
506.799608	0.113232
507.017583	0.112698
507.235540	0.112264
507.453478	0.111238
507.671399	0.111920
507.889301	0.112073
508.107185	0.112468
508.325050	0.111677
508.542898	0.111276
508.760727	0.110279
508.978538	0.111583
509.196330	0.112063
509.414105	0.112758
509.631861	0.111687
509.849599	0.113244
510.067319	0.113361
510.285021	0.114374
510.502704	0.114299
510.720369	0.114866
510.938016	0.114043
511.155645	0.114034
511.373255	0.114059
511.590848	0.114228
511.808422	0.113558
512.025977	0.112626
512.243515	0.111954
512.461034	0.111833
512.678536	0.111705
512.896018	0.112503
513.113483	0.112690
513.330930	0.112936
513.548358	0.112865
513.765768	0.112341
513.983160	0.113640
514.200533	0.113219
514.417889	0.112921
514.635226	0.114097
514.852545	0.114462
515.069845	0.113969
515.287128	0.114043
515.504392	0.113924
515.721638	0.113875
515.938866	0.113762
516.156075	0.113419
516.373267	0.113949
516.590440	0.113589
516.807594	0.112468
517.024731	0.113347
517.241850	0.112780
517.458950	0.113693
517.676032	0.114529
517.893095	0.114361
518.110141	0.115238
518.327168	0.114956
518.544177	0.115369
518.761168	0.116245
518.978141	0.115388
519.195095	0.115939
519.412031	0.115525
519.628949	0.115519
519.845849	0.115631
520.062731	0.115172
520.279594	0.115739
520.496439	0.115227
520.713266	0.115415
520.930074	0.115488
521.146865	0.116062
521.363637	0.116536
521.580391	0.116552
521.797127	0.115919
522.013844	0.116185
522.230543	0.115950
522.447224	0.116677
522.663887	0.116799
522.880532	0.117568
523.097158	0.117436
523.313766	0.117568
523.530356	0.117675
523.746928	0.118395
523.963481	0.118842
524.180017	0.119986
524.396534	0.119396
524.613032	0.119602
524.829513	0.119466
525.045975	0.119620
525.262420	0.119622
525.478845	0.119691
525.695253	0.119776
525.911643	0.119547
526.128014	0.118877
526.344367	0.119383
526.560702	0.119047
526.777018	0.119749
526.993316	0.119583
527.209597	0.119592
527.425858	0.119448
527.642102	0.119457
527.858328	0.120119
528.074535	0.119992
528.290724	0.119956
528.506894	0.120572
528.723047	0.120548
528.939181	0.120890
529.155297	0.121086
529.371395	0.121260
529.587475	0.121377
529.803536	0.121342
530.019579	0.121699
530.235604	0.122165
530.451611	0.122173
530.667600	0.121787
530.883570	0.121754
531.099522	0.122296
531.315456	0.122577
531.531372	0.123170
531.747269	0.123970
531.963148	0.124017
532.179009	0.123803
532.394852	0.124041
532.610676	0.124245
532.826482	0.124943
533.042271	0.124454
533.258040	0.124915
533.473792	0.124922
533.689525	0.124867
533.905240	0.124995
534.120937	0.124944
534.336616	0.124907
534.552277	0.125620
534.767919	0.125083
534.983543	0.125793
535.199149	0.126294
535.414736	0.126526
535.630306	0.126455
535.845857	0.126508
536.061390	0.127370
536.276904	0.127741
536.492401	0.127223
536.707879	0.127781
536.923339	0.128143
537.138781	0.127983
537.354204	0.128086
537.569610	0.128612
537.784997	0.128678
538.000366	0.128701
538.215716	0.128547
538.431049	0.129377
538.646363	0.129715
538.861659	0.129163
539.076937	0.128962
539.292196	0.128834
539.507438	0.128330
539.722661	0.129204
539.937866	0.129434
540.153052	0.130039
540.368221	0.129858
540.583371	0.129706
540.798503	0.130085
541.013617	0.129890
541.228712	0.130178
541.443789	0.130323
541.658848	0.130011
541.873889	0.129889
542.088912	0.129881
542.303916	0.130091
542.518902	0.130401
542.733870	0.130236
542.948820	0.130514
543.163752	0.130041
543.378665	0.129964
543.593560	0.129971
543.808437	0.129929
544.023295	0.129765
544.238136	0.129747
544.452958	0.129836
544.667762	0.130288
544.882548	0.130705
545.097315	0.131429
545.312064	0.131757
545.526795	0.132148
545.741508	0.132489
545.956203	0.132807
546.170879	0.133116
546.385537	0.132882
546.600177	0.132861
546.814799	0.133026
547.029402	0.133091
547.243988	0.133270
547.458555	0.133592
547.673103	0.133786
547.887634	0.133353
548.102146	0.133069
548.316640	0.133157
548.531116	0.132960
548.745574	0.132594
548.960013	0.132938
549.174435	0.132902
549.388838	0.132439
549.603222	0.132232
549.817589	0.132474
550.031937	0.132422
550.246267	0.133179
550.460579	0.133799
550.674873	0.134228
550.889148	0.134031
551.103405	0.134234
551.317644	0.134337
551.531865	0.134121
551.746068	0.134146
551.960252	0.134677
552.174418	0.134310
552.388566	0.133716
552.602696	0.133486
552.816807	0.133611
553.030900	0.133443
553.244975	0.133634
553.459032	0.134047
553.673070	0.134264
553.887091	0.134222
554.101093	0.134083
554.315077	0.134530
554.529042	0.134968
554.742990	0.134678
554.956919	0.135066
555.170830	0.135265
555.384722	0.135319
555.598597	0.135034
555.812453	0.135488
556.026291	0.135548
556.240111	0.135847
556.453913	0.135815
556.667696	0.136394
556.881461	0.136378
557.095208	0.136643
557.308937	0.136832
557.522647	0.137484
557.736339	0.137277
557.950013	0.137539
558.163669	0.137001
558.377307	0.137341
558.590926	0.136841
558.804527	0.136691
559.018110	0.136693
559.231675	0.136571
559.445221	0.136585
559.658749	0.136184
559.872259	0.135849
560.085751	0.136096
560.299225	0.135995
560.512680	0.136297
560.726117	0.136478
560.939536	0.136165
561.152937	0.136470
561.366319	0.136170
561.579683	0.136119
561.793029	0.136460
562.006357	0.136642
562.219667	0.136978
562.432958	0.137116
562.646231	0.137163
562.859486	0.137426
563.072723	0.137186
563.285941	0.137697
563.499141	0.137957
563.712323	0.137647
563.925487	0.137310
564.138632	0.136637
564.351760	0.136395
564.564869	0.136481
564.777960	0.136132
564.991032	0.135893
565.204087	0.135832
565.417123	0.135961
565.630141	0.136394
565.843140	0.136446
566.056122	0.136722
566.269085	0.137041
566.482030	0.136829
566.694957	0.136761
566.907866	0.136885
567.120756	0.136757
567.333628	0.136353
567.546482	0.136426
567.759318	0.136716
567.972135	0.136916
568.184935	0.136463
568.397716	0.136641
568.610478	0.136830
568.823223	0.137200
569.035949	0.137359
569.248657	0.137733
569.461347	0.137471
569.674019	0.137681
569.886672	0.137513
570.099308	0.137928
570.311925	0.138228
570.524523	0.138542
570.737104	0.138495
570.949666	0.138607
571.162210	0.138643
571.374736	0.138679
571.587244	0.138578
571.799733	0.138498
572.012205	0.138303
572.224658	0.138433
572.437092	0.138325
572.649509	0.138478
572.861907	0.138219
573.074287	0.138094
573.286649	0.138013
573.498993	0.137961
573.711318	0.138191
573.923625	0.138298
574.135914	0.137690
574.348185	0.137745
574.560438	0.137465
574.772672	0.137363
574.984888	0.137899
575.197086	0.137912
575.409266	0.137870
575.621427	0.137941
575.833570	0.138258
576.045695	0.138711
576.257802	0.138942
576.469890	0.139150
576.681961	0.139426
576.894013	0.139134
577.106046	0.139876
577.318062	0.140156
577.530059	0.139701
577.742039	0.139456
577.954000	0.139222
578.165942	0.139012
578.377867	0.139052
578.589773	0.138868
578.801661	0.139032
579.013531	0.138469
579.225382	0.138474
579.437216	0.139071
579.649031	0.139353
579.860828	0.139671
580.072606	0.139827
580.284367	0.139943
580.496109	0.139965
580.707833	0.139682
580.919539	0.139544
581.131227	0.139602
581.342896	0.139491
581.554547	0.139711
581.766180	0.139605
581.977795	0.139400
582.189391	0.139439
582.400969	0.139511
582.612529	0.139941
582.824071	0.140689
583.035595	0.140860
583.247100	0.140830
583.458587	0.141089
583.670056	0.141128
583.881506	0.141477
584.092939	0.141308
584.304353	0.141547
584.515749	0.141205
584.727127	0.140933
584.938486	0.140878
585.149828	0.141180
585.361151	0.141101
585.572456	0.141053
585.783742	0.141230
585.995011	0.141386
586.206261	0.141250
586.417493	0.141414
586.628706	0.141435
586.839902	0.141295
587.051079	0.141330
587.262238	0.141276
587.473379	0.141694
587.684502	0.141784
587.895606	0.141898
588.106692	0.141977
588.317760	0.142356
588.528810	0.142635
588.739841	0.142796
588.950855	0.142652
589.161850	0.142709
589.372827	0.142653
589.583785	0.142650
589.794726	0.143023
590.005648	0.143222
590.216552	0.143206
590.427437	0.142970
590.638305	0.143280
590.849154	0.143589
591.059985	0.143435
591.270798	0.143443
591.481592	0.143418
591.692369	0.143235
591.903127	0.143399
592.113867	0.143528
592.324588	0.144036
592.535292	0.143830
592.745977	0.143831
592.956644	0.143912
593.167293	0.144355
593.377923	0.144442
593.588536	0.144410
593.799130	0.144552
594.009706	0.144706
594.220263	0.144655
594.430803	0.145127
594.641324	0.145254
594.851827	0.145862
595.062312	0.145534
595.272778	0.145561
595.483227	0.145328
595.693657	0.145380
595.904069	0.145102
596.114462	0.145034
596.324838	0.145029
596.535195	0.144938
596.745534	0.144716
596.955855	0.144835
597.166157	0.145332
597.376441	0.145848
597.586707	0.145951
597.796955	0.146451
598.007185	0.146830
598.217396	0.146798
598.427589	0.147241
598.637764	0.147014
598.847921	0.147182
599.058060	0.147004
599.268180	0.146901
599.478282	0.146924
599.688366	0.146949
599.898431	0.147016
600.108479	0.146930
600.318508	0.146623
600.528519	0.147054
600.738511	0.146899
600.948486	0.146813
601.158442	0.146858
601.368380	0.146929
601.578300	0.147023
601.788202	0.146784
601.998085	0.147033
602.207950	0.147211
602.417797	0.147241
602.627626	0.147463
602.837436	0.147419
603.047228	0.147799
603.257002	0.147771
603.466758	0.147644
603.676496	0.147776
603.886215	0.147841
604.095916	0.147636
604.305599	0.147240
604.515264	0.147178
604.724910	0.147226
604.934538	0.146704
605.144148	0.146546
605.353740	0.146697
605.563314	0.147017
605.772869	0.147033
605.982406	0.147198
606.191925	0.147477
606.401425	0.147410
606.610908	0.147576
606.820372	0.147946
607.029818	0.148426
607.239246	0.148326
607.448655	0.147974
607.658047	0.147734
607.867420	0.147657
608.076775	0.147636
608.286111	0.147980
608.495430	0.148022
608.704730	0.148037
608.914012	0.147955
609.123275	0.147774
609.332521	0.147912
609.541748	0.148115
609.750957	0.148431
609.960148	0.148343
610.169321	0.148394
610.378475	0.148444
610.587611	0.148417
610.796729	0.148488
611.005829	0.148655
611.214910	0.148719
611.423974	0.148519
611.633019	0.148487
611.842045	0.148669
612.051054	0.148517
612.260044	0.148595
612.469017	0.148837
612.677970	0.148656
612.886906	0.148922
613.095824	0.148822
613.304723	0.148982
613.513604	0.149009
613.722467	0.149176
613.931311	0.149446
614.140138	0.149448
614.348946	0.149459
614.557736	0.149577
614.766507	0.149574
614.975261	0.149654
615.183996	0.149752
615.392713	0.150099
615.601412	0.150037
615.810092	0.149673
616.018754	0.149836
616.227399	0.149666
616.436024	0.149711
616.644632	0.149720
616.853222	0.149668
617.061793	0.149653
617.270346	0.149465
617.478880	0.149508
617.687397	0.149963
617.895895	0.149932
618.104375	0.150228
618.312837	0.150360
618.521281	0.150208
618.729706	0.150210
618.938113	0.150523
619.146502	0.150575
619.354873	0.150814
619.563226	0.150841
619.771560	0.151058
619.979876	0.151246
620.188174	0.151356
620.396453	0.151496
620.604715	0.151873
620.812958	0.151820
621.021183	0.151757
621.229390	0.151750
621.437578	0.151699
621.645748	0.151599
621.853900	0.151507
622.062034	0.151517
622.270150	0.151720
622.478247	0.152013
622.686326	0.151935
622.894387	0.152110
623.102430	0.152406
623.310454	0.152607
623.518461	0.152639
623.726449	0.152620
623.934418	0.152595
624.142370	0.152611
624.350303	0.152300
624.558218	0.152482
624.766115	0.152758
624.973994	0.152559
625.181855	0.152385
625.389697	0.152573
625.597521	0.152662
625.805327	0.152802
626.013114	0.152929
626.220883	0.152990
626.428634	0.153103
626.636367	0.152663
626.844082	0.152842
627.051778	0.153142
627.259457	0.153177
627.467117	0.153333
627.674758	0.153255
627.882382	0.153225
628.089987	0.153326
628.297574	0.153567
628.505143	0.153934
628.712694	0.154048
628.920226	0.154043
629.127740	0.154100
629.335236	0.154147
629.542714	0.154482
629.750174	0.154498
629.957615	0.154638
630.165038	0.154561
630.372443	0.154638
630.579829	0.154596
630.787198	0.154864
630.994548	0.154856
631.201880	0.154833
631.409194	0.155005
631.616489	0.155209
631.823766	0.155383
632.031025	0.155595
632.238266	0.155632
632.445489	0.155943
632.652693	0.155921
632.859879	0.156333
633.067047	0.156551
633.274197	0.156589
633.481329	0.156879
633.688442	0.156954
633.895537	0.156943
634.102614	0.157041
634.309672	0.156813
634.516713	0.156906
634.723735	0.156698
634.930739	0.156833
635.137724	0.156894
635.344692	0.156824
635.551641	0.156653
635.758572	0.156719
635.965485	0.156816
636.172379	0.156914
636.379256	0.156970
636.586114	0.157048
636.792954	0.156986
636.999775	0.156959
637.206579	0.157192
637.413364	0.157400
637.620131	0.157601
637.826880	0.157554
638.033610	0.157913
638.240323	0.158034
638.447017	0.158054
638.653692	0.158356
638.860350	0.158441
639.066990	0.158315
639.273611	0.158170
639.480214	0.157918
639.686798	0.158108
639.893365	0.157947
640.099913	0.158088
640.306443	0.158017
640.512955	0.157906
640.719449	0.157857
640.925924	0.157958
641.132381	0.158341
641.338820	0.158793
641.545241	0.159133
641.751644	0.159106
641.958028	0.159006
642.164394	0.159242
642.370742	0.159331
642.577071	0.159506
642.783383	0.159361
642.989676	0.159411
643.195951	0.159228
643.402207	0.158852
643.608446	0.159058
643.814666	0.158954
644.020868	0.159028
644.227052	0.159089
644.433218	0.159235
644.639365	0.159524
644.845494	0.159663
645.051605	0.160004
645.257698	0.160182
645.463772	0.160155
645.669828	0.160322
645.875866	0.160521
646.081886	0.160510
646.287888	0.160701
646.493871	0.160663
646.699836	0.160536
646.905783	0.160587
647.111712	0.160929
647.317622	0.160998
647.523514	0.161441
647.729388	0.161528
647.935244	0.161601
648.141082	0.161576
648.346901	0.161960
648.552702	0.162137
648.758485	0.162241
648.964250	0.162293
649.169996	0.162665
649.375724	0.162249
649.581434	0.162435
649.787126	0.162760
649.992800	0.162714
650.198455	0.162505
650.404092	0.162604
650.609711	0.162348
650.815311	0.162310
651.020894	0.162267
651.226458	0.162491
651.432004	0.162385
651.637532	0.162249
651.843041	0.162259
652.048532	0.162288
652.254006	0.162240
652.459460	0.162530
652.664897	0.162676
652.870315	0.162623
653.075716	0.162625
653.281097	0.162726
653.486461	0.162773
653.691807	0.162920
653.897134	0.163056
654.102443	0.163367
654.307734	0.163405
654.513006	0.163469
654.718261	0.163582
654.923497	0.163906
655.128715	0.164015
655.333915	0.164432
655.539096	0.164691
655.744259	0.164928
655.949404	0.164935
656.154531	0.165049
656.359640	0.165214
656.564730	0.165342
656.769802	0.165283
656.974856	0.165420
657.179892	0.165125
657.384909	0.165102
657.589908	0.165281
657.794889	0.165280
657.999852	0.165232
658.204797	0.165322
658.409723	0.165462
658.614631	0.165748
658.819521	0.165738
659.024393	0.165826
659.229246	0.165935
659.434081	0.165719
659.638898	0.165892
659.843697	0.166157
660.048478	0.166296
660.253240	0.166461
660.457984	0.166572
660.662710	0.166597
660.867417	0.166949
661.072107	0.166867
661.276778	0.167064
661.481431	0.167199
661.686066	0.167300
661.890682	0.167182
662.095281	0.167153
662.299861	0.167069
662.504422	0.167095
662.708966	0.166894
662.913491	0.166963
663.117999	0.167076
663.322488	0.167147
663.526958	0.167055
663.731411	0.167235
663.935845	0.167388
664.140261	0.167434
664.344659	0.167713
664.549038	0.167879
664.753400	0.168376
664.957743	0.168544
665.162068	0.168608
665.366375	0.168608
665.570663	0.168608
665.774933	0.168766
665.979185	0.168912
666.183419	0.168969
666.387635	0.169193
666.591832	0.169088
666.796011	0.169060
667.000172	0.169198
667.204315	0.169697
667.408439	0.169956
667.612545	0.169763
667.816634	0.170079
668.020703	0.170083
668.224755	0.170171
668.428788	0.170225
668.632803	0.170499
668.836800	0.170564
669.040779	0.170404
669.244739	0.170233
669.448681	0.170344
669.652605	0.170158
669.856511	0.170263
670.060399	0.170319
670.264268	0.170339
670.468119	0.170181
670.671952	0.170142
670.875767	0.170449
671.079563	0.170768
671.283341	0.171086
671.487101	0.171319
671.690843	0.171441
671.894567	0.171527
672.098272	0.171590
672.301959	0.171750
672.505628	0.171667
672.709278	0.171708
672.912911	0.171720
673.116525	0.171774
673.320121	0.171712
673.523699	0.171793
673.727258	0.171934
673.930799	0.171922
674.134322	0.171991
674.337827	0.172260
674.541314	0.172192
674.744782	0.172172
674.948232	0.171913
675.151664	0.171966
675.355078	0.172024
675.558474	0.172246
675.761851	0.172472
675.965210	0.172659
676.168551	0.172811
676.371873	0.172939
676.575178	0.173209
676.778464	0.173434
676.981732	0.173520
677.184981	0.173654
677.388213	0.173599
677.591426	0.173677
677.794621	0.173610
677.997798	0.173731
678.200956	0.173820
678.404097	0.173881
678.607219	0.174130
678.810323	0.174283
679.013408	0.174330
679.216476	0.174166
679.419525	0.174153
679.622556	0.174285
679.825569	0.174346
680.028563	0.174242
680.231540	0.174269
680.434498	0.174342
680.637438	0.174350
680.840359	0.174307
681.043263	0.174585
681.246148	0.174533
681.449015	0.174632
681.651864	0.174516
681.854694	0.174601
682.057506	0.174585
682.260301	0.174536
682.463076	0.174566
682.665834	0.174748
682.868573	0.174808
683.071295	0.175110
683.273998	0.175126
683.476682	0.175464
683.679349	0.175478
683.881997	0.175671
684.084627	0.175782
684.287239	0.175742
684.489833	0.175892
684.692408	0.176035
684.894965	0.175942
685.097504	0.176121
685.300025	0.176182
685.502527	0.176425
685.705012	0.176408
685.907478	0.176666
686.109925	0.176780
686.312355	0.176955
686.514766	0.176810
686.717159	0.177120
686.919534	0.177082
687.121891	0.177166
687.324230	0.177351
687.526550	0.177536
687.728852	0.177341
687.931136	0.177692
688.133401	0.177615
688.335649	0.177815
688.537878	0.177791
688.740089	0.177985
688.942281	0.178062
689.144456	0.177770
689.346612	0.177606
689.548750	0.177763
689.750870	0.177725
689.952971	0.177548
690.155055	0.177511
690.357120	0.177814
690.559167	0.177697
690.761195	0.177516
690.963206	0.177717
691.165198	0.177610
691.367172	0.177446
691.569128	0.177463
691.771065	0.177498
691.972984	0.177522
692.174885	0.177325
692.376768	0.177565
692.578633	0.177526
692.780479	0.177677
692.982308	0.177883
693.184118	0.178166
693.385909	0.178146
