sample name	sample
index	936
start time	 04-12-2021  12:42:26 PM


Wavelength (nm)	Absorbance
494.344910	0.418421
494.563924	0.418421
494.782919	0.418421
495.001897	0.151856
495.220856	0.222841
495.439797	0.645553
495.658719	0.493613
495.877624	0.622671
496.096510	0.613061
496.315378	NaN
496.534227	0.575216
496.753059	NaN
496.971872	0.736088
497.190667	0.106277
497.409444	0.096882
497.628203	0.097289
497.846943	0.096422
498.065665	0.097305
498.284369	0.097368
498.503055	0.096491
498.721723	0.095554
498.940372	0.095380
499.159003	0.095357
499.377616	0.095389
499.596210	0.095231
499.814787	0.095569
500.033345	0.094644
500.251885	0.094331
500.470406	0.094309
500.688910	0.094109
500.907395	0.094580
501.125862	0.094433
501.344311	0.094707
501.562742	0.095168
501.781154	0.094857
501.999548	0.096009
502.217924	0.096014
502.436282	0.097090
502.654621	0.097806
502.872942	0.097545
503.091245	0.098560
503.309530	0.099091
503.527797	0.099094
503.746045	0.100524
503.964275	0.099695
504.182487	0.100110
504.400681	0.098979
504.618856	0.098918
504.837013	0.099553
505.055152	0.099168
505.273273	0.099531
505.491376	0.099511
505.709460	0.098973
505.927526	0.099648
506.145574	0.099911
506.363604	0.101754
506.581615	0.102535
506.799608	0.103334
507.017583	0.104412
507.235540	0.104026
507.453478	0.104695
507.671399	0.104305
507.889301	0.104482
508.107185	0.104690
508.325050	0.103534
508.542898	0.102936
508.760727	0.102769
508.978538	0.102585
509.196330	0.102795
509.414105	0.101786
509.631861	0.102661
509.849599	0.102479
510.067319	0.102668
510.285021	0.103225
510.502704	0.103398
510.720369	0.103126
510.938016	0.102909
511.155645	0.102493
511.373255	0.103667
511.590848	0.103586
511.808422	0.104599
512.025977	0.105147
512.243515	0.106134
512.461034	0.106485
512.678536	0.107017
512.896018	0.107265
513.113483	0.108291
513.330930	0.107685
513.548358	0.108213
513.765768	0.107865
513.983160	0.108462
514.200533	0.107585
514.417889	0.108643
514.635226	0.108792
514.852545	0.109063
515.069845	0.109390
515.287128	0.110038
515.504392	0.110166
515.721638	0.110284
515.938866	0.110649
516.156075	0.111382
516.373267	0.110469
516.590440	0.110011
516.807594	0.110028
517.024731	0.109490
517.241850	0.109196
517.458950	0.108921
517.676032	0.109241
517.893095	0.108743
518.110141	0.108762
518.327168	0.109066
518.544177	0.109644
518.761168	0.110204
518.978141	0.110591
519.195095	0.110497
519.412031	0.111181
519.628949	0.111353
519.845849	0.111230
520.062731	0.111422
520.279594	0.111800
520.496439	0.112048
520.713266	0.112167
520.930074	0.112304
521.146865	0.113602
521.363637	0.113531
521.580391	0.113796
521.797127	0.113581
522.013844	0.114194
522.230543	0.114002
522.447224	0.114247
522.663887	0.114108
522.880532	0.114311
523.097158	0.114977
523.313766	0.114897
523.530356	0.114537
523.746928	0.115332
523.963481	0.115245
524.180017	0.115815
524.396534	0.116711
524.613032	0.117444
524.829513	0.117685
525.045975	0.117262
525.262420	0.117637
525.478845	0.118849
525.695253	0.119364
525.911643	0.119563
526.128014	0.120103
526.344367	0.119206
526.560702	0.119249
526.777018	0.119678
526.993316	0.120115
527.209597	0.120999
527.425858	0.120847
527.642102	0.121043
527.858328	0.121150
528.074535	0.121379
528.290724	0.122429
528.506894	0.122416
528.723047	0.122608
528.939181	0.122467
529.155297	0.122124
529.371395	0.122131
529.587475	0.122544
529.803536	0.122810
530.019579	0.123332
530.235604	0.123811
530.451611	0.124791
530.667600	0.125597
530.883570	0.126874
531.099522	0.127598
531.315456	0.128015
531.531372	0.128202
531.747269	0.128967
531.963148	0.129312
532.179009	0.129614
532.394852	0.129806
532.610676	0.130249
532.826482	0.130408
533.042271	0.130567
533.258040	0.131189
533.473792	0.131599
533.689525	0.131930
533.905240	0.131979
534.120937	0.132082
534.336616	0.132315
534.552277	0.131953
534.767919	0.131903
534.983543	0.132427
535.199149	0.132622
535.414736	0.132898
535.630306	0.133054
535.845857	0.133502
536.061390	0.133660
536.276904	0.134155
536.492401	0.134760
536.707879	0.134710
536.923339	0.134413
537.138781	0.134961
537.354204	0.135171
537.569610	0.135894
537.784997	0.135765
538.000366	0.136271
538.215716	0.136334
538.431049	0.136713
538.646363	0.136984
538.861659	0.137798
539.076937	0.137809
539.292196	0.138069
539.507438	0.138063
539.722661	0.138204
539.937866	0.138531
540.153052	0.138728
540.368221	0.139003
540.583371	0.139669
540.798503	0.139608
541.013617	0.139907
541.228712	0.140100
541.443789	0.140351
541.658848	0.140918
541.873889	0.141005
542.088912	0.141570
542.303916	0.141821
542.518902	0.142050
542.733870	0.142718
542.948820	0.143071
543.163752	0.143616
543.378665	0.143736
543.593560	0.144649
543.808437	0.144876
544.023295	0.144997
544.238136	0.145094
544.452958	0.145580
544.667762	0.145437
544.882548	0.145600
545.097315	0.145449
545.312064	0.145747
545.526795	0.145710
545.741508	0.146252
545.956203	0.146294
546.170879	0.146785
546.385537	0.146642
546.600177	0.146905
546.814799	0.147082
547.029402	0.147349
547.243988	0.147694
547.458555	0.147810
547.673103	0.147557
547.887634	0.147665
548.102146	0.147676
548.316640	0.148093
548.531116	0.148166
548.745574	0.148645
548.960013	0.149154
549.174435	0.149021
549.388838	0.149358
549.603222	0.150096
549.817589	0.150533
550.031937	0.150663
550.246267	0.150570
550.460579	0.151550
550.674873	0.151785
550.889148	0.152112
551.103405	0.152836
551.317644	0.152887
551.531865	0.153289
551.746068	0.153357
551.960252	0.153634
552.174418	0.154469
552.388566	0.154476
552.602696	0.154658
552.816807	0.155003
553.030900	0.154692
553.244975	0.155191
553.459032	0.155420
553.673070	0.155794
553.887091	0.155813
554.101093	0.155852
554.315077	0.155725
554.529042	0.155552
554.742990	0.155422
554.956919	0.156009
555.170830	0.156318
555.384722	0.156086
555.598597	0.156012
555.812453	0.156508
556.026291	0.156573
556.240111	0.157038
556.453913	0.157569
556.667696	0.157701
556.881461	0.157814
557.095208	0.158140
557.308937	0.158234
557.522647	0.158821
557.736339	0.158752
557.950013	0.159005
558.163669	0.159376
558.377307	0.159674
558.590926	0.159849
558.804527	0.159823
559.018110	0.159211
559.231675	0.159236
559.445221	0.159631
559.658749	0.159831
559.872259	0.160076
560.085751	0.160114
560.299225	0.159943
560.512680	0.160214
560.726117	0.160978
560.939536	0.161507
561.152937	0.162053
561.366319	0.162117
561.579683	0.162077
561.793029	0.162079
562.006357	0.162074
562.219667	0.162489
562.432958	0.162548
562.646231	0.162326
562.859486	0.162834
563.072723	0.162961
563.285941	0.162815
563.499141	0.163263
563.712323	0.163499
563.925487	0.163784
564.138632	0.163857
564.351760	0.164232
564.564869	0.164447
564.777960	0.164179
564.991032	0.164581
565.204087	0.164716
565.417123	0.164863
565.630141	0.164902
565.843140	0.165032
566.056122	0.165534
566.269085	0.165375
566.482030	0.165707
566.694957	0.165898
566.907866	0.166253
567.120756	0.166471
567.333628	0.166934
567.546482	0.167546
567.759318	0.167594
567.972135	0.167417
568.184935	0.167642
568.397716	0.167702
568.610478	0.167808
568.823223	0.167436
569.035949	0.167375
569.248657	0.167499
569.461347	0.167256
569.674019	0.167629
569.886672	0.167828
570.099308	0.168023
570.311925	0.168173
570.524523	0.168362
570.737104	0.168598
570.949666	0.168832
571.162210	0.168567
571.374736	0.168397
571.587244	0.168011
571.799733	0.167964
572.012205	0.168313
572.224658	0.168527
572.437092	0.168667
572.649509	0.168913
572.861907	0.169304
573.074287	0.169682
573.286649	0.170057
573.498993	0.170374
573.711318	0.171011
573.923625	0.171141
574.135914	0.170947
574.348185	0.170989
574.560438	0.171061
574.772672	0.171254
574.984888	0.171474
575.197086	0.171706
575.409266	0.171974
575.621427	0.171866
575.833570	0.171606
576.045695	0.172024
576.257802	0.172107
576.469890	0.172317
576.681961	0.172535
576.894013	0.172213
577.106046	0.172411
577.318062	0.172703
577.530059	0.172623
577.742039	0.173030
577.954000	0.172964
578.165942	0.173017
578.377867	0.172738
578.589773	0.172421
578.801661	0.172910
579.013531	0.173276
579.225382	0.173304
579.437216	0.173439
579.649031	0.173679
579.860828	0.173871
580.072606	0.174204
580.284367	0.174828
580.496109	0.175148
580.707833	0.174903
580.919539	0.174716
581.131227	0.174663
581.342896	0.175023
581.554547	0.175263
581.766180	0.175223
581.977795	0.175134
582.189391	0.174893
582.400969	0.175007
582.612529	0.175188
582.824071	0.175092
583.035595	0.175291
583.247100	0.175394
583.458587	0.175236
583.670056	0.175676
583.881506	0.176050
584.092939	0.176563
584.304353	0.176807
584.515749	0.177427
584.727127	0.178007
584.938486	0.178422
585.149828	0.178528
585.361151	0.179040
585.572456	0.179155
585.783742	0.179270
585.995011	0.179006
586.206261	0.179480
586.417493	0.179694
586.628706	0.179558
586.839902	0.179652
587.051079	0.179551
587.262238	0.179666
587.473379	0.179983
587.684502	0.179875
587.895606	0.180236
588.106692	0.180053
588.317760	0.180125
588.528810	0.180473
588.739841	0.180861
588.950855	0.181633
589.161850	0.181141
589.372827	0.181068
589.583785	0.181680
589.794726	0.182039
590.005648	0.182277
590.216552	0.182494
590.427437	0.182524
590.638305	0.182229
590.849154	0.182061
591.059985	0.182830
591.270798	0.182993
591.481592	0.182970
591.692369	0.183014
591.903127	0.183235
592.113867	0.183631
592.324588	0.184016
592.535292	0.184188
592.745977	0.184259
592.956644	0.184279
593.167293	0.184695
593.377923	0.184598
593.588536	0.184833
593.799130	0.185024
594.009706	0.184784
594.220263	0.184901
594.430803	0.185083
594.641324	0.185352
594.851827	0.185775
595.062312	0.185986
595.272778	0.186511
595.483227	0.186500
595.693657	0.186355
595.904069	0.186451
596.114462	0.186349
596.324838	0.186221
596.535195	0.186317
596.745534	0.186006
596.955855	0.185916
597.166157	0.185746
597.376441	0.185598
597.586707	0.185737
597.796955	0.185731
598.007185	0.185790
598.217396	0.186416
598.427589	0.186584
598.637764	0.186947
598.847921	0.186847
599.058060	0.186857
599.268180	0.187222
599.478282	0.187320
599.688366	0.187609
599.898431	0.187777
600.108479	0.187764
600.318508	0.187720
600.528519	0.187963
600.738511	0.188370
600.948486	0.188794
601.158442	0.189105
601.368380	0.189290
601.578300	0.189487
601.788202	0.189565
601.998085	0.189536
602.207950	0.189835
602.417797	0.189944
602.627626	0.190328
602.837436	0.190499
603.047228	0.190675
603.257002	0.191198
603.466758	0.191415
603.676496	0.191890
603.886215	0.192457
604.095916	0.192694
604.305599	0.192522
604.515264	0.192558
604.724910	0.192959
604.934538	0.192846
605.144148	0.192965
605.353740	0.193061
605.563314	0.192965
605.772869	0.193321
605.982406	0.193449
606.191925	0.193627
606.401425	0.193310
606.610908	0.193451
606.820372	0.193531
607.029818	0.193421
607.239246	0.193225
607.448655	0.193607
607.658047	0.193275
607.867420	0.193447
608.076775	0.193588
608.286111	0.193731
608.495430	0.193403
608.704730	0.193685
608.914012	0.193683
609.123275	0.194063
609.332521	0.194142
609.541748	0.194098
609.750957	0.194086
609.960148	0.194334
610.169321	0.194690
610.378475	0.194999
610.587611	0.195441
610.796729	0.195823
611.005829	0.195971
611.214910	0.196031
611.423974	0.196397
611.633019	0.196573
611.842045	0.196839
612.051054	0.196830
612.260044	0.196926
612.469017	0.196748
612.677970	0.196875
612.886906	0.196789
613.095824	0.196881
613.304723	0.196903
613.513604	0.196947
613.722467	0.196850
613.931311	0.196913
614.140138	0.197056
614.348946	0.197154
614.557736	0.197232
614.766507	0.197507
614.975261	0.197639
615.183996	0.197731
615.392713	0.198136
615.601412	0.198285
615.810092	0.198807
616.018754	0.199109
616.227399	0.199103
616.436024	0.199256
616.644632	0.199532
616.853222	0.199696
617.061793	0.200086
617.270346	0.200345
617.478880	0.200842
617.687397	0.200638
617.895895	0.200532
618.104375	0.200768
618.312837	0.200806
618.521281	0.200639
618.729706	0.200531
618.938113	0.200337
619.146502	0.199910
619.354873	0.199697
619.563226	0.200048
619.771560	0.200441
619.979876	0.200901
620.188174	0.200838
620.396453	0.201034
620.604715	0.201351
620.812958	0.201638
621.021183	0.202122
621.229390	0.202142
621.437578	0.201941
621.645748	0.201957
621.853900	0.201700
622.062034	0.201944
622.270150	0.202133
622.478247	0.202362
622.686326	0.202332
622.894387	0.202146
623.102430	0.202487
623.310454	0.203033
623.518461	0.203299
623.726449	0.203619
623.934418	0.203619
624.142370	0.203774
624.350303	0.204008
624.558218	0.204423
624.766115	0.204690
624.973994	0.204851
625.181855	0.204858
625.389697	0.204875
625.597521	0.205321
625.805327	0.205590
626.013114	0.205893
626.220883	0.205872
626.428634	0.205773
626.636367	0.205787
626.844082	0.205927
627.051778	0.206046
627.259457	0.206163
627.467117	0.205979
627.674758	0.205939
627.882382	0.205745
628.089987	0.206059
628.297574	0.206353
628.505143	0.206687
628.712694	0.206805
628.920226	0.206958
629.127740	0.207232
629.335236	0.207499
629.542714	0.207781
629.750174	0.208410
629.957615	0.208417
630.165038	0.208354
630.372443	0.208416
630.579829	0.208717
630.787198	0.208779
630.994548	0.209015
631.201880	0.208813
631.409194	0.209066
631.616489	0.208741
631.823766	0.208780
632.031025	0.208732
632.238266	0.208886
632.445489	0.208757
632.652693	0.208924
632.859879	0.208935
633.067047	0.209322
633.274197	0.209388
633.481329	0.209702
633.688442	0.209909
633.895537	0.210471
634.102614	0.210821
634.309672	0.211003
634.516713	0.211336
634.723735	0.211400
634.930739	0.211739
635.137724	0.212123
635.344692	0.212102
635.551641	0.212313
635.758572	0.212388
635.965485	0.212336
636.172379	0.212497
636.379256	0.212576
636.586114	0.212561
636.792954	0.212474
636.999775	0.212522
637.206579	0.212931
637.413364	0.213102
637.620131	0.213342
637.826880	0.213458
638.033610	0.213708
638.240323	0.213779
638.447017	0.214087
638.653692	0.214113
638.860350	0.214258
639.066990	0.214459
639.273611	0.214349
639.480214	0.214235
639.686798	0.214774
639.893365	0.215089
640.099913	0.215238
640.306443	0.215401
640.512955	0.215600
640.719449	0.216003
640.925924	0.216061
641.132381	0.216421
641.338820	0.216963
641.545241	0.216936
641.751644	0.216670
641.958028	0.216814
642.164394	0.217090
642.370742	0.217321
642.577071	0.217071
642.783383	0.217157
642.989676	0.217400
643.195951	0.217236
643.402207	0.217194
643.608446	0.217632
643.814666	0.217763
644.020868	0.217681
644.227052	0.217963
644.433218	0.218302
644.639365	0.218444
644.845494	0.218625
645.051605	0.218825
645.257698	0.219116
645.463772	0.219510
645.669828	0.219739
645.875866	0.220200
646.081886	0.220563
646.287888	0.220680
646.493871	0.221186
646.699836	0.221297
646.905783	0.221461
647.111712	0.221769
647.317622	0.221576
647.523514	0.221783
647.729388	0.221800
647.935244	0.221677
648.141082	0.221988
648.346901	0.222000
648.552702	0.222457
648.758485	0.223034
648.964250	0.223178
649.169996	0.223728
649.375724	0.224184
649.581434	0.224342
649.787126	0.224741
649.992800	0.224836
650.198455	0.225031
650.404092	0.224992
650.609711	0.224882
650.815311	0.224940
651.020894	0.224902
651.226458	0.224819
651.432004	0.225306
651.637532	0.225381
651.843041	0.225733
652.048532	0.225857
652.254006	0.226181
652.459460	0.226531
652.664897	0.226821
652.870315	0.226905
653.075716	0.227173
653.281097	0.227303
653.486461	0.227228
653.691807	0.227167
653.897134	0.227654
654.102443	0.227738
654.307734	0.227873
654.513006	0.227963
654.718261	0.228160
654.923497	0.228320
655.128715	0.228173
655.333915	0.228444
655.539096	0.228701
655.744259	0.228905
655.949404	0.229188
656.154531	0.229512
656.359640	0.229721
656.564730	0.230109
656.769802	0.230396
656.974856	0.230790
657.179892	0.231160
657.384909	0.231335
657.589908	0.231391
657.794889	0.231487
657.999852	0.231467
658.204797	0.231493
658.409723	0.231576
658.614631	0.231731
658.819521	0.232035
659.024393	0.232145
659.229246	0.232565
659.434081	0.232616
659.638898	0.232828
659.843697	0.233221
660.048478	0.233634
660.253240	0.233803
660.457984	0.233773
660.662710	0.233645
660.867417	0.233854
661.072107	0.234122
661.276778	0.234446
661.481431	0.234386
661.686066	0.234559
661.890682	0.234813
662.095281	0.234915
662.299861	0.235082
662.504422	0.235317
662.708966	0.235600
662.913491	0.235631
663.117999	0.235890
663.322488	0.236508
663.526958	0.236406
663.731411	0.236742
663.935845	0.237225
664.140261	0.237556
664.344659	0.238003
664.549038	0.238194
664.753400	0.238492
664.957743	0.238657
665.162068	0.238831
665.366375	0.239436
665.570663	0.239661
665.774933	0.239745
665.979185	0.240269
666.183419	0.240539
666.387635	0.240709
666.591832	0.240690
666.796011	0.240794
667.000172	0.240956
667.204315	0.241293
667.408439	0.241285
667.612545	0.241689
667.816634	0.241662
668.020703	0.241910
668.224755	0.241927
668.428788	0.242427
668.632803	0.242754
668.836800	0.242733
669.040779	0.242603
669.244739	0.242836
669.448681	0.242824
669.652605	0.243151
669.856511	0.243189
670.060399	0.243909
670.264268	0.244000
670.468119	0.244043
670.671952	0.244432
670.875767	0.244717
671.079563	0.245009
671.283341	0.245353
671.487101	0.245474
671.690843	0.245971
671.894567	0.245848
672.098272	0.246149
672.301959	0.246555
672.505628	0.246837
672.709278	0.247065
672.912911	0.247249
673.116525	0.247456
673.320121	0.247687
673.523699	0.247893
673.727258	0.248171
673.930799	0.248487
674.134322	0.248865
674.337827	0.249160
674.541314	0.249290
674.744782	0.249378
674.948232	0.249564
675.151664	0.249842
675.355078	0.249810
675.558474	0.250254
675.761851	0.250204
675.965210	0.250379
676.168551	0.250409
676.371873	0.250921
676.575178	0.251266
676.778464	0.251446
676.981732	0.251690
677.184981	0.251875
677.388213	0.251896
677.591426	0.252191
677.794621	0.252333
677.997798	0.252420
678.200956	0.252420
678.404097	0.252553
678.607219	0.252836
678.810323	0.252957
679.013408	0.253400
679.216476	0.253929
679.419525	0.254099
679.622556	0.254264
679.825569	0.254636
680.028563	0.254938
680.231540	0.255024
680.434498	0.255135
680.637438	0.255452
680.840359	0.255393
681.043263	0.255213
681.246148	0.255420
681.449015	0.255430
681.651864	0.255681
681.854694	0.255862
682.057506	0.256342
682.260301	0.256542
682.463076	0.256515
682.665834	0.256693
682.868573	0.256916
683.071295	0.257139
683.273998	0.257434
683.476682	0.257528
683.679349	0.257869
683.881997	0.257909
684.084627	0.257970
684.287239	0.258044
684.489833	0.258298
684.692408	0.258546
684.894965	0.258705
685.097504	0.258860
685.300025	0.259083
685.502527	0.258988
685.705012	0.259201
685.907478	0.259463
686.109925	0.259746
686.312355	0.259997
686.514766	0.260048
686.717159	0.260312
686.919534	0.260651
687.121891	0.260871
687.324230	0.261155
687.526550	0.261440
687.728852	0.261665
687.931136	0.261890
688.133401	0.262129
688.335649	0.262405
688.537878	0.262480
688.740089	0.262733
688.942281	0.262972
689.144456	0.263107
689.346612	0.263195
689.548750	0.263374
689.750870	0.263649
689.952971	0.263849
690.155055	0.264074
690.357120	0.264477
690.559167	0.264839
690.761195	0.265216
690.963206	0.265350
691.165198	0.265600
691.367172	0.265887
691.569128	0.266168
691.771065	0.266410
691.972984	0.266583
692.174885	0.266723
692.376768	0.266698
692.578633	0.266606
692.780479	0.266739
692.982308	0.267006
693.184118	0.267141
693.385909	0.267146
693.587683	0.267254
