sample name	sample
index	547
start time	 03-15-2021  11:21:57 AM


Wavelength (nm)	Absorbance
494.344910	-0.402384
494.563924	-0.402384
494.782919	-0.402384
495.001897	-0.238552
495.220856	-0.274770
495.439797	-0.228341
495.658719	-0.121456
495.877624	-0.064053
496.096510	0.016888
496.315378	1.184309
496.534227	1.201499
496.753059	1.402261
496.971872	0.595021
497.190667	0.072112
497.409444	0.056279
497.628203	0.048932
497.846943	0.047203
498.065665	0.046026
498.284369	0.044386
498.503055	0.044638
498.721723	0.046150
498.940372	0.046186
499.159003	0.046295
499.377616	0.046375
499.596210	0.047314
499.814787	0.048624
500.033345	0.048870
500.251885	0.049360
500.470406	0.049665
500.688910	0.048078
500.907395	0.047713
501.125862	0.048273
501.344311	0.048232
501.562742	0.048105
501.781154	0.047526
501.999548	0.048422
502.217924	0.048399
502.436282	0.047866
502.654621	0.048719
502.872942	0.049525
503.091245	0.049041
503.309530	0.050324
503.527797	0.050717
503.746045	0.051431
503.964275	0.051148
504.182487	0.051746
504.400681	0.052743
504.618856	0.052198
504.837013	0.052113
505.055152	0.053001
505.273273	0.051845
505.491376	0.052316
505.709460	0.051833
505.927526	0.051363
506.145574	0.050861
506.363604	0.050744
506.581615	0.052043
506.799608	0.051802
507.017583	0.051388
507.235540	0.051489
507.453478	0.052017
507.671399	0.052431
507.889301	0.053216
508.107185	0.053227
508.325050	0.052101
508.542898	0.050868
508.760727	0.051060
508.978538	0.052083
509.196330	0.052222
509.414105	0.051582
509.631861	0.050907
509.849599	0.051006
510.067319	0.051184
510.285021	0.051359
510.502704	0.051804
510.720369	0.052872
510.938016	0.051453
511.155645	0.051662
511.373255	0.051280
511.590848	0.051973
511.808422	0.052535
512.025977	0.052909
512.243515	0.053298
512.461034	0.053849
512.678536	0.053027
512.896018	0.053532
513.113483	0.052874
513.330930	0.053504
513.548358	0.053914
513.765768	0.054205
513.983160	0.054486
514.200533	0.054140
514.417889	0.053963
514.635226	0.054696
514.852545	0.054521
515.069845	0.055220
515.287128	0.054668
515.504392	0.054649
515.721638	0.054022
515.938866	0.054615
516.156075	0.055263
516.373267	0.055669
516.590440	0.055912
516.807594	0.056615
517.024731	0.056998
517.241850	0.057770
517.458950	0.058467
517.676032	0.059501
517.893095	0.059497
518.110141	0.060681
518.327168	0.061114
518.544177	0.061182
518.761168	0.060837
518.978141	0.060466
519.195095	0.061344
519.412031	0.060808
519.628949	0.060271
519.845849	0.060324
520.062731	0.059709
520.279594	0.059620
520.496439	0.059615
520.713266	0.060174
520.930074	0.060616
521.146865	0.059884
521.363637	0.059334
521.580391	0.059205
521.797127	0.058505
522.013844	0.058654
522.230543	0.058269
522.447224	0.058743
522.663887	0.058990
522.880532	0.059520
523.097158	0.059458
523.313766	0.060350
523.530356	0.060854
523.746928	0.061172
523.963481	0.061145
524.180017	0.061723
524.396534	0.061244
524.613032	0.061123
524.829513	0.061151
525.045975	0.062223
525.262420	0.061917
525.478845	0.062241
525.695253	0.062620
525.911643	0.062867
526.128014	0.063270
526.344367	0.063367
526.560702	0.062978
526.777018	0.063043
526.993316	0.062750
527.209597	0.063058
527.425858	0.062731
527.642102	0.062918
527.858328	0.063298
528.074535	0.063172
528.290724	0.063943
528.506894	0.064573
528.723047	0.063849
528.939181	0.063568
529.155297	0.063815
529.371395	0.064194
529.587475	0.064338
529.803536	0.064639
530.019579	0.064669
530.235604	0.064521
530.451611	0.064955
530.667600	0.066275
530.883570	0.066424
531.099522	0.066421
531.315456	0.066607
531.531372	0.066589
531.747269	0.066192
531.963148	0.066342
532.179009	0.066838
532.394852	0.067150
532.610676	0.066928
532.826482	0.066811
533.042271	0.067100
533.258040	0.067275
533.473792	0.067619
533.689525	0.068068
533.905240	0.068134
534.120937	0.067999
534.336616	0.068004
534.552277	0.067853
534.767919	0.068678
534.983543	0.068913
535.199149	0.069488
535.414736	0.069777
535.630306	0.070028
535.845857	0.070147
536.061390	0.070602
536.276904	0.070962
536.492401	0.071933
536.707879	0.071971
536.923339	0.072444
537.138781	0.071941
537.354204	0.072032
537.569610	0.072166
537.784997	0.072576
538.000366	0.072402
538.215716	0.072126
538.431049	0.072194
538.646363	0.072572
538.861659	0.072230
539.076937	0.072745
539.292196	0.072811
539.507438	0.073031
539.722661	0.073430
539.937866	0.073306
540.153052	0.073488
540.368221	0.073107
540.583371	0.073132
540.798503	0.073268
541.013617	0.073049
541.228712	0.072440
541.443789	0.072329
541.658848	0.072216
541.873889	0.072998
542.088912	0.073389
542.303916	0.073583
542.518902	0.073746
542.733870	0.074221
542.948820	0.074598
543.163752	0.075590
543.378665	0.075867
543.593560	0.076403
543.808437	0.075972
544.023295	0.076394
544.238136	0.077241
544.452958	0.077445
544.667762	0.077513
544.882548	0.077550
545.097315	0.077869
545.312064	0.077926
545.526795	0.077952
545.741508	0.078509
545.956203	0.078088
546.170879	0.077497
546.385537	0.077588
546.600177	0.077638
546.814799	0.077437
547.029402	0.077279
547.243988	0.077611
547.458555	0.077407
547.673103	0.077503
547.887634	0.078074
548.102146	0.078467
548.316640	0.078430
548.531116	0.078267
548.745574	0.078362
548.960013	0.078419
549.174435	0.078494
549.388838	0.079070
549.603222	0.079111
549.817589	0.079104
550.031937	0.079335
550.246267	0.079750
550.460579	0.080238
550.674873	0.080834
550.889148	0.081447
551.103405	0.082158
551.317644	0.082130
551.531865	0.082327
551.746068	0.082432
551.960252	0.082272
552.174418	0.082008
552.388566	0.082314
552.602696	0.082377
552.816807	0.082507
553.030900	0.082133
553.244975	0.081829
553.459032	0.081771
553.673070	0.081939
553.887091	0.082305
554.101093	0.082611
554.315077	0.082708
554.529042	0.083000
554.742990	0.082775
554.956919	0.082507
555.170830	0.082881
555.384722	0.083078
555.598597	0.083251
555.812453	0.083338
556.026291	0.083236
556.240111	0.083111
556.453913	0.082827
556.667696	0.082806
556.881461	0.083053
557.095208	0.083399
557.308937	0.083404
557.522647	0.083376
557.736339	0.083467
557.950013	0.083844
558.163669	0.083935
558.377307	0.084180
558.590926	0.084358
558.804527	0.084400
559.018110	0.084462
559.231675	0.084259
559.445221	0.084153
559.658749	0.084147
559.872259	0.084196
560.085751	0.084405
560.299225	0.084404
560.512680	0.084725
560.726117	0.084871
560.939536	0.084547
561.152937	0.084790
561.366319	0.084906
561.579683	0.084988
561.793029	0.084784
562.006357	0.084843
562.219667	0.085288
562.432958	0.085385
562.646231	0.085374
562.859486	0.085476
563.072723	0.085933
563.285941	0.086178
563.499141	0.086252
563.712323	0.086145
563.925487	0.086167
564.138632	0.085709
564.351760	0.085353
564.564869	0.085492
564.777960	0.085702
564.991032	0.085720
565.204087	0.086246
565.417123	0.086428
565.630141	0.086680
565.843140	0.086838
566.056122	0.087328
566.269085	0.087875
566.482030	0.088241
566.694957	0.088423
566.907866	0.088341
567.120756	0.088134
567.333628	0.088340
567.546482	0.088608
567.759318	0.088864
567.972135	0.088628
568.184935	0.088690
568.397716	0.088892
568.610478	0.088761
568.823223	0.088702
569.035949	0.088369
569.248657	0.088077
569.461347	0.088245
569.674019	0.088189
569.886672	0.088398
570.099308	0.088334
570.311925	0.088192
570.524523	0.088396
570.737104	0.088475
570.949666	0.088621
571.162210	0.088883
571.374736	0.088768
571.587244	0.088557
571.799733	0.088299
572.012205	0.088114
572.224658	0.088408
572.437092	0.088187
572.649509	0.088523
572.861907	0.088819
573.074287	0.088738
573.286649	0.088946
573.498993	0.089144
573.711318	0.089908
573.923625	0.090018
574.135914	0.089871
574.348185	0.090391
574.560438	0.090585
574.772672	0.090217
574.984888	0.090657
575.197086	0.090415
575.409266	0.090586
575.621427	0.090298
575.833570	0.090558
576.045695	0.090624
576.257802	0.090497
576.469890	0.090359
576.681961	0.090652
576.894013	0.090724
577.106046	0.091359
577.318062	0.091283
577.530059	0.091646
577.742039	0.091775
577.954000	0.091850
578.165942	0.092242
578.377867	0.092510
578.589773	0.092866
578.801661	0.092940
579.013531	0.092794
579.225382	0.093134
579.437216	0.092851
579.649031	0.093290
579.860828	0.093380
580.072606	0.093178
580.284367	0.093176
580.496109	0.093461
580.707833	0.093371
580.919539	0.093563
581.131227	0.093478
581.342896	0.093858
581.554547	0.093712
581.766180	0.093821
581.977795	0.093966
582.189391	0.094208
582.400969	0.094420
582.612529	0.094573
582.824071	0.094540
583.035595	0.094795
583.247100	0.094787
583.458587	0.094657
583.670056	0.094615
583.881506	0.094596
584.092939	0.094471
584.304353	0.093753
584.515749	0.093357
584.727127	0.093315
584.938486	0.093293
585.149828	0.093139
585.361151	0.093426
585.572456	0.093814
585.783742	0.094230
585.995011	0.094066
586.206261	0.094185
586.417493	0.094730
586.628706	0.094587
586.839902	0.094449
587.051079	0.094697
587.262238	0.094731
587.473379	0.094737
587.684502	0.094698
587.895606	0.094701
588.106692	0.094957
588.317760	0.095041
588.528810	0.095548
588.739841	0.095659
588.950855	0.095597
589.161850	0.095536
589.372827	0.095529
589.583785	0.095589
589.794726	0.095828
590.005648	0.096062
590.216552	0.095907
590.427437	0.096004
590.638305	0.096122
590.849154	0.096242
591.059985	0.096468
591.270798	0.096512
591.481592	0.096326
591.692369	0.096626
591.903127	0.096408
592.113867	0.096645
592.324588	0.096465
592.535292	0.096854
592.745977	0.096900
592.956644	0.096814
593.167293	0.096703
593.377923	0.097310
593.588536	0.097234
593.799130	0.097716
594.009706	0.097736
594.220263	0.097835
594.430803	0.097683
594.641324	0.098176
594.851827	0.098343
595.062312	0.098809
595.272778	0.098638
595.483227	0.098843
595.693657	0.098634
595.904069	0.099044
596.114462	0.099315
596.324838	0.099382
596.535195	0.099362
596.745534	0.099347
596.955855	0.099257
597.166157	0.099522
597.376441	0.099520
597.586707	0.099679
597.796955	0.099479
598.007185	0.099612
598.217396	0.099610
598.427589	0.099398
598.637764	0.099318
598.847921	0.099446
599.058060	0.099108
599.268180	0.099247
599.478282	0.099057
599.688366	0.098809
599.898431	0.098505
600.108479	0.098736
600.318508	0.098936
600.528519	0.099050
600.738511	0.098959
600.948486	0.099234
601.158442	0.099537
601.368380	0.099854
601.578300	0.100294
601.788202	0.100948
601.998085	0.100717
602.207950	0.100710
602.417797	0.100769
602.627626	0.100906
602.837436	0.100924
603.047228	0.100787
603.257002	0.100821
603.466758	0.100831
603.676496	0.100501
603.886215	0.100581
604.095916	0.100856
604.305599	0.101271
604.515264	0.101334
604.724910	0.101266
604.934538	0.101234
605.144148	0.101432
605.353740	0.101516
605.563314	0.101518
605.772869	0.101507
605.982406	0.101556
606.191925	0.101515
606.401425	0.101510
606.610908	0.101379
606.820372	0.101407
607.029818	0.101401
607.239246	0.101300
607.448655	0.101431
607.658047	0.101762
607.867420	0.101760
608.076775	0.101614
608.286111	0.101595
608.495430	0.101936
608.704730	0.102037
608.914012	0.102133
609.123275	0.102630
609.332521	0.102747
609.541748	0.103030
609.750957	0.103206
609.960148	0.103651
610.169321	0.103928
610.378475	0.104123
610.587611	0.104251
610.796729	0.104423
611.005829	0.104247
611.214910	0.104420
611.423974	0.104083
611.633019	0.104109
611.842045	0.103819
612.051054	0.103891
612.260044	0.104246
612.469017	0.104156
612.677970	0.104268
612.886906	0.104146
613.095824	0.103997
613.304723	0.104499
613.513604	0.104393
613.722467	0.104777
613.931311	0.105033
614.140138	0.104874
614.348946	0.104973
614.557736	0.105234
614.766507	0.105466
614.975261	0.105851
615.183996	0.105689
615.392713	0.106015
615.601412	0.105926
615.810092	0.105781
616.018754	0.105846
616.227399	0.106047
616.436024	0.105777
616.644632	0.105918
616.853222	0.105617
617.061793	0.105983
617.270346	0.105856
617.478880	0.105933
617.687397	0.105992
617.895895	0.105936
618.104375	0.105920
618.312837	0.106141
618.521281	0.106376
618.729706	0.106629
618.938113	0.106501
619.146502	0.106579
619.354873	0.106408
619.563226	0.106552
619.771560	0.106674
619.979876	0.106995
620.188174	0.106968
620.396453	0.106678
620.604715	0.106823
620.812958	0.106875
621.021183	0.106965
621.229390	0.107306
621.437578	0.107537
621.645748	0.107504
621.853900	0.107255
622.062034	0.107363
622.270150	0.107511
622.478247	0.107526
622.686326	0.107459
622.894387	0.107688
623.102430	0.107806
623.310454	0.107575
623.518461	0.107756
623.726449	0.108224
623.934418	0.108147
624.142370	0.108221
624.350303	0.108437
624.558218	0.108475
624.766115	0.108414
624.973994	0.108484
625.181855	0.108647
625.389697	0.108773
625.597521	0.108518
625.805327	0.108826
626.013114	0.108994
626.220883	0.109152
626.428634	0.109419
626.636367	0.109753
626.844082	0.110025
627.051778	0.110240
627.259457	0.110376
627.467117	0.110667
627.674758	0.110657
627.882382	0.110740
628.089987	0.110430
628.297574	0.110465
628.505143	0.110336
628.712694	0.110100
628.920226	0.109930
629.127740	0.109714
629.335236	0.109678
629.542714	0.109781
629.750174	0.109955
629.957615	0.110327
630.165038	0.110362
630.372443	0.110379
630.579829	0.110559
630.787198	0.110739
630.994548	0.111024
631.201880	0.111148
631.409194	0.111196
631.616489	0.111227
631.823766	0.111256
632.031025	0.111471
632.238266	0.111717
632.445489	0.111841
632.652693	0.112059
632.859879	0.112227
633.067047	0.112342
633.274197	0.112551
633.481329	0.112728
633.688442	0.112975
633.895537	0.113138
634.102614	0.113390
634.309672	0.113544
634.516713	0.113525
634.723735	0.113502
634.930739	0.113708
635.137724	0.113691
635.344692	0.113794
635.551641	0.113800
635.758572	0.113601
635.965485	0.113452
636.172379	0.113409
636.379256	0.113664
636.586114	0.113835
636.792954	0.113764
636.999775	0.113819
637.206579	0.113814
637.413364	0.113800
637.620131	0.113926
637.826880	0.114102
638.033610	0.114330
638.240323	0.114228
638.447017	0.114426
638.653692	0.114776
638.860350	0.114955
639.066990	0.115223
639.273611	0.115326
639.480214	0.115414
639.686798	0.115355
639.893365	0.115376
640.099913	0.115670
640.306443	0.115631
640.512955	0.115556
640.719449	0.115701
640.925924	0.115515
641.132381	0.115683
641.338820	0.115860
641.545241	0.116141
641.751644	0.116070
641.958028	0.116163
642.164394	0.116336
642.370742	0.116621
642.577071	0.116810
642.783383	0.117173
642.989676	0.117263
643.195951	0.117650
643.402207	0.117617
643.608446	0.117885
643.814666	0.117749
644.020868	0.117790
644.227052	0.117868
644.433218	0.118026
644.639365	0.118149
644.845494	0.118108
645.051605	0.118224
645.257698	0.118452
645.463772	0.118501
645.669828	0.118859
645.875866	0.118831
646.081886	0.118800
646.287888	0.118841
646.493871	0.118718
646.699836	0.118744
646.905783	0.118710
647.111712	0.118917
647.317622	0.119144
647.523514	0.119259
647.729388	0.119569
647.935244	0.119621
648.141082	0.119497
648.346901	0.119829
648.552702	0.120274
648.758485	0.120444
648.964250	0.120341
649.169996	0.120351
649.375724	0.120582
649.581434	0.120637
649.787126	0.120984
649.992800	0.121216
650.198455	0.121330
650.404092	0.121501
650.609711	0.121506
650.815311	0.121613
651.020894	0.121546
651.226458	0.121608
651.432004	0.121919
651.637532	0.122055
651.843041	0.122052
652.048532	0.122018
652.254006	0.121994
652.459460	0.122178
652.664897	0.122413
652.870315	0.122900
653.075716	0.122945
653.281097	0.122916
653.486461	0.123097
653.691807	0.123418
653.897134	0.123720
654.102443	0.124006
654.307734	0.124199
654.513006	0.124242
654.718261	0.124142
654.923497	0.124229
655.128715	0.124518
655.333915	0.124578
655.539096	0.124679
655.744259	0.124673
655.949404	0.124551
656.154531	0.124499
656.359640	0.124642
656.564730	0.124665
656.769802	0.124735
656.974856	0.124448
657.179892	0.124387
657.384909	0.124434
657.589908	0.124470
657.794889	0.124552
657.999852	0.124696
658.204797	0.124707
658.409723	0.124965
658.614631	0.124956
658.819521	0.125284
659.024393	0.125322
659.229246	0.125515
659.434081	0.125737
659.638898	0.126027
659.843697	0.126378
660.048478	0.126845
660.253240	0.126867
660.457984	0.127190
660.662710	0.127262
660.867417	0.127587
661.072107	0.127848
661.276778	0.128021
661.481431	0.128288
661.686066	0.128234
661.890682	0.128207
662.095281	0.128550
662.299861	0.128688
662.504422	0.129025
662.708966	0.129246
662.913491	0.129395
663.117999	0.129483
663.322488	0.129673
663.526958	0.130006
663.731411	0.130089
663.935845	0.130173
664.140261	0.130294
664.344659	0.130431
664.549038	0.130264
664.753400	0.130206
664.957743	0.130465
665.162068	0.130633
665.366375	0.130663
665.570663	0.130966
665.774933	0.131183
665.979185	0.131407
666.183419	0.131470
666.387635	0.131796
666.591832	0.132031
666.796011	0.131953
667.000172	0.131930
667.204315	0.132082
667.408439	0.132134
667.612545	0.132145
667.816634	0.132240
668.020703	0.132551
668.224755	0.132903
668.428788	0.133188
668.632803	0.133452
668.836800	0.133589
669.040779	0.133733
669.244739	0.133999
669.448681	0.134120
669.652605	0.134108
669.856511	0.133953
670.060399	0.133953
670.264268	0.133844
670.468119	0.134209
670.671952	0.134295
670.875767	0.134406
671.079563	0.134281
671.283341	0.134287
671.487101	0.134427
671.690843	0.134819
671.894567	0.134894
672.098272	0.135228
672.301959	0.135173
672.505628	0.135186
672.709278	0.135301
672.912911	0.135671
673.116525	0.135876
673.320121	0.136280
673.523699	0.136414
673.727258	0.136655
673.930799	0.136845
674.134322	0.136828
674.337827	0.137078
674.541314	0.137254
674.744782	0.137294
674.948232	0.137677
675.151664	0.137626
675.355078	0.137542
675.558474	0.137454
675.761851	0.137358
675.965210	0.137659
676.168551	0.137566
676.371873	0.137656
676.575178	0.137714
676.778464	0.137652
676.981732	0.137666
677.184981	0.137800
677.388213	0.137880
677.591426	0.137880
677.794621	0.137898
677.997798	0.138158
678.200956	0.138170
678.404097	0.138203
678.607219	0.138250
678.810323	0.138447
679.013408	0.138526
679.216476	0.138444
679.419525	0.138549
679.622556	0.138612
679.825569	0.138682
680.028563	0.138657
680.231540	0.138660
680.434498	0.138814
680.637438	0.138987
680.840359	0.138956
681.043263	0.139229
681.246148	0.139347
681.449015	0.139376
681.651864	0.139484
681.854694	0.139641
682.057506	0.139907
682.260301	0.139711
682.463076	0.139884
682.665834	0.140157
682.868573	0.140325
683.071295	0.140548
683.273998	0.140686
683.476682	0.140884
683.679349	0.140867
683.881997	0.140842
684.084627	0.141181
684.287239	0.141040
684.489833	0.141123
684.692408	0.141097
684.894965	0.141327
685.097504	0.141514
685.300025	0.141752
685.502527	0.141898
685.705012	0.142094
685.907478	0.142330
686.109925	0.142492
686.312355	0.142749
686.514766	0.142943
686.717159	0.142851
686.919534	0.142856
687.121891	0.142816
687.324230	0.143059
687.526550	0.143272
687.728852	0.143631
687.931136	0.143679
688.133401	0.143757
688.335649	0.143801
688.537878	0.143980
688.740089	0.144089
688.942281	0.143974
689.144456	0.144031
689.346612	0.143997
689.548750	0.143829
689.750870	0.144051
689.952971	0.143963
690.155055	0.144047
690.357120	0.143919
690.559167	0.143979
690.761195	0.144054
690.963206	0.144265
691.165198	0.144250
691.367172	0.144275
691.569128	0.144361
691.771065	0.144434
691.972984	0.144529
692.174885	0.144708
692.376768	0.144729
692.578633	0.144811
692.780479	0.144765
692.982308	0.145022
693.184118	0.145042
693.385909	0.144797
