sample name	sample
index	1300
start time	 04-29-2021  03:42:55 PM
880	0.222212
Peak Time (s)	102.538
Peak Height 	0.2222
calc peak height	100,103
Baseline Time (s)	10.04
Baseline Value 	-0.005368
subtract baseline	10,4
Abs	0.168226
Peak Time (s)	101.54
Peak Height 	0.1682
calc peak height	100,103
Baseline Time (s)	11.037
Baseline Value 	6.4255E-4
subtract baseline	10,3
PK_550	0.103614
Peak Time (s)	102.037
Peak Height 	0.1036
calc peak height	100,103
Baseline Time (s)	9.035
Baseline Value 	8.1549E-4
subtract baseline	10,2
PK_880	0.164267
Peak Time (s)	101.54
Peak Height 	0.1643
calc peak height	100,103
Baseline Time (s)	11.537
Baseline Value 	0.00325
subtract baseline	10,1


Time (s)	A880-A510	A880-A775	A880-A975	A880	I510	I775	I975	I880	
0.036000	-0.001113	0.000221	0.005969	0.002930	6330.549420	41161.423486	3883.920422	20958.018972
0.536500	-0.000336	0.000400	-0.001416	0.004391	6325.307529	41049.063266	3865.497092	20897.690165
1.037000	-0.002762	-0.001502	-0.003405	0.006485	6290.850816	40700.925963	3857.120941	20811.575643
1.537500	0.000728	0.000140	0.006933	0.002544	6347.687582	41188.236507	3886.764722	20973.997678
2.037500	-0.000363	0.000539	-0.006028	0.002048	6343.102131	41266.951441	3860.832867	20994.545574
2.538000	-0.000157	-0.000475	0.000930	0.001316	6350.330637	41242.118096	3876.743021	21024.913715
3.035500	-0.004551	0.000275	0.001650	0.006491	6277.263936	40854.771478	3867.490429	20811.317582
3.535500	-0.000366	-0.000098	-0.000618	0.001075	6350.574517	41296.486089	3874.017047	21034.892273
4.036000	-0.000159	-0.000564	-0.002019	0.000974	6352.960946	41264.316003	3871.318066	21039.106627
4.535500	-0.000727	0.000105	0.004695	0.000835	6349.642822	41335.518596	3885.647652	21044.876270
5.036500	-0.002738	-0.000343	-0.004319	0.005309	6299.961833	40903.943322	3857.656031	20859.884772
5.536500	-0.001015	-0.000433	0.002953	0.000157	6352.656837	41347.943966	3883.408622	21073.092111
6.034000	0.000344	0.000164	0.006989	0.001379	6353.715759	41292.867734	3889.344550	21022.304310
6.537000	-0.001023	-0.000281	0.001051	0.000828	6347.417564	41302.152969	3878.015978	21045.189833
7.037500	-0.001318	0.000754	0.001465	0.001807	6337.602477	41306.980396	3876.832945	21004.509124
7.535000	0.000080	0.000774	0.002121	0.001021	6354.438011	41378.125201	3879.849297	21037.148590
8.035500	-0.001470	-0.000497	-0.000105	0.000506	6346.451827	41311.425241	3876.271328	21058.544491
8.535500	-0.000463	0.000473	-0.002465	0.000810	6351.875887	41370.216233	3870.733383	21045.929758
9.035000	0.001254	0.000000	0.002521	0.000128	6370.459888	41388.691725	3882.562479	21074.306318
9.536000	-0.000279	-0.000740	-0.005498	-0.000342	6362.203587	41364.799678	3866.840386	21093.845008
10.039500	0.000363	0.000037	0.004769	0.000000	6364.538038	41403.225570	3887.565782	21079.615817
10.536500	0.001306	0.000155	0.009329	0.000220	6370.147330	41394.278387	3896.780037	21070.477383
11.037000	-0.000627	-0.000234	0.000000	-0.000150	6358.024867	41392.493004	3877.861209	21085.848553
11.537500	0.000000	-0.000853	-0.001055	-0.000198	6363.256827	41342.130691	3875.760647	21087.863298
12.037500	-0.002325	-0.000507	0.004330	-0.000516	6347.741091	41400.792154	3887.730397	21101.131469
12.536500	-0.001286	0.000356	0.003069	0.000448	6348.319269	41391.817963	3883.040471	21060.981171
13.036500	-0.000216	-0.000483	0.007001	-0.000749	6365.857194	41423.494063	3893.885559	21110.839931
13.535500	-0.002171	-0.000396	0.001435	-0.000808	6351.185107	41436.380569	3882.248121	21113.309521
14.036000	-0.002061	0.000040	0.003614	0.003359	6319.997109	41107.898626	3878.081649	20940.278258
14.536000	-0.001015	-0.000174	0.002286	0.001680	6340.910965	41236.567214	3878.816591	21009.796878
15.042500	0.001111	0.000536	0.001538	0.000057	6369.896038	41442.301730	3880.648101	21077.243538
15.537000	0.000208	0.000468	0.000158	-0.000042	6363.662125	41445.055601	3877.966248	21081.372618
16.037000	-0.005349	-0.000188	-0.003154	0.005232	6280.749307	40924.142307	3860.197833	20863.054848
16.540000	-0.001183	-0.000323	0.006547	-0.000265	6354.622058	41394.812271	3891.892067	21090.664163
17.035000	0.002629	0.000403	0.007512	-0.003585	6410.206220	41753.843549	3901.029084	21229.510746
17.537000	-0.001201	-0.000510	0.002209	0.000505	6348.534245	41310.447670	3881.115352	21058.602874
18.035500	-0.002512	-0.000146	-0.003125	0.002761	6321.127228	41144.047860	3865.336298	20965.029471
18.536000	-0.002520	0.000391	0.005240	0.001354	6331.844613	41314.951291	3885.702047	21023.319504
19.036500	-0.000155	0.000110	0.002548	0.001163	6351.533190	41307.050068	3880.446218	21031.260098
19.536500	0.000209	-0.000157	0.004771	0.001135	6354.559655	41286.075297	3885.176494	21032.432276
20.037000	-0.003612	-0.000514	0.001970	0.002967	6311.143262	41093.716804	3875.469511	20956.497586
20.537000	-0.000825	-0.000505	0.001238	0.000550	6351.085154	41306.800494	3878.986095	21056.707374
21.034500	-0.002174	-0.000719	0.002587	0.000242	6343.062456	41315.142070	3882.461348	21069.551320
21.537500	-0.002612	-0.000287	0.001372	0.000911	6334.541178	41294.277162	3878.512011	21041.714649
22.035500	-0.002660	-0.000134	-0.002704	0.003262	6316.162272	41101.184979	3865.170341	20944.306207
22.535500	-0.004482	-0.000344	0.004996	0.000671	6322.040741	41310.374262	3886.629112	21051.699371
23.036000	-0.002253	-0.000003	0.004110	0.000831	6337.918197	41326.351465	3884.425164	21045.062261
23.536500	-0.002535	-0.000500	0.001971	0.000510	6338.216970	41310.809452	3880.605429	21058.376700
24.036500	-0.001253	0.000056	0.010431	0.002471	6333.002006	41187.221455	3894.332446	20977.021538
24.536500	-0.002000	0.000238	0.002548	0.000998	6338.577058	41332.832749	3880.791079	21038.092639
25.034500	-0.001344	0.000965	0.002725	0.001850	6337.067828	41321.821146	3879.377983	21002.737583
25.537000	0.000019	-0.000582	0.006872	0.000558	6357.554499	41299.422389	3890.835176	21056.405488
26.037500	-0.000935	-0.000170	0.005540	0.000693	6349.133223	41323.833032	3887.732050	21050.784230
26.535000	-0.000214	-0.000113	0.004015	0.000976	6352.518048	41303.822427	3883.918614	21039.008445
27.037500	-0.001182	0.000299	0.004500	-0.000015	6352.692855	41427.741921	3887.029487	21080.244112
27.535500	0.000405	-0.000067	0.001326	-0.001352	6375.359032	41513.611495	3883.159780	21136.008151
28.036000	0.001401	0.000509	0.007194	-0.000295	6374.883871	41471.027797	3893.329279	21091.895694
28.536000	-0.000861	0.000068	0.003167	-0.000191	6356.539106	41422.803622	3884.591432	21087.564774
29.036500	0.002497	0.000364	0.005598	0.000204	6379.529501	41414.104860	3888.887059	21071.123153
29.537000	0.000990	0.000282	0.010413	-0.000027	6369.609667	41427.201335	3899.621927	21080.731026
30.037000	0.000948	0.000763	0.002372	-0.000005	6369.116373	41467.852286	3882.527777	21079.833513
30.537500	-0.000482	0.000274	0.005374	0.002272	6340.456111	41223.913290	3884.052882	20985.266186
31.038000	-0.001252	0.000029	0.004522	0.002059	6336.168495	41220.990393	3882.707867	20994.064525
31.535500	-0.001048	-0.000090	0.002162	-0.000167	6354.909022	41406.757590	3882.426714	21086.583904
32.035500	-0.000301	0.000752	0.007192	0.000563	6355.036941	41416.670479	3891.504155	21056.195401
32.535500	-0.001463	-0.000491	0.012722	-0.000859	6357.042380	41432.471184	3906.367556	21115.414292
33.038500	0.001093	0.000051	0.005963	0.001067	6361.920378	41310.290363	3887.833628	21035.232995
33.536500	-0.001149	0.000219	0.002904	0.001966	6337.679356	41245.992269	3879.509909	20997.939966
34.036500	-0.001634	-0.000010	0.000773	0.001436	6338.023338	41272.461325	3876.164414	21019.921536
34.537000	-0.000849	-0.000409	0.000101	0.001244	6345.545330	41254.188348	3875.163794	21027.879033
35.037000	-0.003336	-0.000504	-0.000390	0.000915	6328.953725	41274.805092	3874.826456	21041.569389
35.540500	-0.001571	0.000394	0.006191	0.001739	6336.182725	41281.370862	3886.898456	21007.365759
36.035000	-0.000946	-0.000235	0.002600	0.001446	6343.244131	41251.776576	3879.961995	21019.511625
36.535500	-0.000241	0.000295	0.000749	0.001726	6346.522283	41273.795277	3875.509860	21007.892052
37.035500	-0.002726	0.000233	-0.000583	0.002051	6324.926046	41239.734448	3872.063681	20994.419598
37.536000	-0.000267	0.000698	0.004964	0.001879	6345.138303	41295.764337	3884.015993	21001.523833
38.036500	-0.001339	0.000965	0.000951	0.002810	6329.733489	41237.325788	3873.673547	20962.971686
38.536500	-0.002743	-0.000066	0.002044	0.001877	6326.127364	41228.732972	3877.897875	21001.629836
39.037000	-0.001624	0.000020	0.003735	0.001244	6339.584398	41292.018375	3882.768873	21027.904244
39.537000	-0.000215	0.000105	0.000551	0.001209	6350.709057	41302.612000	3876.175757	21029.355784
40.040000	-0.003314	0.000200	0.001259	0.002797	6314.720088	41171.263918	3874.342370	20963.525828
40.535000	-0.001352	0.000049	0.005300	0.001860	6336.930522	41240.368364	3884.764620	21002.332788
41.035500	-0.002824	0.000036	0.003760	0.001036	6331.959488	41311.736595	3883.257003	21036.535426
41.535500	-0.000519	0.000443	0.006971	0.002029	6342.043555	41260.136975	3887.932280	20995.334289
42.035500	0.001270	-0.000427	-0.001737	0.002139	6355.002108	41173.980418	3869.486555	20990.770398
42.536000	-0.001308	0.000344	0.003110	0.001623	6339.094513	41287.149254	3880.661029	21012.158808
43.036500	-0.000531	-0.000028	0.000505	0.001224	6348.148315	41289.448544	3876.046981	21028.698581
43.536500	0.001503	0.001154	0.005401	-0.002146	6390.105281	41692.502758	3893.451290	21169.179983
44.034000	-0.004078	0.000025	0.004583	0.005493	6288.397884	40919.979099	3875.648930	20852.325029
44.537000	-0.000224	0.001336	0.003187	0.001130	6351.249536	41418.154541	3881.857059	21032.625576
45.037500	-0.001473	0.000077	0.003123	0.000812	6344.068907	41335.106313	3882.389825	21045.845050
45.535000	-0.000033	0.000338	-0.001279	0.000321	6358.979488	41401.425612	3874.211494	21066.258607
46.035000	-0.004723	-0.000268	0.007338	0.004849	6288.385136	40950.654943	3882.763536	20878.833523
46.535500	0.001101	0.000152	0.002530	-0.000082	6370.899870	41420.683795	3883.023120	21083.046244
47.036000	-0.001431	0.000605	-0.000227	0.002954	6327.927314	41192.984704	3870.927899	20957.015723
47.536000	-0.001057	0.000576	0.006332	0.002154	6336.941540	41260.803173	3886.317749	20990.130403
48.036500	-0.003371	-0.000625	-0.006357	0.004830	6298.793422	40921.127509	3854.477921	20879.620734
48.537000	0.001177	0.000935	0.001211	0.000864	6364.146624	41406.206366	3878.273015	21043.661947
49.037000	-0.001525	-0.000753	0.000521	0.000305	6347.573794	41306.559690	3877.998180	21066.899656
49.537000	0.002749	0.000764	0.005686	-0.002292	6400.998560	41670.903793	3894.370024	21175.323022
50.037000	-0.002829	-0.000996	0.005372	0.010785	6257.901011	40373.299604	3866.310477	20636.060445
50.535000	-0.002812	-0.014879	0.018193	0.198903	5111.824139	26486.611922	3568.722958	14434.490039
51.035500	-0.025058	-0.026160	-0.014269	0.210648	4952.657824	25275.781837	3510.804235	14129.276525
51.535500	-0.042097	-0.037200	-0.025974	-0.157434	7385.032014	53636.205261	4198.276184	28981.200219
52.035500	-0.044547	-0.042864	-0.015866	-0.179504	7587.791851	55584.211192	4292.718808	30335.887215
52.536000	-0.021331	-0.026280	-0.005464	-0.184879	7900.161225	58309.412221	4341.644318	30676.416200
53.036500	-0.013773	-0.026177	-0.001047	-0.197667	8135.299655	59974.557576	4397.061949	31503.588313
53.537000	0.001046	-0.015449	0.013788	-0.153206	7796.325756	55719.494897	4302.977027	28729.424373
54.037000	-0.007555	-0.013571	0.011606	-0.100275	7162.400988	49876.800507	4144.145333	25776.607278
54.537500	0.004286	-0.004975	0.014809	-0.095593	7231.618178	50300.776410	4140.155199	25532.313867
55.035000	0.013287	0.000469	0.019393	-0.088779	7252.997858	50151.931633	4134.162844	25181.471741
55.535000	0.020665	0.006422	0.026592	-0.057923	7029.049898	47526.369278	4072.458641	23659.846793
56.035500	0.023521	0.010776	0.024667	-0.025555	6764.194063	44747.269137	3988.774467	22175.706127
56.536000	0.031405	0.012659	0.037622	-0.023225	6812.669931	44704.278008	4013.997150	22073.042720
57.036000	0.033299	0.013527	0.037187	0.028540	6398.789113	40096.526376	3895.795358	19929.392591
57.536000	0.038211	0.018826	0.045012	0.045152	6308.377575	39143.540819	3877.255939	19293.857358
58.036500	0.046254	0.023013	0.053425	0.060627	6252.206934	38217.252744	3862.627470	18723.327805
58.537000	0.053264	0.028026	0.064862	0.092751	6069.339385	36088.298985	3821.117102	17601.917248
59.040000	0.057660	0.031107	0.074112	0.113634	5954.911831	34760.959481	3798.630600	16916.180699
59.534500	0.063732	0.035300	0.071739	0.127846	5899.995523	34037.450212	3767.591832	16467.979133
60.035000	0.070030	0.037129	0.083386	0.135520	5890.815284	33623.029883	3774.919355	16232.006023
60.535500	0.076083	0.040986	0.084000	0.141641	5890.362110	33464.039141	3764.780445	16046.751256
61.035500	0.083048	0.043334	0.097590	0.141722	5936.576157	33623.235603	3789.881564	16044.314004
61.535500	0.090555	0.049749	0.092811	0.192641	5656.999370	30644.326190	3691.230466	14600.649497
62.036000	0.092603	0.051872	0.102466	0.141752	6001.753415	34228.372910	3799.079965	16043.418232
62.536500	0.092314	0.052362	0.108920	0.145574	5973.447511	33989.988311	3804.117833	15929.102914
63.036500	0.094773	0.051570	0.116408	0.105750	6277.760639	36900.637072	3900.089557	17171.202034
63.537500	0.104779	0.061598	0.108658	0.116423	6272.722460	36850.420641	3861.471859	16827.070056
64.037500	0.110809	0.070025	0.114241	0.147352	6090.233182	35143.026636	3810.948429	15876.246949
64.537500	0.110749	0.071250	0.115347	0.150902	6064.625275	34971.650387	3806.230031	15771.377908
65.049000	0.113109	0.072661	0.115895	0.152358	6071.016604	34968.259377	3804.483661	15728.609544
65.535000	0.114987	0.074952	0.111422	0.156299	6056.453858	34847.296234	3788.478159	15613.600446
66.036000	0.116058	0.075073	0.118768	0.158026	6051.839356	34729.823143	3799.131658	15563.504348
66.536500	0.118285	0.076202	0.116249	0.159154	6059.575781	34729.875346	3792.201205	15530.907293
67.036500	0.121170	0.078770	0.121222	0.161111	6066.126699	34774.489663	3797.927658	15474.536467
67.536500	0.121487	0.078648	0.119010	0.160716	6071.164780	34794.499554	3794.474043	15485.902524
68.037000	0.119927	0.079517	0.121182	0.167056	6015.756808	34396.871142	3786.601118	15304.871620
68.543000	0.125484	0.080212	0.123885	0.161968	6090.645347	34817.291551	3801.378727	15449.940711
69.037500	0.123649	0.081423	0.127893	0.162544	6073.529074	34863.803585	3807.971153	15433.436010
69.535000	0.127584	0.081992	0.125039	0.162722	6100.249115	34892.448609	3802.144997	15428.342098
70.035500	0.124343	0.081961	0.125689	0.168380	6037.321967	34477.934144	3792.606469	15267.423463
70.535500	0.130013	0.083313	0.127050	0.163781	6110.050467	34911.674455	3803.968469	15398.052983
71.036000	0.129335	0.083431	0.135561	0.163971	6103.841060	34906.432200	3820.096876	15392.635611
71.539000	0.133200	0.085801	0.136124	0.166099	6116.284925	34924.166696	3817.040038	15332.033132
72.036000	0.129722	0.085479	0.130280	0.171886	6050.461354	34478.799269	3794.663824	15168.735183
72.536500	0.132334	0.085852	0.137066	0.168136	6095.509115	34778.628443	3814.908147	15274.301822
73.040000	0.134619	0.085542	0.132110	0.167417	6117.015132	34808.587570	3806.707576	15294.665566
73.537000	0.135436	0.087532	0.140938	0.169854	6105.400440	34775.890796	3819.107308	15225.826230
74.037500	0.133263	0.086461	0.128406	0.175282	6051.474228	34304.456324	3784.719809	15073.909009
74.535000	0.136924	0.087201	0.132337	0.172343	6098.240316	34570.435023	3797.705274	15155.921375
75.035500	0.138420	0.088594	0.139803	0.172768	6105.903468	34640.855933	3811.231234	15144.049485
75.535500	0.141610	0.089526	0.135629	0.174394	6117.114196	34590.378373	3800.073596	15098.641243
76.035500	0.140959	0.089971	0.142223	0.176214	6099.411592	34490.657447	3809.244799	15048.012114
76.536000	0.142943	0.090895	0.147729	0.179094	6093.021449	34349.274987	3814.333379	14968.346159
77.036500	0.142174	0.090255	0.141303	0.178147	6094.290505	34371.483239	3803.751937	14994.494317
77.537000	0.145319	0.090666	0.141572	0.179287	6108.616387	34318.895447	3802.081513	14963.028869
78.037000	0.146102	0.091404	0.139993	0.180256	6107.288239	34302.202956	3797.216833	14936.353699
78.537500	0.145151	0.090729	0.145940	0.182876	6081.826136	34065.966347	3803.577407	14864.552564
79.035000	0.146131	0.092723	0.143990	0.182112	6094.241245	34263.667090	3801.303743	14885.455411
79.535500	0.148764	0.093192	0.152746	0.182696	6108.878005	34255.340327	3817.088495	14869.460247
80.035500	0.147301	0.092761	0.146131	0.183035	6095.997320	34200.058283	3803.638413	14860.197579
80.538500	0.145832	0.092763	0.146381	0.185674	6066.831659	34011.420667	3799.066969	14788.329455
81.036500	0.151805	0.095025	0.144866	0.184247	6119.569944	34275.662599	3798.897551	14827.134156
81.536500	0.150750	0.096143	0.148702	0.184436	6110.646037	34342.556707	3805.886376	14821.991753
82.036000	0.153567	0.096452	0.145335	0.183806	6135.451550	34410.286899	3800.636865	14839.164121
82.540000	0.150229	0.096289	0.147673	0.186149	6094.673865	34229.813813	3800.627105	14775.431962
83.037500	0.152985	0.096009	0.146129	0.181441	6148.359508	34549.441042	3806.698263	14903.824237
83.535000	0.152353	0.096686	0.152509	0.181199	6145.532851	34616.212946	3819.549238	14910.465318
84.035500	0.153846	0.097769	0.154147	0.180740	6159.707938	34728.440265	3823.658922	14923.051533
84.535000	0.150423	0.096921	0.147652	0.182904	6119.292615	34509.501681	3806.813062	14863.776214
85.035500	0.153726	0.098141	0.152426	0.178609	6174.386645	34911.679527	3824.465611	14981.742176
85.536000	0.152904	0.098057	0.152701	0.177934	6173.313445	34955.126483	3826.337471	15000.382481
86.036500	0.152962	0.098086	0.152744	0.177601	6176.172267	34981.668965	3827.077749	15009.588416
86.536500	0.154629	0.098651	0.150892	0.177697	6187.692243	35016.204076	3823.243881	15006.927603
87.037000	0.153791	0.099268	0.156133	0.178093	6178.641356	35032.509661	3832.812843	14995.986558
87.537500	0.154300	0.098153	0.156098	0.176762	6192.151059	35048.430632	3835.391466	15032.825881
88.034500	0.155286	0.098665	0.152373	0.177268	6195.681194	35048.856465	3827.003747	15018.805961
88.535000	0.154170	0.098139	0.151433	0.176986	6189.544319	35030.878180	3825.706276	15026.604786
89.035500	0.157260	0.099456	0.152262	0.178399	6201.892874	35023.798283	3824.556224	14987.528728
89.535000	0.157074	0.098985	0.153518	0.178644	6198.715713	34971.146587	3826.547840	14980.776679
90.036000	0.154254	0.098424	0.157539	0.183580	6142.052865	34569.490137	3824.746608	14845.327071
90.536000	0.154311	0.100037	0.152672	0.180786	6162.760689	34891.078403	3820.676154	14921.801925
91.036000	0.157614	0.099256	0.157605	0.181723	6180.055475	34765.345511	3828.538096	14896.108404
91.536500	0.159000	0.099379	0.157650	0.182581	6183.925935	34711.679696	3826.932137	14872.604065
92.039500	0.153611	0.099240	0.152366	0.189965	6091.580155	34167.745759	3802.305636	14672.380547
92.537000	0.155789	0.099482	0.156235	0.191248	6097.959083	34093.243838	3807.275510	14637.930497
93.037000	0.160687	0.100672	0.161653	0.188017	6156.535273	34410.878847	3824.110387	14724.855449
93.535000	0.159528	0.098900	0.163012	0.188074	6147.709787	34279.141902	3826.675256	14723.334903
94.035500	0.159452	0.099871	0.159130	0.195024	6097.155652	33851.922683	3805.578628	14537.129892
94.535500	0.157834	0.100381	0.161373	0.197105	6070.865168	33740.701260	3805.890439	14481.959733
95.035500	0.160912	0.099488	0.158787	0.192267	6127.390215	34020.784932	3810.232422	14610.625649
95.536500	0.162173	0.101442	0.162383	0.195427	6113.737079	33934.928980	3811.077068	14526.423262
96.036500	0.160133	0.101349	0.161526	0.199258	6071.898595	33657.010217	3802.050942	14425.157373
96.536500	0.161373	0.100793	0.159438	0.197129	6095.843610	33768.109526	3802.129075	14481.335654
97.037000	0.161055	0.100675	0.164353	0.198957	6080.572644	33630.718976	3808.062816	14433.086808
97.537000	0.162120	0.101299	0.164729	0.200718	6075.637036	33550.740698	3805.396593	14386.803308
