sample name	sample
index	311
start time	 02-25-2021  02:47:12 PM
880	0.462103
Peak Time (s)	92.536
Peak Height 	0.4621
calc peak height	90,93
Baseline Time (s)	9.037
Baseline Value 	-0.002034
subtract baseline	10,4
Abs	0.316990
Peak Time (s)	90.037
Peak Height 	0.317
calc peak height	90,93
Baseline Time (s)	11.036
Baseline Value 	-0.001141
subtract baseline	10,3
PK_550	0.166248
Peak Time (s)	90.037
Peak Height 	0.1662
calc peak height	90,93
Baseline Time (s)	9.037
Baseline Value 	3.5695E-4
subtract baseline	10,2
PK_880	0.303125
Peak Time (s)	90.037
Peak Height 	0.3031
calc peak height	90,93
Baseline Time (s)	9.535
Baseline Value 	-2.6754E-4
subtract baseline	10,1


Time (s)	A880-A510	A880-A775	A880-A975	A880	I510	I775	I975	I880	
0.034500	-0.001173	-0.000741	-0.002265	0.000939	6834.500265	45010.457838	3994.895753	23896.575319
0.535000	-0.002719	-0.000647	-0.004258	0.003544	6797.692549	44768.129578	3983.767568	23771.342266
1.035500	-0.001235	-0.000507	-0.001645	0.003147	6814.324027	44819.726726	3991.036719	23790.340074
1.536000	-0.000493	-0.000211	0.002753	0.000746	6842.280861	45080.411478	4007.651983	23905.856485
2.036000	-0.000663	-0.000510	0.000918	0.000581	6842.241828	45067.455337	4003.547118	23913.823009
2.535500	0.000631	-0.000810	0.000585	0.000795	6851.895054	45017.685100	4002.205770	23903.503941
3.036000	0.004288	0.000184	0.000564	-0.001426	6904.882753	45330.078640	4007.611565	24010.948392
3.537000	0.000806	-0.000440	0.001760	0.000079	6859.878076	45122.884379	4006.849494	23938.064295
4.037000	-0.001379	-0.000095	-0.002151	0.000103	6840.125516	45154.119613	3997.211487	23936.940937
4.537500	0.000809	0.000341	0.005239	0.000627	6855.001462	45145.577333	4014.089037	23911.624837
5.037500	0.000208	-0.000434	0.005555	-0.000407	6858.878988	45170.654942	4017.436048	23961.562470
5.535000	-0.000168	-0.000256	0.005377	-0.000535	6856.656003	45200.384526	4017.314330	23967.780435
6.035500	-0.000255	0.000099	0.001717	-0.000257	6853.382545	45207.915434	4007.570992	23954.317672
6.536000	0.001946	0.000044	0.002301	-0.000525	6875.563629	45228.646985	4009.670952	23967.289190
7.036000	0.000962	-0.000981	0.003106	-0.000796	6869.143939	45155.301896	4012.329515	23980.392762
7.536500	0.001936	0.000700	0.005735	0.000513	6866.130716	45191.433900	4015.598461	23917.102822
8.036500	0.001170	0.000158	0.005010	0.000099	6862.969860	45179.018162	4014.828352	23937.088298
8.537000	0.001248	-0.000291	0.002286	-0.000005	6864.605921	45145.577351	4008.354477	23942.160556
9.037000	-0.000887	0.000000	-0.002877	0.000000	6845.434404	45173.292449	3995.692303	23941.896057
9.535000	0.000000	-0.001103	-0.000377	-0.000747	6860.058812	45138.692060	4003.627885	23978.005926
10.035000	-0.000757	-0.000448	-0.001950	-0.000117	6847.640838	45141.213038	3998.237049	23947.571008
10.535500	0.001211	0.000761	0.002164	0.000682	6858.104412	45180.927233	4006.360451	23908.957708
11.036000	-0.000501	0.000378	0.000000	0.000223	6846.893041	45188.435380	4002.175801	23931.144547
11.536000	0.002744	0.000060	0.003902	0.000417	6874.261963	45138.616419	4011.298014	23921.734603
12.036000	0.000885	-0.000492	0.003354	-0.000560	6866.326571	45179.816379	4012.357607	23968.958693
12.536500	0.002189	0.000536	0.007142	0.000044	6872.626099	45221.165645	4020.265234	23939.788727
13.037000	0.000970	0.000098	0.001815	0.000105	6861.117487	45172.559564	4006.920949	23936.810173
13.537500	0.000406	0.000225	-0.002721	0.000176	6855.431414	45178.034934	3995.643846	23933.402010
14.037000	-0.001646	-0.000034	-0.000033	0.002073	6820.206004	44969.034415	3997.569121	23841.930186
14.537500	-0.000076	-0.000146	-0.000560	0.002195	6833.077993	44946.430138	3995.987949	23836.065278
15.054500	-0.000854	-0.000634	-0.002408	-0.000408	6849.371863	45151.298303	3997.829530	23961.620165
15.535500	-0.002185	-0.000065	0.001000	0.000014	6833.718425	45165.558312	4005.140820	23941.204744
16.035000	-0.004223	-0.000837	-0.000614	0.002670	6792.129454	44834.010263	3994.701306	23813.265426
16.536000	-0.000675	-0.000438	0.001211	0.000245	6845.137509	45107.022698	4005.092898	23930.065976
17.036500	-0.004203	0.000539	-0.001497	0.000725	6809.482987	45155.260899	3997.288123	23906.890262
17.536500	-0.003824	0.000116	-0.001991	0.000263	6816.944799	45159.072651	3997.209232	23929.199685
18.036500	-0.004290	-0.000664	0.003061	0.002663	6791.601574	44851.334802	4003.698737	23813.615383
18.537000	-0.001780	0.000632	-0.002684	0.002880	6811.864820	44955.491215	3989.169214	23803.194582
19.034500	-0.001058	-0.000077	-0.001883	0.002237	6823.973992	44949.074255	3992.667999	23834.050959
19.535000	-0.003307	-0.000308	-0.004071	0.001715	6808.656482	44977.194568	3988.630216	23859.172437
20.035500	-0.001962	-0.000311	-0.001076	0.002550	6813.173403	44896.221929	3993.869433	23819.022077
20.535000	-0.001108	-0.000420	0.002600	0.001831	6827.137516	44955.164826	4004.608433	23853.607880
21.036000	-0.001278	0.000019	0.002186	0.002263	6821.792856	44955.926093	4002.532453	23832.837118
21.536000	-0.004117	-0.000054	0.001997	0.002076	6798.299285	44966.806060	4002.525464	23841.783451
22.036500	-0.000576	-0.000256	-0.003819	0.002166	6828.893888	44938.661852	3988.149590	23837.478316
22.536500	-0.002523	0.000089	-0.002804	0.002610	6807.674341	44929.099227	3989.531736	23816.147449
23.037000	-0.001886	-0.000362	0.001713	0.002084	6817.976892	44936.357471	4001.811936	23841.431814
23.537000	-0.001446	0.000781	0.002809	0.002918	6814.486926	44966.260493	4002.454612	23801.368478
24.034500	-0.003127	-0.000046	-0.002365	0.002405	6804.143860	44935.813387	3991.089754	23825.972774
24.535000	-0.001135	-0.000828	-0.007572	0.001878	6826.486214	44911.213504	3979.806352	23851.347232
25.035500	-0.001119	0.000659	-0.002545	0.002773	6818.672662	44968.376585	3989.763898	23808.313705
25.535500	-0.000795	0.000077	0.002555	0.002201	6826.631079	44967.530376	4003.591512	23835.818468
26.035500	-0.003339	-0.000016	0.003612	0.002309	6803.110976	44947.997148	4005.918298	23830.585101
26.536500	-0.003268	0.000561	0.000463	0.002317	6803.667019	45003.017001	3998.185735	23830.201753
27.036500	-0.001745	0.000152	-0.004066	0.001991	6820.051702	44994.934100	3987.974010	23845.880918
27.536000	0.002199	0.000182	-0.001311	-0.000054	6873.599544	45196.235784	3999.644430	23944.503293
28.040000	-0.003494	0.000325	-0.002235	0.006413	6765.649340	44585.955192	3981.728992	23634.233979
28.537500	-0.001582	0.000270	0.002769	0.001124	6829.211534	45090.401308	4006.763167	23887.666067
29.037500	-0.000166	0.000490	0.004238	0.001164	6841.476590	45107.843108	4010.284777	23885.730110
29.535500	-0.001514	0.001284	0.002879	0.001588	6825.693554	45143.843184	4005.891255	23865.308403
30.035500	-0.005445	0.000098	-0.000568	0.005532	6756.298148	44648.670767	3987.871761	23676.229154
30.536000	-0.001103	0.001530	0.000235	0.001812	6827.356247	45145.891416	3998.861840	23854.520646
31.038500	-0.003422	0.000972	-0.000457	0.004007	6787.411539	44879.504114	3991.834921	23749.145558
31.536000	-0.002633	0.000460	0.007217	0.002792	6805.084597	44947.289843	4013.622699	23807.382105
32.038000	-0.003774	-0.000455	-0.005124	0.004868	6776.748010	44659.360614	3978.506024	23707.971314
32.537000	-0.000744	0.000571	0.007201	0.001425	6833.985676	45090.356117	4016.974737	23873.119196
33.037500	-0.002032	0.000851	-0.005608	0.001291	6823.723145	45130.566129	3985.940324	23879.585299
33.535000	-0.000156	0.000169	0.004723	0.001115	6842.001555	45081.450298	4011.602904	23888.068096
34.035000	-0.005179	0.000264	-0.002604	0.006582	6749.460315	44563.913200	3980.437684	23626.205101
34.535000	-0.000544	0.000215	-0.001808	0.001395	6836.038547	45058.753223	3994.897095	23874.577625
35.036000	-0.002181	0.000273	-0.001862	0.002635	6810.482767	44944.416788	3991.754533	23814.938030
35.536000	-0.000750	0.000597	-0.000755	0.003145	6818.644746	44926.432516	3993.203468	23790.441265
36.036000	-0.001334	0.000218	-0.001688	0.004354	6802.764673	44773.389668	3988.010004	23732.510100
36.536000	-0.002005	0.001048	0.002650	0.002850	6810.130633	44998.622457	4002.231625	23804.618268
37.036500	-0.002371	0.000198	0.000025	0.002375	6811.099681	44962.365684	3996.975417	23827.430155
37.537000	-0.000891	0.000051	-0.001672	0.002566	6822.527905	44929.641187	3992.381665	23818.234355
38.037000	-0.002669	-0.000056	0.001778	0.002655	6805.985807	44910.810046	4000.574800	23814.000296
38.535000	-0.001770	0.000782	0.001241	0.003136	6809.672863	44945.156045	3998.084673	23790.861854
39.035000	-0.001865	0.000689	-0.002502	0.003308	6807.320082	44919.572969	3988.572068	23782.633061
39.535500	-0.002866	-0.000315	-0.001097	0.002333	6807.086034	44916.750873	3994.343673	23829.429825
40.035500	-0.002036	0.000034	-0.000639	0.002309	6814.644688	44952.804031	3995.518754	23830.584047
40.536000	-0.000425	0.000884	0.001624	0.003629	6817.233048	44907.484204	3997.816534	23767.239536
41.036500	-0.002566	0.001315	0.002576	0.003581	6798.712043	44953.720828	4000.261044	23769.548225
41.536500	-0.002517	-0.000157	-0.002850	0.002720	6806.751934	44894.625933	3989.152912	23810.834040
42.037000	-0.002767	-0.000282	-0.001695	0.002557	6805.984374	44898.422469	3992.348305	23818.698921
42.537000	-0.000963	-0.000162	0.000651	0.002622	6821.397291	44903.639383	3997.899780	23815.558984
43.037000	-0.000820	0.000504	0.001332	0.003348	6816.222250	44897.873259	3997.789629	23780.720957
43.537500	-0.000017	0.000901	-0.001523	0.003581	6821.285974	44913.744772	3990.282687	23769.555473
44.035000	-0.000337	0.000299	-0.000214	0.003375	6820.266332	44875.540164	3993.958550	23779.433382
44.535500	-0.001324	0.000821	0.001180	-0.000468	6845.710449	45298.685696	4006.767074	23964.513109
45.035500	0.001755	0.000356	0.001553	0.001293	6857.507014	45082.397820	4003.359213	23879.502905
45.536000	-0.000788	0.001328	0.000709	0.002615	6823.009835	45048.433746	3998.059127	23815.890198
46.036500	-0.006363	0.000401	0.000098	0.007515	6731.058136	44487.801715	3984.692670	23581.831963
46.537000	-0.002762	0.000783	0.002634	0.001399	6816.280206	45113.505228	4005.752633	23874.388388
47.037000	-0.001347	0.000431	-0.002702	0.001206	6830.570563	45098.060262	3993.183259	23883.705802
47.537500	-0.001534	-0.000165	-0.001686	0.001665	6824.821149	44995.887665	3994.537138	23861.563543
48.037500	-0.002348	0.000932	-0.000079	0.005598	6782.856574	44722.422829	3988.895136	23673.100047
48.535500	0.000028	0.000250	0.003125	0.003372	6823.538999	44871.015540	4002.115914	23779.552292
49.035500	-0.000062	0.001003	0.004169	0.001894	6835.894423	45086.883039	4008.313904	23850.575450
49.535500	-0.001478	0.001367	0.000759	0.002360	6819.148960	45076.925271	3998.804002	23828.157411
50.036000	-0.003558	0.000511	-0.003163	0.007491	6755.675700	44500.611463	3976.921634	23582.988927
50.536000	0.002041	0.000817	0.000525	-0.000754	6878.472848	45326.100004	4005.860597	23978.343609
51.037000	0.002207	0.000883	0.004954	0.000535	6868.367881	45207.137541	4013.610822	23916.066663
51.537000	0.002306	0.000588	0.006488	0.005727	6822.854989	44677.001964	4004.589274	23666.933339
52.037000	-0.006312	-0.005647	0.000945	0.024538	6586.691976	42340.469309	3946.428026	22788.928210
52.537000	-0.029367	-0.026624	0.010559	0.042131	6263.027434	38995.584330	3928.069231	22001.441019
53.035000	-0.017782	-0.026966	0.012861	-0.089192	7548.422504	51673.141964	4284.743944	28726.912578
53.535000	-0.009745	-0.023284	0.012660	-0.113452	7902.323092	54908.827459	4361.450911	30207.582031
54.035500	-0.018251	-0.020706	0.003299	-0.063993	7285.339247	49595.349651	4181.153767	27273.999571
54.535000	-0.004075	-0.012403	0.006467	-0.077867	7573.635934	52037.463801	4230.903248	28063.505539
55.036000	0.008433	-0.010330	0.014561	-0.067952	7601.235643	51159.714880	4225.493632	27496.729478
55.536500	0.018218	-0.006362	0.019099	-0.082982	7873.907846	53314.009886	4284.830564	28360.993591
56.036000	0.023787	-0.003571	0.018501	-0.065451	7740.529236	51634.422057	4229.768603	27355.815633
56.537000	0.027685	-0.002905	0.029228	-0.025160	7356.584999	47391.714325	4144.759692	25193.719493
57.037000	0.039431	0.000308	0.040385	0.003426	7189.534084	44871.448533	4097.293635	23776.968306
57.537500	0.050939	0.005058	0.055477	0.028294	7061.534078	42975.209361	4071.489885	22618.105047
58.035500	0.064693	0.009924	0.072293	0.063722	6862.070922	40257.573938	4023.940650	21077.618042
58.535000	0.080816	0.017704	0.086231	0.108050	6616.976985	37248.953728	3950.554683	19318.981028
59.036000	0.101293	0.028239	0.107700	0.146028	6472.705985	35150.606635	3912.788086	17948.632548
59.536000	0.123798	0.041314	0.133381	0.188650	6313.898475	33034.692716	3875.496485	16546.877729
60.036000	0.143442	0.055433	0.155929	0.231721	6137.996382	31096.611355	3832.227936	15263.456942
60.536500	0.170075	0.073500	0.179111	0.276411	6008.747676	29424.871135	3789.023922	14059.719556
61.036500	0.189587	0.084072	0.199979	0.296940	6001.622236	28825.426801	3789.686291	13546.927873
61.537000	0.207420	0.098937	0.218417	0.327534	5913.675488	27906.170722	3766.179339	12826.341741
62.037500	0.220418	0.111222	0.237089	0.359673	5786.500652	26792.379634	3740.894670	12122.090564
62.535000	0.238955	0.122845	0.249960	0.363587	5883.153812	27218.839949	3757.624595	12039.838515
63.035000	0.251989	0.134171	0.256526	0.383415	5837.843791	26748.966553	3732.975096	11634.312791
63.535500	0.257604	0.140610	0.264633	0.395368	5796.212921	26449.121247	3725.966958	11398.648187
64.035500	0.258482	0.143208	0.265967	0.401631	5761.314002	26251.873181	3717.075391	11277.728785
64.539000	0.262962	0.146008	0.272069	0.401663	5790.107074	26400.695637	3728.039564	11277.116132
65.036500	0.265250	0.148733	0.272813	0.406252	5775.170306	26300.366761	3721.075596	11189.618778
65.537000	0.270920	0.151773	0.279893	0.411253	5779.508368	26195.317849	3724.833052	11095.326536
66.037000	0.266346	0.151740	0.275293	0.417710	5708.899836	25850.974738	3705.053948	10975.166070
66.537500	0.272033	0.155227	0.289044	0.418768	5738.312638	25979.279914	3727.802892	10955.656014
67.036500	0.273300	0.154918	0.285583	0.419687	5740.537847	25914.368779	3719.878740	10938.746372
67.534500	0.276245	0.155425	0.286702	0.423027	5738.014310	25765.251851	3715.890774	10877.567367
68.035500	0.280547	0.159414	0.284235	0.427256	5738.478601	25752.624019	3703.989553	10800.767281
68.535500	0.282425	0.159840	0.287271	0.428272	5743.988978	25721.760401	3707.560824	10782.439607
69.036000	0.280993	0.159391	0.285277	0.428828	5731.297675	25669.163801	3703.056033	10772.426007
69.536500	0.281998	0.161425	0.296129	0.431267	5722.169909	25648.011854	3718.018155	10728.623950
70.036500	0.280726	0.161131	0.295785	0.435641	5686.553530	25405.684949	3709.590534	10650.710251
70.536500	0.285875	0.162126	0.293224	0.433857	5730.363065	25549.638522	3708.212452	10682.404522
71.037000	0.285313	0.162072	0.295816	0.434601	5722.053799	25508.183110	3711.496495	10669.162250
71.537500	0.284582	0.162353	0.294582	0.437469	5699.295278	25374.437062	3704.226896	10618.388014
72.035000	0.283650	0.162532	0.289254	0.439252	5682.247682	25291.884650	3691.783596	10586.981284
72.535000	0.284996	0.162599	0.294576	0.437038	5704.618643	25409.356203	3704.974989	10625.991705
73.035000	0.286998	0.164090	0.302313	0.438706	5706.725222	25400.209928	3715.768608	10596.578687
73.535500	0.288193	0.163852	0.303057	0.440933	5700.221587	25273.344191	3713.117860	10557.490837
74.036000	0.286095	0.163213	0.302115	0.441783	5681.706511	25196.985183	3709.925015	10542.612325
74.536500	0.291442	0.165132	0.297376	0.440886	5721.061381	25341.547989	3703.128003	10558.316037
75.036500	0.288977	0.164547	0.301649	0.441563	5701.190289	25276.696290	3709.488956	10546.470918
75.536500	0.288080	0.164361	0.300390	0.442429	5690.098290	25222.715037	3705.722635	10531.332421
76.037500	0.291050	0.165638	0.303426	0.444371	5696.562002	25188.675687	3707.659700	10497.531722
76.537500	0.293550	0.167355	0.302361	0.444546	5711.228160	25267.715287	3705.465306	10494.493938
77.035000	0.291482	0.167391	0.305623	0.444282	5699.838573	25283.049473	3711.720015	10499.072423
77.535000	0.291952	0.166342	0.300237	0.446528	5688.677253	25114.538955	3698.244009	10460.155098
78.035500	0.292997	0.165830	0.302125	0.445382	5702.457715	25146.854263	3703.572411	10479.983888
78.535500	0.291339	0.165901	0.300159	0.445189	5693.233750	25160.300618	3700.453586	10483.331049
79.035500	0.295470	0.166945	0.303997	0.447259	5706.219082	25108.006950	3703.563322	10447.527220
79.536500	0.292796	0.165478	0.297502	0.447781	5686.112806	25006.883701	3691.295224	10438.528692
80.036500	0.293793	0.167556	0.308068	0.448712	5686.528776	25065.116401	3708.192466	10422.498212
80.536500	0.293199	0.165217	0.308395	0.447514	5690.315143	25007.199560	3710.903325	10443.135269
81.037500	0.294391	0.166263	0.298707	0.448456	5691.882033	25012.469630	3692.213939	10426.895639
81.537500	0.295900	0.167672	0.306447	0.452961	5673.136664	24855.999555	3697.853102	10349.781364
82.035000	0.294796	0.165514	0.310956	0.450334	5682.644037	24879.604894	3710.439759	10394.646197
82.535000	0.294877	0.166892	0.307071	0.451492	5675.916384	24890.712316	3701.523473	10374.837295
83.035000	0.297910	0.167030	0.306936	0.452686	5687.425984	24837.518770	3699.191662	10354.465370
83.536000	0.294860	0.164749	0.306611	0.452938	5666.792521	24710.393626	3698.179544	10350.163268
84.035500	0.299999	0.167066	0.312678	0.453188	5697.392163	24814.061509	3708.431015	10345.910138
84.536500	0.299475	0.166447	0.308964	0.453367	5692.971342	24774.004794	3701.555697	10342.872774
85.037000	0.300572	0.166944	0.312721	0.454528	5692.564957	24740.643233	3706.132030	10323.131794
85.537000	0.301106	0.165696	0.313814	0.456271	5684.987529	24591.343509	3704.984146	10293.624742
86.035000	0.299185	0.165103	0.314368	0.454410	5684.607281	24654.538366	3709.260770	10325.140545
86.535000	0.297341	0.165519	0.313123	0.455125	5668.626414	24639.602584	3705.788150	10313.008908
87.035000	0.300278	0.167127	0.310321	0.457151	5674.306607	24618.812969	3697.302451	10278.770205
87.535500	0.298500	0.165714	0.309443	0.458069	5657.537527	24502.972934	3694.168219	10263.295316
88.035500	0.297091	0.165016	0.315423	0.457449	5652.647276	24499.081109	3705.745770	10273.743643
88.536000	0.299669	0.165461	0.311346	0.456829	5672.520936	24551.929646	3699.660031	10284.201867
89.036500	0.301203	0.165750	0.313727	0.458192	5673.581192	24498.642605	3701.446459	10261.226099
89.537000	0.296371	0.163683	0.315253	0.458739	5640.232068	24369.547543	3703.169247	10252.028618
90.037000	0.303125	0.166248	0.316990	0.459796	5675.564645	24443.936231	3704.368892	10234.284596
90.537000	0.298926	0.164749	0.315453	0.459798	5649.465915	24369.862615	3701.658636	10234.252983
91.034500	0.298821	0.165369	0.307046	0.460146	5646.669199	24383.277439	3686.418666	10228.419475
91.535000	0.299582	0.164793	0.312056	0.460433	5649.598478	24340.782987	3694.601954	10223.620835
92.035000	0.298709	0.164746	0.303847	0.461416	5638.148366	24290.222114	3678.758005	10207.182131
92.536000	0.298927	0.165645	0.307403	0.462103	5635.260491	24300.582881	3683.666184	10195.710552
93.035000	0.300695	0.166531	0.314505	0.463370	5638.340367	24281.903261	3693.750561	10174.609745
93.536000	0.299176	0.166015	0.310407	0.465980	5613.042301	24129.129214	3682.169550	10131.350190
94.036500	0.302356	0.164878	0.307601	0.464471	5641.789028	24147.252959	3679.949369	10156.324063
94.534000	0.298749	0.164477	0.316500	0.463411	5626.139295	24179.425865	3697.159697	10173.937145
95.037000	0.300467	0.165074	0.314889	0.464138	5632.212286	24173.014857	3693.082701	10161.850264
95.537500	0.299044	0.164693	0.309588	0.466396	5609.703574	24044.662348	3680.055992	10124.479567
96.037000	0.297104	0.164463	0.301900	0.464433	5609.838509	24128.882039	3670.339628	10156.964089
96.535500	0.301011	0.165806	0.309893	0.466204	5622.886342	24108.053587	3680.905440	10127.646275
97.035500	0.303323	0.165795	0.306700	0.466781	5633.525662	24079.454358	3674.484084	10118.111890
