sample name	sample
index	1368
start time	 05-03-2021  02:17:25 PM
880	0.219344
Peak Time (s)	92.037
Peak Height 	0.2193
calc peak height	90,93
Baseline Time (s)	11.037
Baseline Value 	-0.00396
subtract baseline	10,4
Abs	0.144466
Peak Time (s)	91.036
Peak Height 	0.1445
calc peak height	90,93
Baseline Time (s)	9.036
Baseline Value 	0.003304
subtract baseline	10,3
PK_550	0.084456
Peak Time (s)	92.037
Peak Height 	0.08446
calc peak height	90,93
Baseline Time (s)	10.036
Baseline Value 	6.558E-4
subtract baseline	10,2
PK_880	0.138458
Peak Time (s)	91.036
Peak Height 	0.1385
calc peak height	90,93
Baseline Time (s)	11.037
Baseline Value 	0.001147
subtract baseline	10,1


Time (s)	A880-A510	A880-A775	A880-A975	A880	I510	I775	I975	I880	
0.035500	-0.003740	-0.001408	0.001545	0.004601	6092.363279	42126.222616	3922.560360	21975.366350
0.535500	-0.002162	-0.000160	-0.004349	0.003654	6110.485064	42324.432945	3911.722485	22016.846482
1.036000	-0.001393	-0.000339	0.000924	0.002955	6121.062178	42371.472693	3924.822904	22047.500897
1.541000	0.000396	-0.000403	-0.000941	0.003642	6129.028402	42303.485364	3919.202160	22017.341821
2.037000	-0.000976	-0.001201	0.002784	0.001148	6137.158859	42457.176849	3932.957201	22126.961431
2.537500	0.000479	0.000572	0.003763	0.001369	6146.130495	42598.390687	3934.645132	22117.207609
3.040000	0.002074	-0.000439	0.001030	-0.002395	6185.376518	42850.056918	3936.951398	22283.757999
3.534500	-0.000828	-0.000376	0.002032	0.002066	6131.577236	42448.763770	3929.243399	22086.531656
4.035000	0.002418	-0.001481	-0.001445	-0.000313	6172.593415	42564.627151	3926.810233	22191.468618
4.536000	-0.001790	-0.000367	0.001804	-0.000012	6139.673305	42638.648343	3933.357284	22178.144074
5.036000	0.000247	0.000336	-0.000658	0.000816	6148.466478	42627.267250	3926.054480	22141.604681
5.535500	0.000363	0.000196	0.000711	0.000511	6151.538843	42642.334832	3929.764374	22155.066183
6.038500	-0.000929	0.000420	0.003204	0.000419	6142.798686	42671.216961	3935.521933	22159.137835
6.537000	0.000381	-0.001039	0.004923	-0.000513	6159.147053	42623.096059	3941.460787	22200.325468
7.036500	0.000384	-0.000556	0.001529	-0.000203	6156.898524	42638.874883	3933.170807	22186.609244
7.537500	-0.001018	-0.000174	-0.003220	-0.000056	6145.611410	42660.379182	3922.323240	22180.123917
8.034500	0.001380	-0.000772	-0.004245	-0.000716	6167.941906	42666.025096	3921.519702	22209.319185
8.535000	0.000973	0.000193	-0.001214	0.000574	6155.525859	42636.341784	3925.360025	22152.296303
9.035500	-0.000774	0.000028	0.000000	-0.000575	6151.157361	42726.122647	3930.595490	22203.037447
9.538500	-0.001071	-0.001426	0.000063	-0.001742	6157.516278	42700.043352	3933.334217	22254.788040
10.036000	0.000961	0.000000	-0.000669	-0.000581	6163.881618	42724.208650	3929.124917	22203.339759
10.539000	-0.002465	-0.000842	0.002303	0.000107	6133.914157	42584.525750	3934.205682	22172.904750
11.037000	0.000000	0.000521	0.002457	0.000000	6152.614910	42718.663609	3934.787060	22177.630505
11.537000	0.001091	-0.000074	-0.001732	0.000054	6160.182407	42659.395367	3925.363106	22175.232181
12.037000	0.001688	-0.000520	0.001139	-0.000431	6168.105893	42662.951594	3932.808371	22196.671603
12.534500	0.000788	0.000127	-0.001330	0.000584	6154.104229	42629.427122	3925.080387	22151.845332
13.035000	-0.000101	-0.000359	0.003462	-0.001589	6163.491538	42783.564234	3940.595485	22247.992434
13.535500	0.001346	0.000097	0.000346	-0.000599	6166.830858	42734.715061	3931.418411	22204.125435
14.035500	-0.001545	-0.000576	-0.000219	0.001016	6133.990443	42525.950714	3926.582805	22132.770514
14.536000	-0.001266	0.000178	0.000192	0.001530	6132.292077	42547.894194	3926.354774	22110.140616
15.036000	-0.000192	-0.000515	0.001960	-0.000778	6156.889482	42695.097144	3935.413434	22212.022349
15.536500	0.000903	-0.000185	-0.001169	-0.000316	6161.517473	42683.050622	3927.427674	22191.578051
16.037000	0.001168	-0.000865	0.001137	-0.001310	6170.737436	42711.713736	3934.764751	22235.603515
16.537000	-0.001601	-0.000167	-0.002155	0.000833	6134.915419	42579.928378	3922.712582	22140.874477
17.034500	0.006295	0.000392	0.000245	-0.003450	6224.489780	43023.416269	3937.553967	22330.685252
17.535000	-0.000803	-0.000469	0.001122	-0.000339	6149.234532	42659.182579	3932.567189	22192.618327
18.035000	0.001552	0.000092	0.004040	0.000457	6160.607567	42637.749069	3937.303248	22157.439096
18.538500	-0.001685	0.000038	-0.002077	0.000995	6133.127574	42583.815955	3922.525881	22133.712188
19.035500	-0.000267	-0.000086	-0.000067	0.000433	6147.516699	42623.717834	3928.210333	22158.508372
19.539000	0.000206	-0.000574	-0.000353	0.000152	6153.011166	42604.910937	3928.201089	22170.925955
20.036000	0.000212	0.000122	0.003237	0.000830	6148.111330	42606.507481	3934.675187	22140.971971
20.536500	0.000477	0.000322	0.002796	0.000258	6154.212483	42676.972209	3934.967529	22166.231843
21.037000	-0.001064	-0.000562	-0.000754	-0.000024	6145.037531	42621.953491	3927.699807	22178.679029
21.537000	-0.000109	0.000267	0.001185	0.000553	6147.797537	42645.041956	3930.724042	22153.229553
22.037500	-0.000245	0.000398	-0.005347	0.000729	6145.519165	42640.903962	3915.929082	22145.434609
22.538000	-0.001461	-0.000767	-0.000195	0.000470	6138.557909	42558.316907	3927.844660	22156.856192
23.035500	0.000128	-0.000256	0.002408	0.000536	6149.641213	42598.796269	3933.482463	22153.941832
23.535000	0.000357	0.000167	0.003008	0.000708	6150.060839	42621.805046	3934.437620	22146.385426
24.041000	-0.000909	0.000010	0.003327	0.000208	6144.479957	42653.037771	3936.265739	22168.436843
24.536000	0.000447	0.000146	-0.005505	0.000957	6148.897912	42597.034781	3915.083989	22135.369028
25.036500	-0.000438	-0.000221	0.004056	0.000464	6146.043240	42608.646846	3937.324370	22157.155976
25.537000	0.001607	-0.000563	-0.002750	0.000174	6163.079225	42603.852177	3922.852702	22169.938019
26.037000	-0.000712	-0.000105	-0.000169	0.000675	6142.512710	42599.950098	3927.447883	22147.827251
26.534500	0.000231	-0.000045	0.000471	0.000049	6153.946023	42662.482804	3930.256413	22175.466657
27.035000	0.001134	-0.000283	0.002096	-0.001801	6174.092072	42809.907514	3938.005208	22257.366161
27.537500	0.002251	0.000452	-0.001161	-0.002156	6184.916427	42909.902038	3931.528338	22273.122902
28.035500	0.001633	0.000550	0.003377	-0.000594	6168.899985	42775.742663	3938.173955	22203.917814
28.538000	0.001493	0.000221	-0.000991	-0.000537	6167.453948	42740.355794	3928.313563	22201.393057
29.036000	-0.001562	-0.001458	-0.000691	-0.001799	6154.348653	42702.214340	3931.781157	22257.305908
29.539000	-0.001591	-0.000205	-0.003291	0.004560	6108.069040	42238.425601	3912.052318	21977.168571
30.036500	0.002801	0.001049	-0.001427	0.000123	6172.204719	42755.712447	3925.884218	22172.180077
30.539500	-0.001420	-0.001318	-0.000202	0.000050	6141.912743	42546.387152	3928.760071	22175.405655
31.037000	0.001110	0.000676	0.000838	0.001861	6147.137588	42563.064097	3927.050434	22095.556809
31.534500	-0.002208	-0.000871	-0.005400	0.004311	6105.427664	42200.789174	3908.008459	21988.065487
32.035000	-0.001728	0.000023	0.005992	-0.000704	6145.160953	42737.511981	3944.294930	22208.778846
32.535000	-0.000662	-0.000354	-0.001654	-0.000129	6148.732641	42650.611149	3925.942005	22183.352534
33.038500	0.000508	0.000845	0.008321	-0.001081	6164.230294	42847.319215	3950.412153	22225.472151
33.538500	0.000832	-0.000390	-0.002300	0.003159	6135.693306	42348.378057	3917.281172	22038.546950
34.036000	-0.000251	-0.000537	0.004538	0.000350	6148.240137	42590.230991	3938.660519	22162.185280
34.536500	-0.001063	-0.000519	-0.003172	0.000088	6144.229456	42615.694406	3922.110168	22173.725620
35.036500	-0.000591	0.000306	-0.001339	0.001436	6137.865005	42568.029037	3923.181932	22114.282657
35.536500	-0.001045	-0.000215	0.001700	0.002318	6128.185691	42440.458101	3927.949389	22075.471189
36.037000	0.002074	-0.000033	-0.003918	0.000536	6163.856420	42619.201249	3919.486084	22153.980333
36.537000	0.001897	-0.000056	0.001370	0.000577	6162.257711	42613.318339	3931.081141	22152.138197
37.035000	0.000131	0.000473	0.001010	0.001338	6143.826678	42592.188714	3928.591325	22118.594054
37.537500	0.001241	-0.000062	-0.002923	0.002322	6144.737177	42454.003004	3917.749542	22075.278224
38.035500	-0.003674	-0.000533	-0.001106	0.000252	6124.113348	42599.551328	3926.310517	22166.518392
38.535500	-0.000894	-0.000891	-0.002624	0.000213	6144.557874	42570.474977	3923.044291	22168.238463
39.036000	0.000574	-0.000760	0.003259	0.000780	6151.115166	42530.764133	3934.837771	22143.197302
39.536000	-0.002261	0.000159	0.002929	0.001113	6128.108762	42584.122182	3933.359763	22128.526076
40.037000	-0.003241	-0.000348	-0.000293	0.000989	6121.909138	42549.191597	3926.477095	22133.955600
40.536500	-0.001588	-0.001686	0.000823	0.000173	6139.797122	42501.736288	3930.762962	22169.990116
41.037500	-0.000889	-0.000460	0.000743	0.000659	6141.344595	42569.008713	3929.505083	22148.511467
41.538000	0.000187	-0.000402	0.002438	0.000612	6149.514727	42578.579614	3933.380350	22150.600657
42.038000	0.000025	0.000350	0.001518	0.001671	6140.628222	42550.603039	3928.979908	22103.910347
42.535000	-0.002306	0.000113	-0.000790	0.001052	6128.221760	42585.429034	3925.241319	22131.199705
43.035500	0.000933	-0.000232	-0.000158	0.001022	6151.964892	42556.775074	3926.705195	22132.533358
43.535500	0.002622	0.000462	0.003900	-0.003699	6199.053371	43052.869288	3946.332008	22341.807476
44.036000	-0.001042	0.000000	-0.001371	-0.001001	6152.312036	42762.584591	3928.498009	22221.904888
44.539500	-0.001433	-0.000141	0.001614	0.000477	6138.714978	42614.641378	3931.844796	22156.549220
45.037000	0.000627	0.000055	0.004283	-0.000266	6159.131687	42700.353444	3939.466692	22189.381834
45.539500	-0.003052	-0.000177	-0.003561	0.005115	6093.606248	42190.829959	3910.255975	21952.903432
46.035000	-0.000350	0.000070	0.001152	-0.000500	6153.710938	42723.192774	3932.991543	22199.729329
46.541000	0.001069	0.000189	0.004085	0.000452	6157.122097	42647.143125	3937.417599	22157.684493
47.035500	-0.001422	-0.000497	-0.000076	0.000938	6135.444781	42540.310790	3927.071469	22136.212672
47.541500	-0.001531	-0.000132	0.002291	0.002804	6121.161094	42403.954921	3928.182532	22054.138549
48.036000	0.000026	-0.000389	-0.000338	-0.000916	6159.493357	42719.253396	3930.602926	22218.143399
48.536000	0.001737	-0.000512	0.002786	0.000309	6163.048691	42596.171268	3934.832522	22163.971944
49.036500	0.001007	-0.000064	0.001643	-0.001023	6167.453701	42758.743890	3935.252210	22222.870780
49.539000	0.001773	0.000126	0.000454	0.002975	6143.856224	42411.811136	3923.740691	22046.597518
50.037000	0.003379	-0.000197	0.004284	0.003312	6153.102127	42351.978340	3931.478900	22031.809459
50.545500	0.030522	-0.024899	0.046970	0.658158	3731.791675	11245.357910	3201.443221	7202.200688
51.037500	0.016507	-0.020521	-0.024186	0.028882	6063.640367	38407.618869	3818.458694	20942.819260
51.535000	0.011086	-0.062240	-0.024256	-0.241521	8651.642979	62935.614499	4555.002348	36454.579903
52.035500	0.016664	-0.036820	-0.011262	-0.159960	7742.132392	55669.914066	4322.856882	30723.964707
52.535500	0.020610	-0.064279	-0.005459	-0.248868	8876.102217	63672.456560	4653.629261	37025.593179
53.036000	0.019693	-0.044745	-0.001658	-0.215711	8431.568396	61799.405390	4543.290530	34523.459969
53.539000	0.014676	-0.028806	0.000261	-0.177126	7911.325855	58812.800384	4415.550949	31842.328069
54.036500	0.016288	-0.022629	0.003100	-0.160371	7742.526918	57470.354900	4369.822260	30750.267779
54.544500	0.014879	-0.024583	0.003595	-0.180202	7948.651668	59758.446362	4437.108286	32047.401666
55.037000	0.023074	-0.021207	0.007699	-0.168866	7912.893931	58728.014985	4412.807487	31298.676757
55.534500	0.026128	-0.009305	0.010736	-0.090912	7132.294195	50868.030846	4183.489039	26646.596910
56.034500	0.029892	-0.001919	0.022096	-0.046170	6758.894117	46924.341400	4093.377658	24330.367239
56.535000	0.034607	0.005688	0.027944	-0.005900	6462.262126	43743.388665	4007.433574	22440.159548
57.035500	0.042271	0.013130	0.034349	0.024016	6288.586624	41689.475088	3952.526314	21145.138283
57.536000	0.043519	0.016043	0.030453	0.057370	6053.196211	39071.806960	3871.397783	19802.703844
58.036000	0.050735	0.022028	0.041823	0.088571	5888.346245	37038.055216	3830.960676	18636.862577
58.536000	0.062832	0.025928	0.052392	0.124259	5734.856912	34637.037643	3782.323531	17402.159771
59.036500	0.065664	0.029361	0.057344	0.133246	5696.163869	34235.243442	3774.769854	17106.897984
59.536500	0.070997	0.034704	0.061624	0.126706	5771.296782	35101.175438	3795.184799	17321.151105
60.039500	0.082128	0.039737	0.075815	0.124886	5855.634984	35611.467367	3826.343925	17381.374658
60.534500	0.082082	0.043458	0.075525	0.154715	5664.817072	33709.877485	3768.667659	16425.810484
61.035000	0.084887	0.045579	0.073056	0.162953	5631.504807	33280.613678	3749.108392	16173.259336
61.535000	0.084560	0.047243	0.086847	0.165807	5612.187337	33197.745974	3769.091479	16086.871355
62.035000	0.086571	0.052355	0.084393	0.164868	5630.097011	33621.222894	3766.293690	16115.250711
62.536000	0.090899	0.054787	0.090853	0.166343	5647.527374	33688.728286	3775.537777	16070.709576
63.046500	0.097000	0.056049	0.092587	0.165284	5691.785638	33853.096526	3780.764824	16102.675655
63.544500	0.096934	0.057410	0.092395	0.165532	5689.829162	33932.248718	3779.940251	16095.187324
64.042500	0.096692	0.058077	0.104393	0.165812	5686.585497	33959.828079	3802.214128	16086.746007
64.540000	0.101803	0.059401	0.098906	0.168209	5703.513920	33883.401559	3787.161014	16014.616423
65.037000	0.103080	0.061668	0.100239	0.170021	5700.167535	33915.789194	3786.256189	15960.379606
65.535000	0.106018	0.062747	0.101910	0.172532	5702.839346	33814.074731	3784.669389	15885.583946
66.035500	0.104325	0.064884	0.109148	0.175227	5675.521116	33774.539010	3793.282660	15805.769058
66.535500	0.105925	0.065956	0.103743	0.176588	5676.995168	33754.014607	3780.486753	15765.643398
67.036000	0.109224	0.067030	0.110068	0.178942	5682.864250	33663.563865	3787.973796	15696.570968
67.536000	0.113092	0.068899	0.113627	0.182542	5684.527981	33541.672279	3787.895129	15591.632891
68.036000	0.111008	0.069558	0.113933	0.183561	5665.312095	33516.446024	3786.547325	15562.108846
68.536500	0.112807	0.069360	0.117272	0.183345	5677.770980	33517.684082	3793.295209	15568.348470
69.039500	0.114339	0.070537	0.113401	0.183167	5688.397107	33613.013795	3786.286468	15573.518758
69.537500	0.114980	0.070995	0.111604	0.185855	5675.687228	33456.286656	3777.853511	15495.855061
70.034500	0.117772	0.073013	0.113954	0.186781	5687.268766	33532.935943	3780.520871	15469.194960
70.535000	0.120130	0.073481	0.116739	0.190964	5675.938124	33273.041956	3777.902054	15349.539157
71.035500	0.117777	0.074011	0.117016	0.191392	5658.769774	33280.182095	3777.619025	15337.371004
71.535500	0.119096	0.073613	0.114006	0.194902	5645.311998	33009.065987	3765.517349	15237.937742
72.036000	0.119406	0.075801	0.120465	0.197492	5631.381928	32981.291764	3772.676504	15165.085739
72.536000	0.119449	0.075548	0.118791	0.199797	5617.637633	32805.297031	3765.315535	15100.604725
73.036500	0.119600	0.076959	0.126966	0.200959	5611.514048	32822.410557	3778.334739	15068.239893
73.539500	0.122114	0.077091	0.128182	0.204274	5606.673650	32604.718325	3774.416128	14976.352390
74.040000	0.123987	0.078341	0.124860	0.204637	5615.808779	32665.248466	3767.581004	14966.342700
74.534500	0.124489	0.078821	0.119579	0.206408	5608.131397	32577.287556	3754.663844	14917.587388
75.037500	0.123884	0.079501	0.120230	0.206051	5606.633333	32647.883772	3756.495423	14927.388348
75.535000	0.126167	0.080373	0.127164	0.208905	5603.192331	32513.041977	3763.963152	14849.193455
76.035000	0.125766	0.079782	0.129592	0.207881	5606.951276	32542.486866	3770.334244	14877.192051
76.536000	0.125608	0.081037	0.126798	0.210449	5590.541543	32453.311683	3760.458136	14807.070860
77.036000	0.128019	0.081630	0.128205	0.210174	5606.706655	32512.182748	3763.543240	14814.560185
77.536500	0.129772	0.081674	0.123218	0.212567	5602.844495	32353.082472	3750.097581	14749.561722
78.039500	0.126454	0.082424	0.132516	0.212018	5586.207780	32441.008409	3768.089430	14764.450552
78.537000	0.129945	0.082756	0.128925	0.212531	5604.102237	32428.733516	3760.541916	14750.538139
79.037000	0.128197	0.082459	0.132473	0.213493	5587.816371	32343.583863	3765.290816	14724.516803
79.534500	0.127901	0.083560	0.135460	0.214891	5577.683883	32323.572854	3768.221667	14686.788925
80.035000	0.129719	0.083705	0.136569	0.215896	5582.543896	32265.576857	3768.414082	14659.741420
80.538000	0.130357	0.082527	0.129201	0.215265	5590.140890	32228.787628	3756.054320	14676.718356
81.035000	0.134277	0.084291	0.139789	0.217766	5598.662662	32179.236368	3770.912540	14609.573909
81.535500	0.131246	0.082757	0.134758	0.218837	5574.098163	32004.807088	3759.675340	14580.944941
82.036000	0.131131	0.083770	0.129302	0.217488	5581.464223	32162.968539	3752.201448	14617.033333
82.539000	0.131442	0.083710	0.133870	0.218014	5580.180146	32123.592030	3759.556324	14602.936227
83.037000	0.132660	0.084051	0.139225	0.217651	5589.638802	32170.788060	3770.079239	14612.644031
83.534500	0.132115	0.083844	0.132329	0.216355	5594.148113	32243.995012	3759.772787	14647.394463
84.034500	0.133513	0.083960	0.138318	0.216632	5600.896270	32233.218592	3770.289540	14639.974686
84.537500	0.133868	0.084207	0.139110	0.216699	5602.626604	32245.296023	3771.632231	14638.167653
85.035000	0.130612	0.082563	0.129850	0.214633	5595.465590	32273.715990	3758.389523	14693.734664
85.535500	0.135272	0.083900	0.140871	0.215782	5616.656825	32286.408806	3776.619163	14662.812321
86.036000	0.131632	0.082746	0.138812	0.215421	5596.857525	32232.980297	3773.453603	14672.504148
86.535500	0.132337	0.083254	0.141539	0.215294	5601.872285	32275.741206	3778.782073	14675.942815
87.039000	0.133831	0.082906	0.138115	0.215474	5609.798636	32240.200454	3772.060716	14671.097365
87.536500	0.131769	0.083010	0.130691	0.215453	5597.497661	32248.626571	3758.428289	14671.661709
88.037000	0.134141	0.083140	0.134767	0.215490	5611.576649	32254.820414	3765.835839	14670.650548
88.537000	0.132186	0.083093	0.135318	0.215858	5597.567228	32226.962639	3766.174003	14660.761632
89.037500	0.128910	0.082636	0.137180	0.216082	5576.595069	32181.166827	3769.199822	14654.742803
89.535000	0.131062	0.083222	0.131658	0.217517	5580.879029	32124.269982	3756.428857	14616.256623
90.038000	0.133833	0.084018	0.136431	0.217271	5598.972157	32194.160780	3765.621251	14622.839979
90.535500	0.133448	0.082730	0.142059	0.217914	5592.792988	32064.762255	3774.858573	14605.626490
91.036000	0.138458	0.083919	0.144466	0.218046	5622.243538	32135.500691	3779.109583	14602.082118
91.539000	0.134297	0.083742	0.142813	0.219045	5591.101242	32056.743112	3774.154582	14575.389113
92.036500	0.137625	0.084456	0.138103	0.219344	5609.341904	32084.527003	3764.882247	14567.422979
92.536500	0.136003	0.084179	0.134799	0.219121	5600.899334	32080.919982	3759.231982	14573.375154
93.066500	0.136585	0.084294	0.136678	0.219852	5600.001039	32039.712112	3761.332992	14553.879808
93.534500	0.134851	0.083100	0.140761	0.220243	5587.241998	31934.005115	3768.128351	14543.478139
94.037500	0.134604	0.082788	0.142917	0.219523	5590.074337	31961.116088	3773.457958	14562.633390
94.535500	0.134091	0.082789	0.144678	0.219986	5584.227489	31930.380058	3775.877904	14550.317662
95.035500	0.138813	0.082967	0.140128	0.220457	5609.794090	31910.910973	3766.563568	14537.786102
95.535500	0.138430	0.083112	0.133274	0.221753	5599.665704	31834.399327	3751.669887	14503.353137
96.039000	0.133439	0.082182	0.140492	0.220440	5577.620739	31859.859721	3767.266509	14538.237189
