sample name	sample
index	762
start time	 03-31-2021  12:24:43 PM
880	0.481395
Peak Time (s)	92.537
Peak Height 	0.4814
calc peak height	90,93
Baseline Time (s)	10.036
Baseline Value 	-9.9538E-4
subtract baseline	10,4
Abs	0.342449
Peak Time (s)	92.037
Peak Height 	0.3424
calc peak height	90,93
Baseline Time (s)	8.536
Baseline Value 	4.6074E-5
subtract baseline	10,3
PK_550	0.159914
Peak Time (s)	90.535
Peak Height 	0.1599
calc peak height	90,93
Baseline Time (s)	10.036
Baseline Value 	4.6651E-4
subtract baseline	10,2
PK_880	0.335272
Peak Time (s)	92.537
Peak Height 	0.3353
calc peak height	90,93
Baseline Time (s)	11.537
Baseline Value 	0.001015
subtract baseline	10,1


Time (s)	A880-A510	A880-A775	A880-A975	A880	I510	I775	I975	I880	
0.039000	-0.001897	-0.000812	-0.003959	0.000495	6742.484879	40867.069058	3996.743410	22350.107230
0.536500	-0.002090	0.000497	-0.002268	0.004783	6703.939221	40608.245146	3990.556093	22159.718181
1.088500	-0.000269	-0.000277	-0.001493	0.003671	6729.128687	40637.554244	3995.048870	22208.915949
1.537500	-0.001842	-0.000266	0.000193	0.001234	6736.575974	40850.150027	4004.929780	22317.141867
2.051000	-0.001829	-0.000822	-0.005063	0.000416	6743.757196	40873.045810	3994.297627	22353.614752
2.538000	-0.002578	-0.001226	-0.001766	0.002530	6719.069077	40654.076646	3997.119376	22259.494815
3.035500	-0.000609	-0.000603	-0.003486	-0.002052	6775.785978	41107.987158	4003.981835	22464.061311
3.538500	0.000556	0.000591	0.001763	0.000770	6761.358710	40965.459639	4009.836996	22337.805969
4.036000	-0.002051	-0.000209	-0.002039	0.000528	6740.865270	40916.733514	4001.259253	22348.599921
4.536500	-0.000925	-0.000411	0.000271	0.000192	6753.529644	40928.463737	4007.630569	22363.630307
5.037000	-0.000859	-0.000395	-0.003991	0.000125	6754.675475	40935.637366	3997.549893	22366.582329
5.536500	-0.000438	-0.000080	0.000580	0.000269	6757.078703	40950.644139	4008.188880	22360.179396
6.037000	-0.002345	-0.000905	0.002390	0.000004	6742.848327	40901.736336	4013.211944	22371.994767
6.537000	-0.000320	-0.000204	-0.005676	0.001063	6751.221034	40870.525692	3991.297576	22324.767729
7.034500	-0.001047	-0.001272	0.002026	-0.000474	6758.238319	40911.371616	4013.489861	22393.364678
7.537000	-0.002286	-0.000734	-0.001605	0.000002	6743.380851	40916.768103	4003.565898	22372.086937
8.035500	-0.001186	0.000058	0.001229	0.000257	6750.697651	40963.718788	4009.788608	22360.717238
8.535500	-0.000187	0.000951	0.000000	0.000571	6756.636695	41014.301286	4006.060225	22346.681585
9.035500	0.001424	-0.000041	0.002283	0.000306	6772.959073	40950.858704	4012.222221	22358.539703
9.536000	-0.001984	-0.000456	0.001525	-0.000075	6746.663351	40947.847677	4011.308463	22375.534206
10.036000	0.000278	0.000000	-0.002413	0.000000	6765.639013	40981.120158	4001.630486	22372.187013
10.537000	-0.001897	0.000013	-0.000135	-0.000163	6748.175793	40996.509605	4007.508179	22379.488215
11.036500	0.000919	0.000459	0.000879	0.000552	6766.412503	40973.047565	4008.229074	22347.552603
11.537000	0.000000	-0.000752	-0.001605	-0.000148	6764.511463	40928.432133	4003.929160	22378.821504
12.040000	-0.000138	0.000567	-0.000368	0.000335	6759.112848	41001.407474	4005.743096	22357.228154
12.535000	-0.000090	-0.000375	0.005977	0.000169	6760.967543	40933.595561	4021.550983	22364.635633
13.035000	0.000724	-0.000133	0.001854	-0.000657	6775.241595	41026.993278	4013.515629	22401.554969
13.536000	-0.000075	-0.000108	0.001923	-0.000471	6766.667253	41012.905664	4013.231706	22393.233043
14.036000	-0.001615	0.000082	-0.000330	0.002460	6727.963883	40773.748154	4000.725661	22262.623410
14.536000	-0.002593	-0.000902	-0.001487	0.002040	6723.155798	40724.715398	3998.959150	22281.273492
15.036000	-0.000817	-0.000152	-0.000788	-0.000058	6756.629926	40972.895129	4005.676221	22374.768021
15.536500	-0.000962	0.000056	0.000569	-0.000415	6758.473009	41022.323579	4009.817303	22390.746551
16.039500	0.000454	0.001004	0.003858	0.000330	6764.295696	41040.075855	4015.990350	22357.459719
16.537500	0.000859	-0.000403	0.006058	-0.000417	6774.332579	40982.391212	4023.185120	22390.831619
17.035000	-0.001009	0.000152	0.001524	-0.002797	6778.795150	41239.828492	4017.920650	22497.528926
17.535000	-0.000253	0.000122	0.002693	0.001700	6746.276335	40843.353580	4009.836617	22296.390871
18.035500	-0.001916	-0.000441	0.004279	0.000745	6740.164164	40877.620256	4016.004551	22338.949452
18.535500	-0.000218	-0.000270	0.000040	0.001501	6748.305293	40826.612913	4003.918196	22305.260354
19.036000	0.000878	0.000048	0.001426	0.001506	6757.771557	40853.855779	4007.246719	22305.045546
19.536500	-0.000614	-0.000855	0.002883	0.001331	6746.354598	40790.465547	4011.192683	22312.827620
20.037000	-0.001376	0.000052	0.002204	0.001471	6738.549446	40857.294524	4009.209106	22306.596230
20.536500	-0.001843	0.000167	0.004552	0.001246	6736.460506	40886.920360	4015.448719	22316.619552
21.037000	0.000343	-0.000144	0.001809	0.001620	6752.126790	40827.187778	4007.893681	22299.935267
21.537000	-0.000723	0.001089	0.008462	0.002462	6735.638448	40861.279935	4022.020712	22262.528353
22.035000	-0.001017	0.000840	0.006460	0.002036	6736.775979	40876.685844	4018.170543	22281.457223
22.535500	-0.001586	-0.000336	-0.004197	0.000804	6742.505976	40881.586221	3995.437608	22336.314179
23.035500	0.001351	0.000016	0.001153	0.001545	6761.535197	40847.665122	4006.491413	22303.280236
23.536000	-0.000565	0.000303	0.003309	0.001633	6744.162394	40865.047540	4011.493356	22299.399411
24.036000	0.000536	0.000144	0.000163	0.001468	6755.120596	40865.472696	4004.291820	22306.703049
24.536500	-0.000335	-0.000081	-0.002591	0.001283	6749.187679	40862.065060	3998.130806	22314.982654
25.037000	-0.002174	-0.000046	0.004435	0.001316	6733.007251	40862.218943	4014.994241	22313.506683
25.537000	-0.001291	0.000305	0.000518	0.001900	6735.579208	40841.947612	4004.108580	22287.498406
26.037000	-0.001021	0.000631	0.000435	0.001816	6738.639913	40877.703332	4004.111058	22291.247743
26.537500	0.000418	-0.000120	0.002970	0.001427	6754.461290	40846.079893	4011.169617	22308.558811
27.035500	-0.000004	0.000910	0.003348	-0.000289	6765.699341	41086.079347	4016.254891	22385.108085
27.535500	-0.000672	-0.000348	0.005997	0.000505	6753.000529	40906.636987	4020.778326	22349.643237
28.035500	0.002233	0.001152	0.000753	0.000365	6779.495367	41050.017107	4008.375133	22355.887972
28.536000	-0.001502	0.000227	0.001205	-0.000121	6751.231657	41011.497610	4010.644063	22377.579869
29.036000	-0.000951	-0.000146	0.000328	-0.000306	6757.614241	40995.052808	4008.970265	22385.846025
29.536500	-0.000277	-0.000329	0.002140	0.000043	6760.433289	40948.566958	4012.511860	22370.250210
30.037000	-0.003274	-0.001056	0.001109	-0.000945	6743.028767	40971.487477	4012.410058	22414.462987
30.537500	-0.003257	-0.000282	-0.000915	0.002967	6709.501377	40698.069351	3998.110820	22240.106014
31.037500	-0.000586	0.000106	-0.003916	0.002201	6739.069618	40798.358109	3992.775964	22274.099709
31.535000	-0.001030	-0.000200	-0.001437	-0.000423	6757.940534	41000.585892	4004.991612	22391.069676
32.035500	0.001194	0.001122	0.002916	0.000750	6767.079072	41013.696411	4012.678575	22338.710700
32.536000	-0.000865	-0.000477	-0.000175	0.000125	6754.624832	40928.507280	4006.713729	22366.606845
33.036000	0.000816	-0.000496	0.002832	-0.000848	6777.714143	41011.897790	4016.358880	22410.111523
33.536000	-0.000951	0.000301	0.000788	0.002174	6736.152840	40817.711654	4004.097012	22275.314276
34.036000	-0.001403	-0.000047	0.000825	0.002070	6733.145594	40796.460774	4004.435555	22279.919500
34.537000	-0.002959	-0.000473	0.001570	0.001834	6721.783231	40779.989550	4006.802087	22290.443539
35.037000	-0.000582	-0.000310	-0.000098	0.001334	6746.593340	40837.584434	4003.986414	22312.671858
35.537500	-0.000814	-0.000152	-0.000024	0.001734	6741.137905	40816.563995	4003.204960	22294.891772
36.034500	-0.002182	-0.000259	-0.001703	0.001778	6728.950619	40803.434525	3999.069438	22292.919232
36.535500	-0.002468	0.000377	-0.001309	0.001955	6724.963258	40843.387418	3999.588158	22285.035041
37.035000	-0.002166	0.000236	0.002270	0.002103	6726.291258	40818.243249	4007.841919	22278.494700
37.536000	-0.000344	0.000070	0.001379	0.001750	6745.065235	40834.505274	4006.543175	22294.184184
38.036000	-0.001308	0.000173	0.001989	0.002039	6734.236335	40818.299536	4007.316589	22281.308625
38.536500	-0.001154	0.000172	0.002258	0.002156	6734.554032	40808.086554	4007.685790	22276.120588
39.036500	0.000553	0.000193	0.001929	0.002465	6746.633855	40782.936764	4006.143247	22262.367207
39.537000	-0.000697	-0.000717	-0.000043	0.001436	6744.720611	40793.289786	4003.874094	22308.145988
40.037000	-0.001471	-0.000322	-0.001748	0.001921	6733.847787	40785.547995	3998.619849	22286.576583
40.537500	-0.002052	0.000005	-0.003156	0.002226	6726.207709	40787.412168	3994.525726	22272.989464
41.035000	-0.002716	0.000464	-0.003050	0.002303	6719.840985	40820.726141	3994.597628	22269.595645
41.535000	-0.002152	-0.000468	0.001837	0.001730	6729.625687	40789.414459	4007.697737	22295.058899
42.035500	-0.002230	-0.000103	0.001193	0.001578	6730.262364	40834.429358	4006.510348	22301.840574
42.536000	-0.001010	0.000153	0.002165	0.002442	6733.326034	40781.470097	4006.770535	22263.405054
43.036500	-0.002852	-0.001058	0.000596	0.001608	6724.648279	40748.722327	4004.999358	22300.508998
43.536500	-0.000120	0.000259	-0.000322	0.000096	6761.344282	40995.349093	4006.429960	22367.897995
44.036500	0.001260	-0.000039	-0.000731	-0.000241	6776.294341	40998.796719	4006.256841	22382.947063
44.537000	-0.000691	-0.000031	0.003931	0.000123	6756.150021	40967.643205	4016.669244	22366.691249
45.040000	0.000081	0.000335	0.007886	0.000414	6760.324887	40974.171896	4025.629252	22353.689227
45.535000	-0.000747	-0.000162	-0.001059	0.002465	6735.400102	40752.133002	3998.967033	22262.394075
46.035000	0.001288	0.000007	0.001217	0.000051	6773.983804	40977.244867	4010.255703	22369.888339
46.535500	0.000816	0.001036	0.003975	0.000443	6766.468285	41032.989897	4016.000110	22352.416942
47.035500	-0.002884	-0.000556	0.005660	0.002263	6718.740807	40735.412771	4015.670140	22271.356539
47.537500	-0.003544	-0.000046	-0.001491	0.001765	6717.342350	40823.052640	3999.608367	22293.489021
48.036500	-0.000085	0.000749	0.004886	0.000393	6759.067689	41012.221760	4018.339755	22354.634185
48.536000	0.000974	0.000498	-0.000330	0.000205	6769.910473	41006.716142	4006.147534	22363.012904
49.037000	0.000885	0.000008	0.002619	-0.002037	6788.705843	41160.396586	4018.738477	22463.396531
49.536500	-0.000281	-0.000261	0.000440	0.003548	6730.075007	40649.490773	3999.962316	22214.327364
50.034500	-0.000531	-0.000492	0.001227	-0.001421	6770.961489	41062.419350	4013.847718	22435.753306
50.535000	-0.038849	-0.005196	0.029413	0.293763	4743.065837	22085.357665	3529.489782	12836.000421
51.035000	-0.027923	0.002384	0.004197	0.023057	6345.057273	39215.919763	3962.890845	21369.120625
51.535500	-0.017295	-0.008044	0.010045	-0.127050	7848.765763	52951.874948	4396.539253	28964.799779
52.035500	0.029947	0.000086	0.042655	-0.145669	8644.780837	56124.694464	4576.497561	30103.385323
52.536000	0.059562	0.017973	0.070316	-0.082944	8229.526711	50914.382607	4451.051096	26454.718842
53.036000	0.087323	0.038816	0.101077	0.017032	7426.522762	42934.429887	4231.261863	21626.115066
53.536500	0.124368	0.059929	0.132915	0.087198	7100.587556	38670.111655	4123.804166	18843.209093
54.036500	0.151447	0.076809	0.167008	0.143623	6831.849155	35566.312007	4065.430138	16909.566387
54.540000	0.182626	0.093904	0.195654	0.199214	6621.739812	32804.647569	3998.881309	15235.051352
55.037000	0.200977	0.105773	0.216185	0.247293	6381.302227	30421.008112	3934.976841	13949.945086
55.534500	0.220717	0.117167	0.230759	0.272217	6341.033350	29580.128402	3911.997096	13337.680891
56.035000	0.227826	0.122811	0.247838	0.335043	5937.280376	26302.063886	3816.733340	11941.643794
56.538500	0.242529	0.129875	0.265563	0.367052	5822.057543	25001.796812	3788.985759	11304.356098
57.036000	0.254309	0.138167	0.279763	0.383870	5789.368022	24574.242617	3783.999361	10987.872004
57.536000	0.262642	0.143353	0.288966	0.395924	5765.462187	24235.817096	3778.602207	10768.454339
58.036500	0.273400	0.149862	0.299230	0.410716	5739.783083	23834.861414	3770.103666	10507.407913
58.536500	0.277905	0.151827	0.306853	0.424571	5681.168997	23272.384126	3758.549026	10270.816406
59.036500	0.279212	0.154221	0.307130	0.429260	5660.274607	23165.560268	3750.470242	10192.443708
59.537500	0.285046	0.157614	0.310589	0.428227	5702.872104	23372.073757	3758.697340	10209.638186
60.035000	0.287112	0.159433	0.312251	0.430639	5700.708162	23344.282377	3757.317449	10169.559629
60.535000	0.291380	0.162117	0.310603	0.417158	5813.882520	24115.502810	3779.363675	10396.464633
61.035500	0.291794	0.162445	0.316872	0.482574	5421.012943	21177.728208	3674.930523	9358.357682
61.535500	0.298275	0.167145	0.318184	0.469644	5532.237989	21930.500212	3698.793300	9551.339288
62.036000	0.303532	0.169282	0.311344	0.422112	5861.111911	24223.175642	3771.444033	10312.255027
62.536000	0.303391	0.170030	0.312807	0.418066	5887.061279	24458.675869	3781.813900	10380.956566
63.039000	0.307059	0.170132	0.308142	0.413405	5943.206228	24695.260546	3781.807893	10460.896345
63.537000	0.306387	0.170676	0.316984	0.409883	5962.666735	24899.234784	3805.563755	10521.875192
64.040000	0.305987	0.169441	0.313577	0.412477	5942.222604	24707.097374	3793.947886	10476.914278
64.537500	0.309984	0.171108	0.318031	0.406632	6009.943558	25085.658840	3813.982666	10578.597960
65.037500	0.311480	0.172352	0.313142	0.406738	6019.628702	25143.589688	3804.205589	10576.730376
65.535000	0.316942	0.173424	0.310391	0.408038	6048.823019	25131.981670	3796.360775	10554.005785
66.035500	0.313334	0.173092	0.307764	0.412765	5990.643628	24875.763954	3782.304062	10471.943516
66.534500	0.316722	0.173607	0.315588	0.408823	6041.753362	25101.309636	3804.908307	10540.318859
67.036000	0.320914	0.175143	0.317683	0.411044	6055.641336	25066.462089	3804.662614	10501.708025
67.536500	0.320920	0.173778	0.317883	0.411002	6055.979883	24999.392345	3805.133928	10502.437693
68.037000	0.324569	0.175235	0.325601	0.414682	6055.765747	24887.116319	3813.036666	10438.905480
68.537000	0.321683	0.174193	0.322214	0.415873	6027.096789	24774.960282	3804.084852	10418.467199
69.037500	0.324227	0.175065	0.319274	0.418555	6026.131101	24684.391181	3793.216697	10372.622909
69.534500	0.325848	0.174603	0.320922	0.419378	6031.721717	24620.375602	3794.802068	10358.610688
70.035000	0.325944	0.175029	0.322204	0.422856	6008.112629	24469.034458	3790.589084	10299.701327
70.535000	0.326231	0.174819	0.325482	0.424647	5997.667979	24370.349991	3793.438410	10269.537828
71.035500	0.325385	0.173720	0.317753	0.425321	5987.148475	24283.301391	3777.452378	10258.219873
71.536000	0.324412	0.174677	0.320035	0.429010	5955.124436	24149.910022	3774.807035	10196.603888
72.036500	0.329906	0.174284	0.324801	0.429445	5989.891632	24109.609610	3782.979135	10189.363000
72.536000	0.328300	0.173789	0.324997	0.430640	5970.597335	24027.702009	3781.088047	10169.542092
73.040000	0.328425	0.173842	0.323409	0.433002	5955.266485	23916.243664	3773.645863	10130.501015
73.540000	0.327604	0.173283	0.326099	0.433782	5944.345834	23851.841621	3777.236449	10117.654152
74.037500	0.328389	0.172339	0.319474	0.434724	5943.279896	23761.574297	3763.106113	10102.177789
74.535000	0.329065	0.171938	0.327450	0.436268	5937.374894	23668.822013	3775.100805	10076.871228
75.035000	0.330610	0.171309	0.324332	0.437834	5937.233092	23564.627625	3766.348086	10051.298634
75.535500	0.327574	0.171104	0.326542	0.439337	5906.569218	23483.994044	3767.663355	10026.848557
76.035500	0.325303	0.170413	0.326756	0.446823	5841.724676	23102.029136	3754.236787	9906.283625
76.536000	0.330271	0.169051	0.321503	0.441638	5909.230753	23279.739781	3754.112968	9989.571620
77.036500	0.332143	0.170260	0.327994	0.444350	5903.580896	23209.640590	3761.060257	9945.878667
77.537000	0.331340	0.168214	0.327277	0.445624	5889.675530	23055.830671	3757.392433	9925.455395
78.040000	0.328644	0.169310	0.337010	0.447183	5861.387363	23034.503803	3772.559364	9900.550047
78.537000	0.332179	0.169499	0.328908	0.449422	5869.974848	22940.158179	3753.420700	9864.924870
79.037000	0.329948	0.168326	0.329092	0.449217	5856.555216	22895.755150	3754.131680	9868.169275
79.535000	0.328580	0.167852	0.331725	0.450441	5839.487610	22818.202450	3756.715191	9848.769316
80.035000	0.325809	0.164655	0.326123	0.456220	5783.889909	22412.917740	3736.085659	9757.864004
80.535500	0.330379	0.167481	0.334500	0.454240	5826.380734	22628.834147	3754.836498	9788.869491
81.036000	0.332664	0.167465	0.332755	0.455512	5833.014115	22570.789626	3749.328453	9768.944834
81.536000	0.330639	0.166232	0.328420	0.456506	5813.300587	22470.705637	3739.691427	9753.402505
82.036500	0.327496	0.165900	0.327073	0.464284	5743.132729	22110.634239	3723.462268	9633.034784
82.537000	0.331518	0.166611	0.337669	0.459688	5798.354926	22345.504560	3750.671523	9703.896229
83.037000	0.331736	0.165440	0.339058	0.460154	5796.748014	22272.733804	3752.356527	9696.681570
83.537000	0.330023	0.164672	0.330615	0.461386	5777.767214	22184.225844	3734.880454	9677.634217
84.035000	0.329631	0.164987	0.325747	0.468340	5730.967578	21893.322192	3714.048143	9571.120007
84.535500	0.333287	0.164894	0.335413	0.464167	5780.868434	22071.551561	3738.492161	9634.830177
85.035500	0.331710	0.163952	0.333815	0.464528	5768.434056	22014.470822	3734.984219	9629.300845
85.536000	0.333682	0.163755	0.336488	0.467794	5760.161599	21863.518816	3733.926122	9579.422953
86.036500	0.330302	0.162084	0.332965	0.465023	5756.281603	21911.357624	3732.585910	9621.722633
86.536500	0.330682	0.162787	0.333828	0.467408	5743.523896	21838.269416	3729.879182	9585.302272
87.036500	0.333038	0.164478	0.334627	0.469925	5742.507317	21802.498700	3726.837217	9547.087931
87.540000	0.329727	0.161559	0.330306	0.470926	5715.293981	21633.624769	3717.487041	9531.957376
88.037000	0.330375	0.161075	0.337179	0.470046	5724.902641	21650.607338	3731.145014	9545.252531
88.537500	0.333877	0.161085	0.330094	0.471740	5736.320489	21578.470241	3715.697464	9519.667212
89.035000	0.333756	0.160890	0.331982	0.473253	5726.000645	21505.592606	3716.351036	9496.905412
89.535500	0.334861	0.162423	0.338851	0.477011	5709.323612	21411.045088	3721.795062	9440.684840
90.035500	0.334442	0.159852	0.338188	0.474932	5719.746918	21390.194847	3724.286239	9471.728347
90.535500	0.333889	0.159914	0.333667	0.477139	5702.442151	21299.666706	3712.523554	9438.784766
91.036000	0.331324	0.159589	0.332174	0.476995	5687.341891	21292.004914	3710.186182	9440.920882
91.536500	0.331498	0.158584	0.333498	0.480735	5665.270048	21093.344546	3706.019934	9385.457918
92.036500	0.333368	0.158206	0.342449	0.479965	5681.595243	21109.700449	3722.926782	9396.844008
92.537000	0.335272	0.157726	0.339559	0.481395	5684.533416	21030.214362	3715.366649	9375.715438
93.037000	0.332459	0.158122	0.341055	0.482729	5658.912169	20991.371517	3715.648318	9356.082653
93.535000	0.333767	0.158180	0.340767	0.486458	5644.060778	20839.973224	3708.682852	9301.500843
94.035000	0.335081	0.157315	0.342493	0.485562	5657.614999	20841.271818	3713.222519	9314.577913
94.535000	0.332528	0.157581	0.345666	0.487591	5629.587511	20769.015464	3715.212017	9285.011936
95.035500	0.333308	0.156531	0.338364	0.488600	5628.199183	20685.026359	3700.881916	9270.372055
95.536000	0.332366	0.156416	0.340209	0.489863	5614.824908	20628.993175	3701.874789	9252.077016
