sample name	sample
index	1458
start time	 05-10-2021  01:47:01 PM
880	0.271634
Peak Time (s)	92.038
Peak Height 	0.2716
calc peak height	90,93
Baseline Time (s)	10.537
Baseline Value 	-0.004494
subtract baseline	10,4
Abs	0.181509
Peak Time (s)	92.538
Peak Height 	0.1815
calc peak height	90,93
Baseline Time (s)	11.04
Baseline Value 	0.001481
subtract baseline	10,3
PK_550	0.100493
Peak Time (s)	91.537
Peak Height 	0.1005
calc peak height	90,93
Baseline Time (s)	11.535
Baseline Value 	1.9612E-4
subtract baseline	10,2
PK_880	0.166647
Peak Time (s)	91.037
Peak Height 	0.1666
calc peak height	90,93
Baseline Time (s)	9.537
Baseline Value 	3.1142E-4
subtract baseline	10,1


Time (s)	A880-A510	A880-A775	A880-A975	A880	I510	I775	I975	I880	
0.036000	-0.002640	-0.001304	-0.003327	0.005888	6413.206055	43314.661305	3925.070765	22333.381527
0.537000	-0.000324	-0.000830	-0.001561	0.004730	6441.826987	43466.726564	3932.570047	22385.403508
1.037000	-0.002214	-0.000516	-0.002078	0.004078	6431.597807	43556.874575	3932.914752	22414.709950
1.540000	-0.001740	-0.000168	-0.000198	0.001769	6454.620861	43806.150181	3943.748428	22518.979184
2.040500	-0.001255	-0.000111	-0.000225	0.005532	6427.523092	43458.926892	3933.944067	22349.372842
2.538000	-0.000336	-0.000069	-0.001510	0.001853	6465.586376	43807.562557	3940.125979	22515.166884
3.035000	0.002810	0.000398	-0.000941	-0.000294	6509.921716	44054.364794	3947.183711	22612.607273
3.536000	-0.000012	-0.000159	0.003098	0.001227	6473.504525	43858.068682	3953.764569	22543.515589
4.035000	-0.001875	-0.000542	0.001855	0.004561	6430.406224	43509.314785	3941.829540	22392.977511
4.536000	-0.001053	-0.000193	0.001913	0.000803	6468.371234	43894.841413	3951.771903	22562.778835
5.061500	-0.000247	-0.000338	-0.002398	0.000641	6476.440424	43896.471778	3940.966562	22570.116339
5.536500	-0.001852	-0.000014	-0.002073	0.001069	6459.508296	43886.667929	3940.699611	22550.705190
6.358500	-0.001524	-0.000295	-0.005078	0.000503	6466.949901	43913.585121	3934.397271	22576.400544
7.147000	0.000320	-0.000019	-0.000301	0.000319	6483.876446	43956.933821	3947.256215	22584.757695
7.250500	-0.001273	0.000183	-0.002254	0.000032	6472.961427	44003.100388	3942.919481	22597.774816
7.535500	0.000501	0.000248	-0.004995	0.000439	6484.378584	43970.765286	3934.776163	22579.277457
8.035500	-0.001407	0.000527	-0.000753	0.000442	6468.428547	43996.883455	3945.758066	22579.159509
8.535500	-0.000189	-0.000896	-0.001337	-0.000428	6485.857231	43944.637596	3946.500910	22618.694511
9.036000	0.000512	-0.000473	-0.002279	-0.000154	6489.442160	43958.718160	3943.337673	22606.247837
9.536500	0.000000	0.000526	-0.002042	0.000528	6479.447917	43988.657492	3942.183558	22575.253540
10.037000	-0.001123	0.000114	0.002012	-0.000087	6475.205905	44007.904963	3954.363075	22603.186743
10.537000	0.000488	-0.000267	0.001005	0.000000	6487.949777	43963.635273	3951.498118	22599.229938
11.040000	0.000107	0.000428	0.000000	0.000734	6478.620325	43959.946147	3946.957040	22565.897593
11.535000	-0.000615	0.000000	0.001305	0.004825	6438.629964	43535.298022	3939.718908	22381.107814
12.035000	-0.000131	-0.000158	0.001800	-0.000192	6484.367023	43992.020871	3954.081698	22607.950189
12.535500	-0.000785	0.000098	-0.002681	-0.000084	6477.998767	44006.101142	3942.113085	22603.056912
13.035500	0.000836	-0.000167	-0.002928	-0.000855	6498.033598	44053.950021	3943.471717	22638.126626
13.536000	-0.002918	-0.000940	-0.003390	0.004875	6419.239469	43442.873737	3927.501005	22378.872554
14.036000	0.000622	-0.000235	0.000413	0.001662	6475.168700	43809.891108	3945.616070	22523.814615
14.536500	-0.001392	-0.000960	0.000028	0.000760	6465.901206	43826.594805	3946.959811	22564.695514
15.039500	0.000793	-0.000652	0.000434	-0.000871	6497.812050	44009.574220	3952.284529	22638.876504
15.537000	-0.002186	0.000156	0.001628	0.005141	6423.073170	43520.364895	3939.737240	22366.918751
16.037000	0.003179	-0.000016	0.000000	-0.000579	6515.444000	44042.109384	3950.384284	22625.580235
16.535000	-0.001662	-0.000487	-0.003026	-0.000914	6477.608045	44029.228591	3943.373064	22640.832708
17.035000	0.003790	0.001106	0.005621	-0.003053	6541.564025	44383.772690	3971.739067	22738.471210
17.534500	-0.003117	-0.000721	0.000155	0.001753	6443.350497	43755.690822	3944.707114	22519.719676
18.036000	-0.000505	-0.000660	-0.000721	-0.000346	6482.530065	43959.207311	3947.892884	22614.981118
18.536500	0.000439	-0.000458	-0.000959	0.000031	6487.269225	43942.597713	3946.287975	22597.805710
19.036500	-0.000801	-0.000123	-0.001269	0.000273	6474.889197	43951.413774	3944.852415	22586.830220
19.536500	-0.004700	-0.000868	0.000138	0.001742	6430.360719	43742.840535	3944.690279	22520.192094
20.040000	-0.001619	-0.000025	-0.002004	0.000084	6469.640784	43978.568638	3943.436015	22595.432018
20.537500	0.002565	0.000179	0.003655	0.000274	6503.078102	43979.820173	3957.730363	22586.770089
21.034500	0.000579	0.000428	0.002827	0.000259	6486.537140	44004.842960	3955.592775	22587.460232
21.535000	-0.002834	-0.000699	0.001951	0.001312	6449.334552	43799.200089	3950.539948	22539.664275
22.035500	-0.001009	-0.001081	-0.000339	-0.000887	6482.844748	43970.570552	3950.303139	22639.591791
22.535000	-0.001066	-0.000005	0.001207	0.000109	6474.046338	43978.152052	3951.742606	22594.291629
23.036000	0.000974	-0.000044	-0.000557	0.000304	6489.464838	43955.943177	3946.625778	22585.396789
23.536500	0.000345	0.000725	0.002706	0.002283	6467.681047	43841.873198	3949.976610	22495.721442
24.037000	-0.000964	0.000471	-0.002009	-0.000083	6476.501197	44041.316476	3943.855411	22603.025390
24.565500	0.002089	0.000102	-0.000461	0.000427	6497.792188	43958.196727	3946.555976	22579.833286
25.037000	0.000154	-0.000115	-0.005591	-0.000158	6486.471378	43992.927121	3934.779468	22606.417851
25.534500	-0.002693	-0.000269	-0.003551	-0.000692	6467.162555	44028.865399	3941.433589	22630.732657
26.035000	-0.001585	-0.000219	-0.000159	-0.000268	6472.857966	43993.512550	3949.154894	22611.415116
26.535000	-0.000552	-0.000116	0.002913	-0.000660	6484.759128	44040.241438	3958.233608	22629.232986
27.035000	0.002250	0.000039	0.002565	-0.002611	6524.756950	44240.046756	3962.460415	22718.253749
27.535500	0.001652	-0.000102	0.003114	-0.001816	6512.989042	44151.131694	3961.811645	22681.945646
28.036000	-0.003258	0.000213	0.001377	0.004344	6420.806903	43600.207235	3941.151989	22402.740719
28.539000	-0.001103	-0.000078	0.002649	-0.001719	6489.013591	44144.242045	3960.329729	22677.509296
29.037000	0.001949	-0.000406	0.001683	-0.001340	6511.474673	44077.222216	3956.787600	22660.211641
29.540000	0.000489	0.000187	0.007485	-0.001233	6498.300206	44123.290967	3971.856345	22655.361500
30.037000	-0.002209	-0.000929	-0.002941	0.003311	6437.975253	43590.067349	3932.669594	22449.317863
30.537500	0.000893	0.000884	0.003323	0.001973	6474.835687	43886.039470	3952.401669	22509.756851
31.035000	-0.001089	-0.000088	-0.001849	0.000065	6474.217785	43974.434362	3943.885622	22596.272915
31.535500	0.000637	-0.001074	0.002762	-0.001854	6504.763325	44062.667039	3960.985935	22683.697634
32.035500	-0.001082	-0.000939	-0.006470	0.002689	6452.446643	43647.336284	3925.215774	22477.380684
32.536500	0.000719	-0.000777	0.002204	-0.001600	6503.321439	44066.766489	3958.844284	22672.108382
33.039000	0.002075	-0.000290	-0.000446	-0.003247	6528.659377	44269.286437	3956.207135	22747.381241
33.536500	-0.000015	-0.000164	-0.001242	-0.000327	6486.472514	44004.286663	3946.485503	22614.095512
34.037000	-0.001097	-0.001039	-0.002440	0.001619	6461.204785	43738.392230	3938.326176	22525.775509
34.537000	-0.001337	-0.000357	-0.000342	0.000104	6471.822068	43945.250162	3947.706854	22594.486641
35.037500	0.000975	0.000030	0.002495	0.000613	6486.885421	43933.770886	3953.794246	22571.365558
35.534500	0.000870	-0.000451	-0.001023	0.000081	6490.467929	43938.589524	3945.995186	22595.562599
36.035500	-0.000404	-0.000098	0.001882	0.001630	6466.887597	43825.859686	3949.530171	22525.288716
36.535500	-0.000424	-0.000222	0.000761	0.000164	6478.948101	43952.420000	3950.431312	22591.781643
37.036000	0.000940	-0.000366	0.004865	0.000268	6489.489888	43929.053268	3960.934844	22587.070568
37.538500	0.000431	-0.000148	-0.002417	0.001316	6476.462164	43850.723280	3939.170219	22539.509063
38.036000	-0.000937	-0.001054	-0.003722	-0.000708	6481.946749	43956.178707	3941.029822	22631.424573
38.536500	0.000802	0.000433	0.003709	0.000606	6485.499019	43972.522763	3957.000087	22571.690760
39.037000	0.000778	-0.000381	0.000252	0.000296	6487.891129	43924.936789	3948.755104	22585.776226
39.537000	0.000169	0.000201	0.001811	0.000306	6482.719992	43978.989473	3952.807914	22585.332205
40.034500	-0.000309	0.000032	-0.003027	0.000397	6477.952817	43954.323872	3939.967974	22581.176417
40.534500	0.000187	0.000367	0.004179	0.000478	6481.424304	43978.358944	3958.572375	22577.518915
41.035500	-0.000259	-0.000137	0.000364	0.000012	6481.588785	43974.790358	3949.788705	22598.676125
41.536000	-0.001768	0.000427	-0.000177	0.002260	6450.319707	43815.957711	3942.528798	22496.763979
42.035000	-0.002147	-0.000054	0.001369	0.000955	6457.997781	43893.534122	3949.950463	22555.850754
42.536000	0.000959	-0.000337	0.001234	0.000151	6490.627617	43942.770621	3951.702635	22592.384458
43.036500	-0.002183	0.000356	0.001538	0.000377	6462.510601	43986.896683	3951.906240	22582.108223
43.537000	0.001391	0.000377	-0.002717	0.002190	6477.181205	43817.837503	3936.134416	22499.943349
44.037000	-0.001647	-0.000230	0.002500	0.002483	6449.466226	43733.177092	3948.915433	22486.676347
44.539500	-0.000011	-0.000238	0.002099	-0.002031	6500.802497	44158.726652	3959.702597	22691.776568
45.035000	0.000125	0.000071	0.001925	-0.001663	6498.853432	44153.160517	3958.276884	22674.984990
45.535000	-0.001896	-0.000197	0.001869	0.003800	6436.513355	43612.743421	3943.840831	22427.238172
46.035500	-0.003457	0.000363	-0.001533	0.001422	6443.270949	43888.920783	3941.185349	22534.714211
46.536000	-0.000208	0.000072	-0.003535	-0.001414	6493.960909	44129.530001	3943.348345	22663.594990
47.035500	-0.000104	-0.000188	0.003399	0.000648	6477.575040	43909.889385	3956.075122	22569.798330
47.536500	-0.002349	-0.000682	0.000493	0.002973	6439.605732	43644.836327	3942.417975	22464.562668
48.036500	-0.002499	-0.000324	-0.000701	0.002484	6442.412428	43724.352206	3940.589701	22486.661698
48.536500	-0.000437	-0.000515	0.001451	-0.002238	6498.958672	44152.065703	3958.542699	22701.225075
49.037500	0.001040	-0.000642	0.000322	-0.002999	6517.813283	44212.228349	3957.574097	22736.023395
49.534000	-0.001081	0.001001	0.000193	0.003690	6444.162525	43735.468271	3939.780740	22432.226500
50.034500	-0.000194	-0.000359	0.003471	0.000695	6476.432470	43889.293461	3956.140414	22567.655624
50.535500	-0.000213	-0.002682	0.003710	-0.000312	6484.690203	43765.503954	3959.419723	22613.438973
51.035000	0.034319	-0.028299	0.111838	0.530385	4009.849201	14280.138275	3247.694382	8679.124531
51.535500	-0.025492	-0.033390	-0.030035	-0.070830	6883.689986	47684.648961	4060.517828	26096.252182
52.035500	-0.027686	-0.097003	-0.046338	-0.278384	9322.108608	65267.859800	4749.493244	40334.135743
52.536000	-0.012575	-0.092429	-0.026912	-0.273750	9480.135959	65259.148604	4816.507895	39936.352080
53.036500	-0.005063	-0.044927	-0.018418	-0.198864	8527.438827	61451.069471	4532.811871	34063.813718
53.537000	-0.001799	-0.027868	-0.003797	-0.137945	7821.655246	55830.429611	4359.130822	29979.688634
54.037000	-0.014638	-0.017882	-0.009440	-0.084305	7116.069942	50772.560543	4162.138990	26828.519370
54.535000	-0.009719	-0.024229	-0.015589	-0.147049	7835.244102	57405.445504	4349.607545	30554.275915
55.038000	-0.001523	-0.032551	-0.004481	-0.180854	8341.402022	60696.973111	4516.777607	32796.202945
55.535000	0.008099	-0.019825	0.008362	-0.129004	7832.633656	55721.283594	4370.616107	29427.081754
56.035500	0.017635	-0.008868	0.022382	-0.068981	7285.838618	50082.691561	4214.288656	25997.504100
56.536000	0.027948	0.001870	0.034090	-0.006384	6782.758844	44776.481060	4059.596168	22891.566833
57.036500	0.040981	0.011178	0.047096	0.044175	6457.238719	40985.610833	3956.520356	20689.999526
57.536000	0.045787	0.018005	0.059268	0.082294	6190.911055	38340.668217	3890.331862	19191.576756
58.036000	0.056855	0.021836	0.072006	0.112468	6047.137697	36257.291532	3848.026218	18095.316883
58.537000	0.073680	0.032030	0.085570	0.125607	6074.382950	36032.071524	3849.036821	17641.230462
59.037500	0.084519	0.039938	0.094816	0.138165	6061.646440	35679.593308	3841.184416	17219.889333
59.537000	0.094082	0.049691	0.104308	0.143381	6093.950575	36023.463326	3851.335204	17048.443955
60.035000	0.104839	0.052040	0.114715	0.155727	6082.104108	35270.600154	3846.719590	16650.724900
60.535500	0.109269	0.055217	0.119096	0.189236	5872.814896	33089.641908	3779.810562	15626.582252
61.036000	0.114902	0.061583	0.127265	0.201906	5824.231614	32655.154137	3769.865117	15259.452188
61.536000	0.116432	0.064574	0.130485	0.200612	5843.634412	32949.802305	3779.837914	15296.463091
62.036000	0.119185	0.070730	0.127912	0.194885	5902.652709	33782.262692	3786.869946	15461.568860
62.542000	0.122923	0.075036	0.130702	0.191373	5954.035968	34342.508294	3801.071960	15563.903636
63.099000	0.127655	0.078829	0.132768	0.188614	6008.029870	34819.827579	3812.082869	15644.858578
63.539000	0.130360	0.080730	0.133553	0.190402	6014.702333	34828.116659	3809.783504	15592.337081
64.040000	0.134383	0.083713	0.133860	0.194969	6010.745754	34712.106316	3800.077658	15459.137321
64.535000	0.136975	0.082658	0.136203	0.194548	6032.742891	34665.706233	3806.365504	15471.351743
65.035000	0.138413	0.084547	0.129070	0.197776	6019.660372	34568.046688	3783.000170	15377.963155
65.535500	0.140121	0.087360	0.136363	0.202232	5999.660671	34448.595640	3789.340759	15250.141510
66.036000	0.144696	0.088644	0.140757	0.205601	6008.422766	34297.737971	3791.642670	15154.395475
66.536500	0.142913	0.088361	0.141847	0.207256	5983.525501	34158.101195	3790.375565	15107.640130
67.036000	0.144211	0.090946	0.146109	0.210809	5967.298333	34088.561212	3791.967322	15007.825391
67.536500	0.142926	0.092155	0.147603	0.219621	5895.661957	33547.974540	3775.647015	14763.778127
68.037000	0.146623	0.094132	0.151739	0.219169	5924.899161	33719.708434	3785.849049	14776.198062
68.537000	0.147100	0.094376	0.152087	0.220261	5920.541731	33659.614014	3784.185235	14746.245302
69.037500	0.148657	0.095666	0.153263	0.223832	5906.340951	33498.742948	3778.856988	14648.910440
69.535000	0.147389	0.095509	0.149447	0.232676	5836.007377	32871.900640	3751.171755	14411.224835
70.035000	0.150315	0.095642	0.158247	0.231417	5864.914879	32967.968530	3773.102872	14444.763594
70.536000	0.151369	0.095755	0.155375	0.231828	5869.384813	32947.344938	3765.890303	14433.806127
71.039000	0.152933	0.096634	0.159822	0.234926	5858.740009	32794.450975	3768.848575	14351.539758
71.536500	0.150211	0.097720	0.154155	0.236766	5827.309415	32742.712395	3752.506941	14302.956627
72.036500	0.153816	0.098832	0.153590	0.240085	5829.269448	32591.616119	3744.162343	14215.815363
72.537000	0.157893	0.098664	0.164702	0.240108	5857.209285	32578.575932	3768.186654	14215.224760
73.036500	0.153293	0.098192	0.157213	0.240450	5823.177979	32523.040468	3751.155454	14206.265909
73.535000	0.156043	0.099696	0.162185	0.242163	5830.289881	32508.869230	3758.206644	14161.608507
74.035000	0.154456	0.099733	0.162514	0.244294	5804.884252	32366.575758	3754.299445	14106.268036
74.535000	0.154915	0.099884	0.158936	0.243162	5815.727975	32453.646696	3749.026644	14135.622305
75.035500	0.157465	0.100285	0.163038	0.243164	5833.180325	32480.820786	3757.885452	14135.591953
75.535500	0.159426	0.101005	0.165738	0.244102	5840.216632	32465.998841	3761.716531	14111.259434
76.036000	0.158911	0.101025	0.162022	0.245294	5828.490129	32386.440720	3751.080918	14080.414819
76.536500	0.160312	0.101771	0.165004	0.244119	5846.204442	32516.936860	3760.080001	14110.807714
77.037000	0.161804	0.101958	0.163446	0.244268	5855.481966	32519.593739	3756.375891	14106.958203
77.536500	0.157907	0.102788	0.166688	0.250170	5788.437315	32176.077319	3750.628247	13955.110263
78.037500	0.160177	0.103231	0.163610	0.244512	5842.560519	32589.693150	3756.201360	14100.620579
78.535000	0.161630	0.103501	0.163436	0.244471	5852.869445	32610.925114	3755.912169	14101.682333
79.035500	0.158740	0.103373	0.164724	0.244077	5835.667151	32629.092512	3759.563244	14111.887820
79.535500	0.156937	0.103601	0.160401	0.250226	5781.504865	32227.093817	3737.066517	13953.678635
80.035500	0.162641	0.103864	0.158886	0.245785	5850.782530	32546.052706	3743.298538	14067.723259
80.535500	0.161957	0.103415	0.164403	0.245723	5846.484884	32519.691097	3755.297138	14069.326497
81.035500	0.163011	0.104009	0.163621	0.246572	5847.897225	32502.274767	3751.771621	14047.427619
81.539000	0.158686	0.103777	0.166205	0.252851	5775.591760	32062.402100	3743.837312	13886.812709
82.036500	0.164796	0.104743	0.168955	0.249403	5840.692238	32359.935683	3757.185592	13974.733990
82.537000	0.161561	0.104279	0.170393	0.249242	5819.599226	32339.414503	3760.660398	13978.863069
83.034500	0.162332	0.103166	0.165021	0.249933	5820.140742	32217.534105	3747.551871	13961.165943
83.535000	0.161816	0.104024	0.164999	0.257516	5765.274485	31767.657801	3731.369293	13768.987189
84.035000	0.162431	0.103047	0.168127	0.252868	5800.816652	32012.330415	3747.921004	13886.387790
84.535500	0.162079	0.103210	0.167583	0.254078	5790.225111	31942.369615	3744.162187	13855.709576
85.036000	0.165289	0.103983	0.164826	0.256414	5796.144836	31838.144282	3733.332574	13796.714879
85.536000	0.159084	0.101702	0.167971	0.261063	5723.438619	31380.735973	3730.157546	13680.248888
86.039000	0.163019	0.103019	0.168903	0.258562	5766.333011	31631.885055	3737.419037	13742.754566
86.536500	0.164472	0.102790	0.166863	0.259806	5767.739077	31534.693622	3730.472283	13711.625778
87.037000	0.167182	0.101401	0.171083	0.259675	5786.883567	31452.021147	3739.687520	13714.900054
87.534500	0.167709	0.102023	0.174402	0.262120	5773.937861	31332.495813	3741.548397	13653.931586
88.037500	0.166554	0.100675	0.171938	0.261891	5767.709728	31259.490571	3736.793266	13659.626480
88.535000	0.163774	0.102066	0.173940	0.264629	5730.876617	31171.748730	3735.233956	13591.743649
89.035500	0.167717	0.101440	0.169796	0.265012	5754.595243	31106.304900	3725.694446	13582.301337
89.536000	0.163691	0.100990	0.171442	0.265844	5722.289279	31023.237152	3727.402741	13561.770229
90.035500	0.162743	0.100442	0.171852	0.266595	5711.074352	30939.375270	3726.686648	13543.279246
90.538500	0.165764	0.100416	0.172494	0.268175	5720.578808	30836.045475	3724.719682	13504.470331
91.036500	0.166647	0.099638	0.171591	0.268494	5724.313297	30765.657067	3722.166071	13496.665251
91.537000	0.166177	0.100493	0.175852	0.270117	5710.490344	30716.487933	3727.690572	13456.968208
92.037500	0.165184	0.099993	0.175068	0.271634	5694.014453	30587.796109	3722.869236	13420.023302
92.537500	0.163635	0.098785	0.181509	0.270793	5689.380731	30564.459735	3738.216947	13440.498823
93.081500	0.163172	0.098552	0.177435	0.272062	5678.077510	30469.068553	3726.928880	13409.604846
93.535000	0.163817	0.100734	0.180660	0.274348	5667.413338	30462.460083	3728.903058	13354.216181
94.035500	0.167073	0.100171	0.179092	0.275785	5679.239745	30336.011573	3722.603869	13319.541729
94.538500	0.166136	0.098992	0.178304	0.275725	5673.531043	30265.565577	3721.084840	13320.998508
95.036000	0.163108	0.099045	0.174802	0.277398	5643.138965	30163.795669	3710.354034	13280.766960
95.553000	0.163234	0.099200	0.180253	0.279336	5631.510587	30052.255421	3717.624235	13234.359197
