sample name	sample
index	1442
start time	 05-10-2021  01:04:44 PM


Wavelength (nm)	Absorbance
494.344910	-0.073252
494.563924	-0.073252
494.782919	-0.073252
495.001897	0.021427
495.220856	-0.013704
495.439797	0.001708
495.658719	0.011858
495.877624	0.025386
496.096510	0.026340
496.315378	0.024832
496.534227	0.020536
496.753059	0.017549
496.971872	0.010721
497.190667	0.059855
497.409444	0.090237
497.628203	0.106431
497.846943	0.112179
498.065665	0.116831
498.284369	0.121857
498.503055	0.124034
498.721723	0.125091
498.940372	0.127763
499.159003	0.127638
499.377616	0.127027
499.596210	0.125880
499.814787	0.126843
500.033345	0.127114
500.251885	0.127021
500.470406	0.127135
500.688910	0.128184
500.907395	0.127546
501.125862	0.127683
501.344311	0.128208
501.562742	0.128260
501.781154	0.127621
501.999548	0.127929
502.217924	0.127915
502.436282	0.128707
502.654621	0.129330
502.872942	0.128909
503.091245	0.130041
503.309530	0.130022
503.527797	0.129888
503.746045	0.129652
503.964275	0.129251
504.182487	0.128704
504.400681	0.127702
504.618856	0.125994
504.837013	0.126717
505.055152	0.127110
505.273273	0.128147
505.491376	0.128668
505.709460	0.128841
505.927526	0.127146
506.145574	0.127042
506.363604	0.126868
506.581615	0.127440
506.799608	0.127230
507.017583	0.126183
507.235540	0.125371
507.453478	0.124856
507.671399	0.124888
507.889301	0.126162
508.107185	0.126438
508.325050	0.127432
508.542898	0.128126
508.760727	0.128363
508.978538	0.128600
509.196330	0.128916
509.414105	0.129498
509.631861	0.130233
509.849599	0.130954
510.067319	0.131042
510.285021	0.131029
510.502704	0.131606
510.720369	0.131557
510.938016	0.131637
511.155645	0.132267
511.373255	0.132856
511.590848	0.131966
511.808422	0.131066
512.025977	0.131013
512.243515	0.130588
512.461034	0.130226
512.678536	0.129475
512.896018	0.131256
513.113483	0.130601
513.330930	0.130587
513.548358	0.131554
513.765768	0.132104
513.983160	0.132372
514.200533	0.132956
514.417889	0.133187
514.635226	0.134171
514.852545	0.132705
515.069845	0.132927
515.287128	0.132831
515.504392	0.133066
515.721638	0.133480
515.938866	0.134212
516.156075	0.133622
516.373267	0.132869
516.590440	0.132892
516.807594	0.133529
517.024731	0.133876
517.241850	0.134206
517.458950	0.134128
517.676032	0.133879
517.893095	0.133546
518.110141	0.134302
518.327168	0.134616
518.544177	0.134062
518.761168	0.133932
518.978141	0.133330
519.195095	0.133345
519.412031	0.133190
519.628949	0.134014
519.845849	0.133828
520.062731	0.133563
520.279594	0.133687
520.496439	0.134415
520.713266	0.134874
520.930074	0.135304
521.146865	0.134722
521.363637	0.134960
521.580391	0.135134
521.797127	0.135544
522.013844	0.136373
522.230543	0.135779
522.447224	0.135763
522.663887	0.135948
522.880532	0.136108
523.097158	0.136355
523.313766	0.136935
523.530356	0.136463
523.746928	0.136679
523.963481	0.136312
524.180017	0.137448
524.396534	0.137064
524.613032	0.137175
524.829513	0.137624
525.045975	0.138279
525.262420	0.137807
525.478845	0.138194
525.695253	0.138415
525.911643	0.138577
526.128014	0.139227
526.344367	0.140294
526.560702	0.139808
526.777018	0.139838
526.993316	0.139667
527.209597	0.139793
527.425858	0.140159
527.642102	0.140140
527.858328	0.140324
528.074535	0.139753
528.290724	0.139182
528.506894	0.139307
528.723047	0.139857
528.939181	0.140393
529.155297	0.140729
529.371395	0.140472
529.587475	0.140864
529.803536	0.140761
530.019579	0.140701
530.235604	0.141037
530.451611	0.142142
530.667600	0.141438
530.883570	0.141115
531.099522	0.141432
531.315456	0.141562
531.531372	0.141505
531.747269	0.141992
531.963148	0.142371
532.179009	0.142227
532.394852	0.141499
532.610676	0.142001
532.826482	0.142636
533.042271	0.142476
533.258040	0.142450
533.473792	0.142647
533.689525	0.142521
533.905240	0.142796
534.120937	0.143206
534.336616	0.143699
534.552277	0.143690
534.767919	0.143063
534.983543	0.143322
535.199149	0.144527
535.414736	0.144316
535.630306	0.144924
535.845857	0.144884
536.061390	0.144805
536.276904	0.144537
536.492401	0.144726
536.707879	0.145794
536.923339	0.145689
537.138781	0.144811
537.354204	0.145154
537.569610	0.144418
537.784997	0.143982
538.000366	0.143943
538.215716	0.144576
538.431049	0.145054
538.646363	0.145159
538.861659	0.145409
539.076937	0.145784
539.292196	0.145798
539.507438	0.146181
539.722661	0.146933
539.937866	0.147713
540.153052	0.147552
540.368221	0.147408
540.583371	0.147128
540.798503	0.147386
541.013617	0.147277
541.228712	0.147767
541.443789	0.148456
541.658848	0.148406
541.873889	0.148330
542.088912	0.148104
542.303916	0.148543
542.518902	0.149133
542.733870	0.149197
542.948820	0.149311
543.163752	0.149636
543.378665	0.149284
543.593560	0.149101
543.808437	0.148840
544.023295	0.149142
544.238136	0.148673
544.452958	0.147688
544.667762	0.148151
544.882548	0.148356
545.097315	0.147880
545.312064	0.147961
545.526795	0.148718
545.741508	0.149674
545.956203	0.149772
546.170879	0.150309
546.385537	0.150846
546.600177	0.150222
546.814799	0.150343
547.029402	0.150712
547.243988	0.150697
547.458555	0.150856
547.673103	0.150311
547.887634	0.150468
548.102146	0.150525
548.316640	0.150844
548.531116	0.151052
548.745574	0.150710
548.960013	0.150795
549.174435	0.151101
549.388838	0.150744
549.603222	0.151073
549.817589	0.151048
550.031937	0.151021
550.246267	0.151174
550.460579	0.151626
550.674873	0.151961
550.889148	0.151729
551.103405	0.151738
551.317644	0.152200
551.531865	0.152604
551.746068	0.152686
551.960252	0.153039
552.174418	0.153216
552.388566	0.152863
552.602696	0.153015
552.816807	0.153219
553.030900	0.153380
553.244975	0.153262
553.459032	0.153394
553.673070	0.153627
553.887091	0.153624
554.101093	0.153446
554.315077	0.153854
554.529042	0.153858
554.742990	0.153728
554.956919	0.153267
555.170830	0.153546
555.384722	0.153399
555.598597	0.153601
555.812453	0.153511
556.026291	0.153340
556.240111	0.153241
556.453913	0.153521
556.667696	0.153719
556.881461	0.154586
557.095208	0.154897
557.308937	0.154492
557.522647	0.154540
557.736339	0.154480
557.950013	0.154776
558.163669	0.154828
558.377307	0.154641
558.590926	0.154718
558.804527	0.154533
559.018110	0.153575
559.231675	0.153949
559.445221	0.153950
559.658749	0.153932
559.872259	0.153749
560.085751	0.153806
560.299225	0.153913
560.512680	0.154083
560.726117	0.153968
560.939536	0.154513
561.152937	0.154532
561.366319	0.154557
561.579683	0.154647
561.793029	0.154976
562.006357	0.155371
562.219667	0.155545
562.432958	0.155259
562.646231	0.155423
562.859486	0.155612
563.072723	0.155995
563.285941	0.156101
563.499141	0.156455
563.712323	0.156394
563.925487	0.156081
564.138632	0.156313
564.351760	0.157135
564.564869	0.157176
564.777960	0.157097
564.991032	0.156864
565.204087	0.156516
565.417123	0.156545
565.630141	0.156791
565.843140	0.156586
566.056122	0.156373
566.269085	0.156243
566.482030	0.156348
566.694957	0.156616
566.907866	0.156499
567.120756	0.157167
567.333628	0.157218
567.546482	0.157474
567.759318	0.158240
567.972135	0.158486
568.184935	0.158476
568.397716	0.158605
568.610478	0.158841
568.823223	0.159040
569.035949	0.159142
569.248657	0.159133
569.461347	0.159418
569.674019	0.159566
569.886672	0.159828
570.099308	0.159930
570.311925	0.159951
570.524523	0.159939
570.737104	0.159788
570.949666	0.159779
571.162210	0.159373
571.374736	0.159120
571.587244	0.158906
571.799733	0.158630
572.012205	0.158765
572.224658	0.158816
572.437092	0.158857
572.649509	0.159673
572.861907	0.159619
573.074287	0.160250
573.286649	0.160376
573.498993	0.160569
573.711318	0.160916
573.923625	0.161050
574.135914	0.161186
574.348185	0.161612
574.560438	0.161250
574.772672	0.161259
574.984888	0.161449
575.197086	0.161364
575.409266	0.161308
575.621427	0.161608
575.833570	0.162140
576.045695	0.162290
576.257802	0.162157
576.469890	0.162642
576.681961	0.163286
576.894013	0.163385
577.106046	0.163540
577.318062	0.163762
577.530059	0.163515
577.742039	0.162818
577.954000	0.162981
578.165942	0.162667
578.377867	0.162366
578.589773	0.161925
578.801661	0.162169
579.013531	0.162094
579.225382	0.162584
579.437216	0.163007
579.649031	0.163096
579.860828	0.163175
580.072606	0.163411
580.284367	0.163265
580.496109	0.163557
580.707833	0.163333
580.919539	0.163396
581.131227	0.162947
581.342896	0.162860
581.554547	0.163466
581.766180	0.163186
581.977795	0.163457
582.189391	0.163838
582.400969	0.163953
582.612529	0.164212
582.824071	0.164689
583.035595	0.165125
583.247100	0.165288
583.458587	0.165170
583.670056	0.165829
583.881506	0.166168
584.092939	0.166046
584.304353	0.166456
584.515749	0.166600
584.727127	0.166994
584.938486	0.167021
585.149828	0.167257
585.361151	0.167401
585.572456	0.167446
585.783742	0.167834
585.995011	0.168189
586.206261	0.168230
586.417493	0.168767
586.628706	0.168782
586.839902	0.168267
587.051079	0.168019
587.262238	0.168006
587.473379	0.168134
587.684502	0.167756
587.895606	0.167744
588.106692	0.167879
588.317760	0.167420
588.528810	0.167432
588.739841	0.167768
588.950855	0.168161
589.161850	0.168203
589.372827	0.168628
589.583785	0.168632
589.794726	0.168827
590.005648	0.168824
590.216552	0.169124
590.427437	0.168924
590.638305	0.169253
590.849154	0.169372
591.059985	0.169631
591.270798	0.169167
591.481592	0.169300
591.692369	0.169841
591.903127	0.169575
592.113867	0.169662
592.324588	0.169909
592.535292	0.169782
592.745977	0.169852
592.956644	0.169878
593.167293	0.170004
593.377923	0.170038
593.588536	0.169764
593.799130	0.169783
594.009706	0.169593
594.220263	0.169741
594.430803	0.169976
594.641324	0.169647
594.851827	0.169764
595.062312	0.170033
595.272778	0.170152
595.483227	0.170051
595.693657	0.170382
595.904069	0.170641
596.114462	0.170660
596.324838	0.170895
596.535195	0.171271
596.745534	0.171154
596.955855	0.171245
597.166157	0.171228
597.376441	0.171570
597.586707	0.171628
597.796955	0.171743
598.007185	0.171979
598.217396	0.171937
598.427589	0.171924
598.637764	0.172078
598.847921	0.172093
599.058060	0.172063
599.268180	0.171882
599.478282	0.171836
599.688366	0.171770
599.898431	0.171617
600.108479	0.171563
600.318508	0.171569
600.528519	0.171539
600.738511	0.171558
600.948486	0.171690
601.158442	0.171881
601.368380	0.172104
601.578300	0.172076
601.788202	0.171880
601.998085	0.172299
602.207950	0.172789
602.417797	0.173069
602.627626	0.173154
602.837436	0.173410
603.047228	0.173964
603.257002	0.173935
603.466758	0.174180
603.676496	0.174742
603.886215	0.174727
604.095916	0.174718
604.305599	0.174768
604.515264	0.174718
604.724910	0.174689
604.934538	0.174294
605.144148	0.174369
605.353740	0.174376
605.563314	0.174154
605.772869	0.174091
605.982406	0.173920
606.191925	0.173922
606.401425	0.173941
606.610908	0.173951
606.820372	0.173877
607.029818	0.174291
607.239246	0.174353
607.448655	0.174155
607.658047	0.174120
607.867420	0.174042
608.076775	0.174216
608.286111	0.174518
608.495430	0.174609
608.704730	0.174991
608.914012	0.174546
609.123275	0.174582
609.332521	0.174829
609.541748	0.175106
609.750957	0.175614
609.960148	0.175542
610.169321	0.175633
610.378475	0.175908
610.587611	0.175668
610.796729	0.175804
611.005829	0.176215
611.214910	0.176491
611.423974	0.176523
611.633019	0.175976
611.842045	0.176058
612.051054	0.175800
612.260044	0.175785
612.469017	0.175890
612.677970	0.176050
612.886906	0.175908
613.095824	0.175944
613.304723	0.175767
613.513604	0.176190
613.722467	0.176398
613.931311	0.176775
614.140138	0.176911
614.348946	0.177465
614.557736	0.177645
614.766507	0.177763
614.975261	0.177988
615.183996	0.178212
615.392713	0.178181
615.601412	0.178355
615.810092	0.178380
616.018754	0.178292
616.227399	0.178023
616.436024	0.178109
616.644632	0.178198
616.853222	0.178080
617.061793	0.178390
617.270346	0.178343
617.478880	0.178002
617.687397	0.178173
617.895895	0.178458
618.104375	0.178499
618.312837	0.178487
618.521281	0.178519
618.729706	0.178935
618.938113	0.179029
619.146502	0.179368
619.354873	0.179680
619.563226	0.179609
619.771560	0.179274
619.979876	0.179541
620.188174	0.179675
620.396453	0.179705
620.604715	0.179605
620.812958	0.179458
621.021183	0.179541
621.229390	0.179519
621.437578	0.179531
621.645748	0.180047
621.853900	0.179898
622.062034	0.179987
622.270150	0.179720
622.478247	0.179521
622.686326	0.179814
622.894387	0.179842
623.102430	0.180102
623.310454	0.180248
623.518461	0.180006
623.726449	0.180133
623.934418	0.180190
624.142370	0.180705
624.350303	0.180869
624.558218	0.180716
624.766115	0.180593
624.973994	0.180504
625.181855	0.180783
625.389697	0.180879
625.597521	0.180839
625.805327	0.180626
626.013114	0.180562
626.220883	0.180630
626.428634	0.180649
626.636367	0.180796
626.844082	0.180762
627.051778	0.180564
627.259457	0.180475
627.467117	0.180302
627.674758	0.180414
627.882382	0.180435
628.089987	0.180365
628.297574	0.180230
628.505143	0.180331
628.712694	0.180632
628.920226	0.180751
629.127740	0.180922
629.335236	0.181053
629.542714	0.181195
629.750174	0.181193
629.957615	0.181498
630.165038	0.181760
630.372443	0.181864
630.579829	0.181710
630.787198	0.181826
630.994548	0.181920
631.201880	0.182213
631.409194	0.182270
631.616489	0.182121
631.823766	0.181912
632.031025	0.182047
632.238266	0.182026
632.445489	0.181966
632.652693	0.182108
632.859879	0.182072
633.067047	0.181868
633.274197	0.181997
633.481329	0.182240
633.688442	0.182431
633.895537	0.182608
634.102614	0.182645
634.309672	0.183052
634.516713	0.182978
634.723735	0.183328
634.930739	0.183743
635.137724	0.183808
635.344692	0.183936
635.551641	0.184117
635.758572	0.184308
635.965485	0.184457
636.172379	0.184541
636.379256	0.184761
636.586114	0.184700
636.792954	0.184862
636.999775	0.185027
637.206579	0.185047
637.413364	0.185143
637.620131	0.185065
637.826880	0.185197
638.033610	0.184993
638.240323	0.185140
638.447017	0.185304
638.653692	0.185384
638.860350	0.185586
639.066990	0.185737
639.273611	0.185596
639.480214	0.185705
639.686798	0.185813
639.893365	0.186237
640.099913	0.186112
640.306443	0.186028
640.512955	0.185856
640.719449	0.185896
640.925924	0.186039
641.132381	0.186382
641.338820	0.186094
641.545241	0.186038
641.751644	0.185895
641.958028	0.185853
642.164394	0.186106
642.370742	0.186034
642.577071	0.186123
642.783383	0.186199
642.989676	0.186298
643.195951	0.186846
643.402207	0.187114
643.608446	0.187210
643.814666	0.187270
644.020868	0.187432
644.227052	0.187871
644.433218	0.187719
644.639365	0.188029
644.845494	0.187879
645.051605	0.187776
645.257698	0.187815
645.463772	0.187964
645.669828	0.188211
645.875866	0.188407
646.081886	0.188457
646.287888	0.188627
646.493871	0.188746
646.699836	0.188845
646.905783	0.188930
647.111712	0.189005
647.317622	0.189093
647.523514	0.189331
647.729388	0.188982
647.935244	0.188853
648.141082	0.188858
648.346901	0.188455
648.552702	0.188554
648.758485	0.188450
648.964250	0.188480
649.169996	0.188561
649.375724	0.188592
649.581434	0.188859
649.787126	0.189017
649.992800	0.189105
650.198455	0.189522
650.404092	0.189524
650.609711	0.189491
650.815311	0.189543
651.020894	0.189434
651.226458	0.189337
651.432004	0.189599
651.637532	0.189735
651.843041	0.189717
652.048532	0.189561
652.254006	0.189651
652.459460	0.189939
652.664897	0.190116
652.870315	0.190196
653.075716	0.190373
653.281097	0.190058
653.486461	0.189981
653.691807	0.190251
653.897134	0.190573
654.102443	0.190653
654.307734	0.190810
654.513006	0.190942
654.718261	0.191332
654.923497	0.191413
655.128715	0.191678
655.333915	0.192053
655.539096	0.192075
655.744259	0.192192
655.949404	0.192599
656.154531	0.192824
656.359640	0.192699
656.564730	0.192620
656.769802	0.192852
656.974856	0.193154
657.179892	0.193162
657.384909	0.193382
657.589908	0.193415
657.794889	0.193413
657.999852	0.193158
658.204797	0.193512
658.409723	0.193618
658.614631	0.193464
658.819521	0.193530
659.024393	0.193407
659.229246	0.193374
659.434081	0.193410
659.638898	0.193346
659.843697	0.193572
660.048478	0.193425
660.253240	0.193453
660.457984	0.193413
660.662710	0.193435
660.867417	0.193664
661.072107	0.193611
661.276778	0.193499
661.481431	0.193604
661.686066	0.193670
661.890682	0.193846
662.095281	0.193850
662.299861	0.194108
662.504422	0.194004
662.708966	0.193966
662.913491	0.194310
663.117999	0.194538
663.322488	0.194661
663.526958	0.194777
663.731411	0.194852
663.935845	0.194977
664.140261	0.195143
664.344659	0.195135
664.549038	0.195209
664.753400	0.194990
664.957743	0.195037
665.162068	0.195112
665.366375	0.195150
665.570663	0.195150
665.774933	0.195402
665.979185	0.195225
666.183419	0.195386
666.387635	0.195537
666.591832	0.195866
666.796011	0.196095
667.000172	0.196237
667.204315	0.196176
667.408439	0.196446
667.612545	0.196505
667.816634	0.196866
668.020703	0.197030
668.224755	0.197214
668.428788	0.197286
668.632803	0.197242
668.836800	0.197114
669.040779	0.197468
669.244739	0.197341
669.448681	0.197387
669.652605	0.197443
669.856511	0.197522
670.060399	0.197512
670.264268	0.197564
670.468119	0.197671
670.671952	0.197996
670.875767	0.198138
671.079563	0.198488
671.283341	0.198520
671.487101	0.198670
671.690843	0.198852
671.894567	0.199083
672.098272	0.199195
672.301959	0.199357
672.505628	0.199385
672.709278	0.199230
672.912911	0.199351
673.116525	0.199460
673.320121	0.199418
673.523699	0.199418
673.727258	0.199576
673.930799	0.199833
674.134322	0.199906
674.337827	0.199742
674.541314	0.199849
674.744782	0.199845
674.948232	0.199793
675.151664	0.200041
675.355078	0.200174
675.558474	0.200123
675.761851	0.200042
675.965210	0.199905
676.168551	0.200149
676.371873	0.200429
676.575178	0.200527
676.778464	0.200745
676.981732	0.200677
677.184981	0.200550
677.388213	0.200595
677.591426	0.200637
677.794621	0.200764
677.997798	0.200745
678.200956	0.200893
678.404097	0.200810
678.607219	0.201155
678.810323	0.201179
679.013408	0.201496
679.216476	0.201555
679.419525	0.201586
679.622556	0.201873
679.825569	0.202058
680.028563	0.201925
680.231540	0.202088
680.434498	0.202020
680.637438	0.202180
680.840359	0.202095
681.043263	0.202387
681.246148	0.202448
681.449015	0.202301
681.651864	0.202290
681.854694	0.202472
682.057506	0.202665
682.260301	0.202756
682.463076	0.202645
682.665834	0.203025
682.868573	0.203229
683.071295	0.203644
683.273998	0.204118
683.476682	0.204193
683.679349	0.204204
683.881997	0.204124
684.084627	0.204166
684.287239	0.204328
684.489833	0.204228
684.692408	0.204235
684.894965	0.203994
685.097504	0.203923
685.300025	0.204331
685.502527	0.204643
685.705012	0.204534
685.907478	0.204612
686.109925	0.204866
686.312355	0.205004
686.514766	0.204830
686.717159	0.205017
686.919534	0.204991
687.121891	0.204986
687.324230	0.204907
687.526550	0.205195
687.728852	0.205168
687.931136	0.204907
688.133401	0.204841
688.335649	0.205040
688.537878	0.204915
688.740089	0.204947
688.942281	0.204704
689.144456	0.204762
689.346612	0.204872
689.548750	0.205027
689.750870	0.205249
689.952971	0.205489
690.155055	0.205536
690.357120	0.205782
690.559167	0.206072
690.761195	0.206360
690.963206	0.206100
691.165198	0.206194
691.367172	0.206290
691.569128	0.206441
691.771065	0.206321
691.972984	0.206450
692.174885	0.206465
692.376768	0.206153
692.578633	0.205999
692.780479	0.206171
692.982308	0.206228
693.184118	0.206309
693.385909	0.206220
