sample name	sample
index	1290
start time	 04-29-2021  03:06:03 PM


Wavelength (nm)	Absorbance
494.344910	NaN
494.563924	NaN
494.782919	NaN
495.001897	NaN
495.220856	0.304867
495.439797	0.179389
495.658719	0.074926
495.877624	0.001527
496.096510	-0.035493
496.315378	-0.006062
496.534227	0.077470
496.753059	0.147912
496.971872	0.102255
497.190667	0.118564
497.409444	0.119801
497.628203	0.124569
497.846943	0.126256
498.065665	0.124218
498.284369	0.125330
498.503055	0.123471
498.721723	0.123732
498.940372	0.123813
499.159003	0.124252
499.377616	0.123511
499.596210	0.122336
499.814787	0.121146
500.033345	0.121962
500.251885	0.120409
500.470406	0.120972
500.688910	0.120489
500.907395	0.119933
501.125862	0.119021
501.344311	0.120676
501.562742	0.121260
501.781154	0.120690
501.999548	0.121373
502.217924	0.122177
502.436282	0.121142
502.654621	0.121434
502.872942	0.122469
503.091245	0.122867
503.309530	0.122546
503.527797	0.122362
503.746045	0.123643
503.964275	0.123886
504.182487	0.123239
504.400681	0.124237
504.618856	0.124366
504.837013	0.123334
505.055152	0.124093
505.273273	0.124456
505.491376	0.124408
505.709460	0.124040
505.927526	0.123284
506.145574	0.124127
506.363604	0.124500
506.581615	0.125162
506.799608	0.125884
507.017583	0.125564
507.235540	0.125628
507.453478	0.126360
507.671399	0.127213
507.889301	0.126769
508.107185	0.126418
508.325050	0.125461
508.542898	0.125953
508.760727	0.126324
508.978538	0.126710
509.196330	0.126979
509.414105	0.127443
509.631861	0.127218
509.849599	0.127625
510.067319	0.127796
510.285021	0.127939
510.502704	0.127451
510.720369	0.127267
510.938016	0.127579
511.155645	0.127486
511.373255	0.127252
511.590848	0.126337
511.808422	0.126430
512.025977	0.127260
512.243515	0.128711
512.461034	0.128430
512.678536	0.128169
512.896018	0.128146
513.113483	0.128898
513.330930	0.129276
513.548358	0.130571
513.765768	0.130953
513.983160	0.129863
514.200533	0.129028
514.417889	0.129456
514.635226	0.130897
514.852545	0.130919
515.069845	0.130038
515.287128	0.129707
515.504392	0.129319
515.721638	0.129219
515.938866	0.129625
516.156075	0.130116
516.373267	0.129822
516.590440	0.129442
516.807594	0.129735
517.024731	0.130696
517.241850	0.131236
517.458950	0.131607
517.676032	0.131792
517.893095	0.132570
518.110141	0.133141
518.327168	0.133395
518.544177	0.132441
518.761168	0.132978
518.978141	0.132347
519.195095	0.132419
519.412031	0.132888
519.628949	0.134006
519.845849	0.134131
520.062731	0.134009
520.279594	0.135217
520.496439	0.136872
520.713266	0.136798
520.930074	0.138434
521.146865	0.138801
521.363637	0.139434
521.580391	0.139770
521.797127	0.140634
522.013844	0.141317
522.230543	0.140423
522.447224	0.140109
522.663887	0.141096
522.880532	0.140356
523.097158	0.140509
523.313766	0.140710
523.530356	0.141095
523.746928	0.140789
523.963481	0.140858
524.180017	0.142188
524.396534	0.143193
524.613032	0.142221
524.829513	0.142687
525.045975	0.143364
525.262420	0.144096
525.478845	0.143684
525.695253	0.144075
525.911643	0.144617
526.128014	0.143972
526.344367	0.143721
526.560702	0.144957
526.777018	0.145649
526.993316	0.146103
527.209597	0.145691
527.425858	0.146655
527.642102	0.146255
527.858328	0.146199
528.074535	0.147114
528.290724	0.147087
528.506894	0.146829
528.723047	0.147446
528.939181	0.147229
529.155297	0.148089
529.371395	0.148076
529.587475	0.149525
529.803536	0.150263
530.019579	0.150366
530.235604	0.151031
530.451611	0.151826
530.667600	0.151883
530.883570	0.152131
531.099522	0.152044
531.315456	0.152680
531.531372	0.152801
531.747269	0.152392
531.963148	0.152503
532.179009	0.152927
532.394852	0.152854
532.610676	0.152276
532.826482	0.152793
533.042271	0.153349
533.258040	0.153466
533.473792	0.153679
533.689525	0.154123
533.905240	0.155263
534.120937	0.155817
534.336616	0.156438
534.552277	0.156960
534.767919	0.157065
534.983543	0.157290
535.199149	0.157465
535.414736	0.158111
535.630306	0.158230
535.845857	0.157764
536.061390	0.157478
536.276904	0.157265
536.492401	0.158275
536.707879	0.159229
536.923339	0.159607
537.138781	0.159862
537.354204	0.160020
537.569610	0.160543
537.784997	0.161180
538.000366	0.161681
538.215716	0.162241
538.431049	0.162281
538.646363	0.162102
538.861659	0.162322
539.076937	0.162642
539.292196	0.162608
539.507438	0.162860
539.722661	0.162724
539.937866	0.162928
540.153052	0.162942
540.368221	0.163216
540.583371	0.163243
540.798503	0.163343
541.013617	0.163792
541.228712	0.164133
541.443789	0.164778
541.658848	0.165521
541.873889	0.166125
542.088912	0.167090
542.303916	0.167014
542.518902	0.167836
542.733870	0.168578
542.948820	0.168822
543.163752	0.169473
543.378665	0.169462
543.593560	0.168847
543.808437	0.169252
544.023295	0.169193
544.238136	0.169597
544.452958	0.169914
544.667762	0.170227
544.882548	0.170342
545.097315	0.169822
545.312064	0.170346
545.526795	0.170937
545.741508	0.170787
545.956203	0.171002
546.170879	0.171349
546.385537	0.171474
546.600177	0.171019
546.814799	0.171743
547.029402	0.172634
547.243988	0.172365
547.458555	0.172670
547.673103	0.172898
547.887634	0.173461
548.102146	0.173603
548.316640	0.173574
548.531116	0.174041
548.745574	0.173744
548.960013	0.173681
549.174435	0.174166
549.388838	0.174300
549.603222	0.174424
549.817589	0.174327
550.031937	0.174559
550.246267	0.174647
550.460579	0.174892
550.674873	0.175654
550.889148	0.176226
551.103405	0.176556
551.317644	0.177090
551.531865	0.177433
551.746068	0.177762
551.960252	0.178050
552.174418	0.178364
552.388566	0.178225
552.602696	0.177963
552.816807	0.178018
553.030900	0.178007
553.244975	0.177928
553.459032	0.178066
553.673070	0.178165
553.887091	0.178514
554.101093	0.179073
554.315077	0.179541
554.529042	0.179650
554.742990	0.179629
554.956919	0.179957
555.170830	0.180051
555.384722	0.180190
555.598597	0.180110
555.812453	0.179745
556.026291	0.179710
556.240111	0.179672
556.453913	0.179665
556.667696	0.180037
556.881461	0.179817
557.095208	0.180313
557.308937	0.181073
557.522647	0.181614
557.736339	0.181914
557.950013	0.181836
558.163669	0.182171
558.377307	0.182318
558.590926	0.182175
558.804527	0.182407
559.018110	0.182353
559.231675	0.182240
559.445221	0.182140
559.658749	0.182449
559.872259	0.182639
560.085751	0.182689
560.299225	0.183079
560.512680	0.183285
560.726117	0.183479
560.939536	0.184068
561.152937	0.183894
561.366319	0.184138
561.579683	0.184969
561.793029	0.185392
562.006357	0.185687
562.219667	0.185927
562.432958	0.186110
562.646231	0.186516
562.859486	0.186097
563.072723	0.186455
563.285941	0.186719
563.499141	0.186538
563.712323	0.186295
563.925487	0.186633
564.138632	0.186604
564.351760	0.186854
564.564869	0.187186
564.777960	0.187596
564.991032	0.187910
565.204087	0.188208
565.417123	0.187824
565.630141	0.188381
565.843140	0.188780
566.056122	0.189026
566.269085	0.189121
566.482030	0.189206
566.694957	0.189811
566.907866	0.189983
567.120756	0.189670
567.333628	0.189932
567.546482	0.189765
567.759318	0.189385
567.972135	0.189602
568.184935	0.189765
568.397716	0.189989
568.610478	0.189651
568.823223	0.189114
569.035949	0.189297
569.248657	0.189573
569.461347	0.189345
569.674019	0.189026
569.886672	0.188849
570.099308	0.188586
570.311925	0.188407
570.524523	0.188683
570.737104	0.189135
570.949666	0.189047
571.162210	0.189115
571.374736	0.189500
571.587244	0.190157
571.799733	0.190062
572.012205	0.190436
572.224658	0.190682
572.437092	0.190935
572.649509	0.191264
572.861907	0.191741
573.074287	0.191822
573.286649	0.192262
573.498993	0.192131
573.711318	0.192704
573.923625	0.192651
574.135914	0.192663
574.348185	0.192616
574.560438	0.192472
574.772672	0.192256
574.984888	0.192030
575.197086	0.191588
575.409266	0.191540
575.621427	0.191701
575.833570	0.191504
576.045695	0.191268
576.257802	0.191072
576.469890	0.191433
576.681961	0.191679
576.894013	0.191916
577.106046	0.192435
577.318062	0.192934
577.530059	0.192815
577.742039	0.193139
577.954000	0.193688
578.165942	0.193743
578.377867	0.193901
578.589773	0.194115
578.801661	0.193823
579.013531	0.193846
579.225382	0.193804
579.437216	0.193819
579.649031	0.194283
579.860828	0.194144
580.072606	0.194287
580.284367	0.194091
580.496109	0.194398
580.707833	0.195149
580.919539	0.195391
581.131227	0.195398
581.342896	0.195408
581.554547	0.195647
581.766180	0.196242
581.977795	0.196467
582.189391	0.196585
582.400969	0.196788
582.612529	0.197225
582.824071	0.197156
583.035595	0.197348
583.247100	0.197540
583.458587	0.197524
583.670056	0.197263
583.881506	0.197659
584.092939	0.197902
584.304353	0.198100
584.515749	0.197937
584.727127	0.198674
584.938486	0.199207
585.149828	0.199737
585.361151	0.199968
585.572456	0.200352
585.783742	0.200176
585.995011	0.200416
586.206261	0.200503
586.417493	0.200758
586.628706	0.200626
586.839902	0.200129
587.051079	0.200164
587.262238	0.200385
587.473379	0.200461
587.684502	0.200978
587.895606	0.201379
588.106692	0.201584
588.317760	0.201659
588.528810	0.202229
588.739841	0.202929
588.950855	0.203479
589.161850	0.203563
589.372827	0.203605
589.583785	0.203790
589.794726	0.203772
590.005648	0.203575
590.216552	0.203724
590.427437	0.203707
590.638305	0.203808
590.849154	0.203876
591.059985	0.204049
591.270798	0.204303
591.481592	0.204275
591.692369	0.204438
591.903127	0.204898
592.113867	0.204971
592.324588	0.204927
592.535292	0.205381
592.745977	0.205463
592.956644	0.205200
593.167293	0.205473
593.377923	0.205775
593.588536	0.206075
593.799130	0.206288
594.009706	0.207040
594.220263	0.207131
594.430803	0.207048
594.641324	0.207255
594.851827	0.207607
595.062312	0.207811
595.272778	0.207665
595.483227	0.207964
595.693657	0.207740
595.904069	0.207594
596.114462	0.207462
596.324838	0.207814
596.535195	0.207767
596.745534	0.208175
596.955855	0.208144
597.166157	0.208577
597.376441	0.208141
597.586707	0.208479
597.796955	0.208530
598.007185	0.208804
598.217396	0.208984
598.427589	0.208993
598.637764	0.209147
598.847921	0.209461
599.058060	0.209728
599.268180	0.210276
599.478282	0.210060
599.688366	0.210176
599.898431	0.210263
600.108479	0.210413
600.318508	0.210489
600.528519	0.210500
600.738511	0.210272
600.948486	0.209986
601.158442	0.210048
601.368380	0.210473
601.578300	0.210515
601.788202	0.210891
601.998085	0.210733
602.207950	0.211053
602.417797	0.211452
602.627626	0.211733
602.837436	0.212332
603.047228	0.212441
603.257002	0.212743
603.466758	0.212965
603.676496	0.213282
603.886215	0.213463
604.095916	0.213700
604.305599	0.213718
604.515264	0.214324
604.724910	0.214451
604.934538	0.214779
605.144148	0.214641
605.353740	0.215026
605.563314	0.214952
605.772869	0.215044
605.982406	0.215316
606.191925	0.215292
606.401425	0.215250
606.610908	0.215331
606.820372	0.215349
607.029818	0.215965
607.239246	0.215900
607.448655	0.215867
607.658047	0.216251
607.867420	0.216302
608.076775	0.216430
608.286111	0.216457
608.495430	0.216216
608.704730	0.216454
608.914012	0.216212
609.123275	0.216514
609.332521	0.216667
609.541748	0.216602
609.750957	0.216830
609.960148	0.216962
610.169321	0.217339
610.378475	0.217690
610.587611	0.217765
610.796729	0.217807
611.005829	0.217803
611.214910	0.218377
611.423974	0.218945
611.633019	0.218716
611.842045	0.219097
612.051054	0.219265
612.260044	0.219554
612.469017	0.219383
612.677970	0.219674
612.886906	0.219967
613.095824	0.219979
613.304723	0.219707
613.513604	0.219990
613.722467	0.220041
613.931311	0.219914
614.140138	0.220202
614.348946	0.220545
614.557736	0.220842
614.766507	0.220592
614.975261	0.220771
615.183996	0.221087
615.392713	0.221368
615.601412	0.221606
615.810092	0.221681
616.018754	0.221783
616.227399	0.221915
616.436024	0.222097
616.644632	0.222347
616.853222	0.222333
617.061793	0.222203
617.270346	0.222101
617.478880	0.221733
617.687397	0.221858
617.895895	0.221691
618.104375	0.221679
618.312837	0.221675
618.521281	0.221839
618.729706	0.221945
618.938113	0.222177
619.146502	0.222252
619.354873	0.222724
619.563226	0.222621
619.771560	0.222697
619.979876	0.222915
620.188174	0.222828
620.396453	0.222839
620.604715	0.222826
620.812958	0.222589
621.021183	0.222640
621.229390	0.222346
621.437578	0.222589
621.645748	0.222705
621.853900	0.222776
622.062034	0.223100
622.270150	0.223408
622.478247	0.223683
622.686326	0.224187
622.894387	0.224583
623.102430	0.225117
623.310454	0.225567
623.518461	0.225354
623.726449	0.225339
623.934418	0.225354
624.142370	0.225408
624.350303	0.225082
624.558218	0.225001
624.766115	0.224939
624.973994	0.225280
625.181855	0.224889
625.389697	0.225436
625.597521	0.225644
625.805327	0.225732
626.013114	0.225678
626.220883	0.226314
626.428634	0.226562
626.636367	0.226849
626.844082	0.226765
627.051778	0.227360
627.259457	0.227400
627.467117	0.227839
627.674758	0.227883
627.882382	0.228188
628.089987	0.228533
628.297574	0.228600
628.505143	0.228734
628.712694	0.228735
628.920226	0.228467
629.127740	0.228660
629.335236	0.228708
629.542714	0.229005
629.750174	0.229213
629.957615	0.228889
630.165038	0.228931
630.372443	0.228967
630.579829	0.229307
630.787198	0.229655
630.994548	0.229814
631.201880	0.229643
631.409194	0.230108
631.616489	0.230288
631.823766	0.230447
632.031025	0.230834
632.238266	0.230961
632.445489	0.230979
632.652693	0.231030
632.859879	0.231232
633.067047	0.231526
633.274197	0.231252
633.481329	0.231483
633.688442	0.231682
633.895537	0.231877
634.102614	0.231972
634.309672	0.232017
634.516713	0.232490
634.723735	0.232661
634.930739	0.232733
635.137724	0.233025
635.344692	0.232794
635.551641	0.233164
635.758572	0.233190
635.965485	0.233388
636.172379	0.233850
636.379256	0.233942
636.586114	0.234026
636.792954	0.234266
636.999775	0.234580
637.206579	0.235071
637.413364	0.235123
637.620131	0.235322
637.826880	0.235489
638.033610	0.235649
638.240323	0.235574
638.447017	0.235715
638.653692	0.235978
638.860350	0.236036
639.066990	0.236034
639.273611	0.236445
639.480214	0.236564
639.686798	0.237017
639.893365	0.237076
640.099913	0.237142
640.306443	0.237470
640.512955	0.237392
640.719449	0.237798
640.925924	0.238003
641.132381	0.237788
641.338820	0.238095
641.545241	0.237866
641.751644	0.238302
641.958028	0.238968
642.164394	0.238867
642.370742	0.239345
642.577071	0.239445
642.783383	0.239816
642.989676	0.240183
643.195951	0.240337
643.402207	0.240716
643.608446	0.240477
643.814666	0.240327
644.020868	0.240472
644.227052	0.240634
644.433218	0.240810
644.639365	0.240675
644.845494	0.240607
645.051605	0.240622
645.257698	0.240774
645.463772	0.240941
645.669828	0.240854
645.875866	0.241066
646.081886	0.241166
646.287888	0.241112
646.493871	0.241369
646.699836	0.241613
646.905783	0.241682
647.111712	0.241971
647.317622	0.242237
647.523514	0.242570
647.729388	0.242896
647.935244	0.242846
648.141082	0.243092
648.346901	0.243289
648.552702	0.243691
648.758485	0.244064
648.964250	0.244273
649.169996	0.244459
649.375724	0.244866
649.581434	0.245098
649.787126	0.245604
649.992800	0.245755
650.198455	0.245863
650.404092	0.246031
650.609711	0.246293
650.815311	0.246060
651.020894	0.246421
651.226458	0.246251
651.432004	0.246452
651.637532	0.246399
651.843041	0.246598
652.048532	0.246740
652.254006	0.246701
652.459460	0.246784
652.664897	0.246917
652.870315	0.246896
653.075716	0.247110
653.281097	0.247317
653.486461	0.247513
653.691807	0.247563
653.897134	0.247695
654.102443	0.247539
654.307734	0.247486
654.513006	0.247915
654.718261	0.248290
654.923497	0.248580
655.128715	0.248653
655.333915	0.248765
655.539096	0.249031
655.744259	0.249166
655.949404	0.249636
656.154531	0.250012
656.359640	0.250144
656.564730	0.250025
656.769802	0.250326
656.974856	0.250393
657.179892	0.250613
657.384909	0.250658
657.589908	0.251168
657.794889	0.251474
657.999852	0.251413
658.204797	0.251571
658.409723	0.251689
658.614631	0.251707
658.819521	0.251784
659.024393	0.252066
659.229246	0.252233
659.434081	0.252302
659.638898	0.252523
659.843697	0.252577
660.048478	0.253073
660.253240	0.253356
660.457984	0.253652
660.662710	0.253930
660.867417	0.254164
661.072107	0.254526
661.276778	0.254716
661.481431	0.254950
661.686066	0.255373
661.890682	0.255400
662.095281	0.255867
662.299861	0.255806
662.504422	0.256132
662.708966	0.256328
662.913491	0.256546
663.117999	0.256673
663.322488	0.256937
663.526958	0.256998
663.731411	0.257162
663.935845	0.257346
664.140261	0.257708
664.344659	0.257863
664.549038	0.257898
664.753400	0.258074
664.957743	0.258191
665.162068	0.258297
665.366375	0.258633
665.570663	0.258633
665.774933	0.258568
665.979185	0.258484
666.183419	0.258710
666.387635	0.259034
666.591832	0.259255
666.796011	0.259341
667.000172	0.259331
667.204315	0.259358
667.408439	0.259666
667.612545	0.259792
667.816634	0.260428
668.020703	0.260643
668.224755	0.260912
668.428788	0.260921
668.632803	0.261357
668.836800	0.261695
669.040779	0.262248
669.244739	0.262315
669.448681	0.262623
669.652605	0.262947
669.856511	0.263045
670.060399	0.262883
670.264268	0.263044
670.468119	0.263138
670.671952	0.263324
670.875767	0.263320
671.079563	0.263831
671.283341	0.264056
671.487101	0.264024
671.690843	0.264481
671.894567	0.265042
672.098272	0.265471
672.301959	0.265735
672.505628	0.265769
672.709278	0.266188
672.912911	0.266318
673.116525	0.266655
673.320121	0.266811
673.523699	0.266796
673.727258	0.267165
673.930799	0.267272
674.134322	0.267471
674.337827	0.267759
674.541314	0.267888
674.744782	0.268008
674.948232	0.268071
675.151664	0.268302
675.355078	0.268551
675.558474	0.268681
675.761851	0.268855
675.965210	0.269194
676.168551	0.269454
676.371873	0.269824
676.575178	0.269901
676.778464	0.270081
676.981732	0.270262
677.184981	0.270292
677.388213	0.270084
677.591426	0.270561
677.794621	0.270520
677.997798	0.270677
678.200956	0.270660
678.404097	0.271072
678.607219	0.271321
678.810323	0.271406
679.013408	0.271533
679.216476	0.271975
679.419525	0.272128
679.622556	0.272365
679.825569	0.272543
680.028563	0.272853
680.231540	0.273048
680.434498	0.273059
680.637438	0.273362
680.840359	0.273859
681.043263	0.273921
681.246148	0.273762
681.449015	0.273946
681.651864	0.273840
681.854694	0.273952
682.057506	0.273987
682.260301	0.274218
682.463076	0.274566
682.665834	0.274504
682.868573	0.274746
683.071295	0.275204
683.273998	0.275627
683.476682	0.276308
683.679349	0.276690
683.881997	0.277101
684.084627	0.277441
684.287239	0.277468
684.489833	0.277608
684.692408	0.277727
684.894965	0.277624
685.097504	0.277629
685.300025	0.277606
685.502527	0.277453
685.705012	0.277440
685.907478	0.277429
686.109925	0.277379
686.312355	0.277681
686.514766	0.278103
686.717159	0.278445
686.919534	0.278727
687.121891	0.278907
687.324230	0.279164
687.526550	0.279554
687.728852	0.279954
687.931136	0.280349
688.133401	0.280785
688.335649	0.280851
688.537878	0.281125
688.740089	0.281357
688.942281	0.281593
689.144456	0.281732
689.346612	0.281641
689.548750	0.281798
689.750870	0.282119
689.952971	0.282378
690.155055	0.282529
690.357120	0.282643
690.559167	0.282568
690.761195	0.282807
690.963206	0.282880
691.165198	0.283134
691.367172	0.282851
691.569128	0.282925
691.771065	0.282855
691.972984	0.283250
692.174885	0.283413
692.376768	0.283628
692.578633	0.283813
692.780479	0.284183
692.982308	0.284407
693.184118	0.284827
693.385909	0.284876
693.587683	0.284916
