sample name	sample
index	466
start time	 03-11-2021  12:07:50 PM


Wavelength (nm)	Absorbance
494.344910	-0.115105
494.563924	-0.115105
494.782919	-0.115105
495.001897	-0.136887
495.220856	-0.080696
495.439797	-0.039599
495.658719	-0.050001
495.877624	-0.063235
496.096510	-0.101612
496.315378	-0.138750
496.534227	-0.136986
496.753059	-0.140673
496.971872	-0.107284
497.190667	0.061573
497.409444	0.076417
497.628203	0.082429
497.846943	0.086002
498.065665	0.087804
498.284369	0.089674
498.503055	0.090001
498.721723	0.090296
498.940372	0.090167
499.159003	0.090331
499.377616	0.090264
499.596210	0.090204
499.814787	0.090484
500.033345	0.090219
500.251885	0.090192
500.470406	0.090333
500.688910	0.089654
500.907395	0.090251
501.125862	0.090670
501.344311	0.090981
501.562742	0.091493
501.781154	0.090862
501.999548	0.091748
502.217924	0.092186
502.436282	0.092439
502.654621	0.094337
502.872942	0.093333
503.091245	0.093079
503.309530	0.093792
503.527797	0.093953
503.746045	0.093566
503.964275	0.093063
504.182487	0.092709
504.400681	0.093250
504.618856	0.092200
504.837013	0.092916
505.055152	0.092687
505.273273	0.093087
505.491376	0.092637
505.709460	0.093299
505.927526	0.093217
506.145574	0.093333
506.363604	0.092799
506.581615	0.092910
506.799608	0.092683
507.017583	0.093612
507.235540	0.093046
507.453478	0.093790
507.671399	0.093992
507.889301	0.094901
508.107185	0.094648
508.325050	0.094762
508.542898	0.094585
508.760727	0.095061
508.978538	0.094496
509.196330	0.094423
509.414105	0.094290
509.631861	0.094117
509.849599	0.093832
510.067319	0.094103
510.285021	0.094137
510.502704	0.095009
510.720369	0.095822
510.938016	0.096751
511.155645	0.097139
511.373255	0.097055
511.590848	0.097540
511.808422	0.097226
512.025977	0.097070
512.243515	0.096926
512.461034	0.096451
512.678536	0.095368
512.896018	0.094508
513.113483	0.095130
513.330930	0.095256
513.548358	0.095491
513.765768	0.095814
513.983160	0.097027
514.200533	0.097387
514.417889	0.097476
514.635226	0.098184
514.852545	0.098308
515.069845	0.096846
515.287128	0.096716
515.504392	0.097244
515.721638	0.097136
515.938866	0.095961
516.156075	0.095955
516.373267	0.096024
516.590440	0.095683
516.807594	0.096070
517.024731	0.096668
517.241850	0.096509
517.458950	0.095478
517.676032	0.095800
517.893095	0.096196
518.110141	0.096338
518.327168	0.096882
518.544177	0.096691
518.761168	0.096577
518.978141	0.096840
519.195095	0.096980
519.412031	0.097588
519.628949	0.097704
519.845849	0.097150
520.062731	0.096907
520.279594	0.096297
520.496439	0.096511
520.713266	0.096887
520.930074	0.097037
521.146865	0.097460
521.363637	0.097490
521.580391	0.097274
521.797127	0.098054
522.013844	0.098689
522.230543	0.099208
522.447224	0.099025
522.663887	0.098561
522.880532	0.098441
523.097158	0.098056
523.313766	0.098155
523.530356	0.098253
523.746928	0.098303
523.963481	0.098391
524.180017	0.098306
524.396534	0.098791
524.613032	0.098473
524.829513	0.098554
525.045975	0.099144
525.262420	0.098819
525.478845	0.099153
525.695253	0.099149
525.911643	0.098659
526.128014	0.098653
526.344367	0.099180
526.560702	0.100362
526.777018	0.100564
526.993316	0.100671
527.209597	0.101255
527.425858	0.101849
527.642102	0.101971
527.858328	0.102456
528.074535	0.102433
528.290724	0.102075
528.506894	0.101804
528.723047	0.102289
528.939181	0.102300
529.155297	0.102480
529.371395	0.102431
529.587475	0.102661
529.803536	0.102800
530.019579	0.103585
530.235604	0.104143
530.451611	0.104591
530.667600	0.104617
530.883570	0.104667
531.099522	0.104761
531.315456	0.105209
531.531372	0.105136
531.747269	0.105166
531.963148	0.104816
532.179009	0.104688
532.394852	0.104496
532.610676	0.104598
532.826482	0.104992
533.042271	0.104975
533.258040	0.104328
533.473792	0.104938
533.689525	0.105484
533.905240	0.106284
534.120937	0.106453
534.336616	0.107128
534.552277	0.107365
534.767919	0.107713
534.983543	0.107882
535.199149	0.108115
535.414736	0.107917
535.630306	0.107800
535.845857	0.107607
536.061390	0.107622
536.276904	0.107637
536.492401	0.107453
536.707879	0.107465
536.923339	0.107399
537.138781	0.107583
537.354204	0.107933
537.569610	0.107776
537.784997	0.107942
538.000366	0.108753
538.215716	0.108789
538.431049	0.108464
538.646363	0.108622
538.861659	0.108706
539.076937	0.108980
539.292196	0.108850
539.507438	0.109329
539.722661	0.109205
539.937866	0.108819
540.153052	0.108415
540.368221	0.109381
540.583371	0.109270
540.798503	0.109303
541.013617	0.109208
541.228712	0.109076
541.443789	0.109382
541.658848	0.109654
541.873889	0.109700
542.088912	0.110239
542.303916	0.110086
542.518902	0.110195
542.733870	0.110514
542.948820	0.110287
543.163752	0.110689
543.378665	0.111085
543.593560	0.111208
543.808437	0.112051
544.023295	0.111932
544.238136	0.112275
544.452958	0.112309
544.667762	0.112497
544.882548	0.113158
545.097315	0.113084
545.312064	0.112743
545.526795	0.112561
545.741508	0.111837
545.956203	0.112130
546.170879	0.112071
546.385537	0.112413
546.600177	0.112129
546.814799	0.112401
547.029402	0.112349
547.243988	0.112224
547.458555	0.112518
547.673103	0.112787
547.887634	0.112892
548.102146	0.112817
548.316640	0.112835
548.531116	0.113403
548.745574	0.113135
548.960013	0.113616
549.174435	0.113930
549.388838	0.114283
549.603222	0.114207
549.817589	0.114030
550.031937	0.113986
550.246267	0.113763
550.460579	0.113892
550.674873	0.113921
550.889148	0.114191
551.103405	0.114192
551.317644	0.114051
551.531865	0.114495
551.746068	0.114840
551.960252	0.115243
552.174418	0.115465
552.388566	0.115553
552.602696	0.115745
552.816807	0.115813
553.030900	0.116143
553.244975	0.116222
553.459032	0.115959
553.673070	0.116541
553.887091	0.116686
554.101093	0.116843
554.315077	0.117175
554.529042	0.117604
554.742990	0.117386
554.956919	0.117477
555.170830	0.117732
555.384722	0.117845
555.598597	0.117494
555.812453	0.117739
556.026291	0.117773
556.240111	0.117595
556.453913	0.117609
556.667696	0.117979
556.881461	0.118124
557.095208	0.118143
557.308937	0.118517
557.522647	0.118229
557.736339	0.117844
557.950013	0.118108
558.163669	0.118060
558.377307	0.118216
558.590926	0.118349
558.804527	0.117996
559.018110	0.117741
559.231675	0.117723
559.445221	0.118286
559.658749	0.118684
559.872259	0.118961
560.085751	0.118966
560.299225	0.118674
560.512680	0.118618
560.726117	0.119032
560.939536	0.119076
561.152937	0.119060
561.366319	0.118657
561.579683	0.118684
561.793029	0.118386
562.006357	0.118774
562.219667	0.118879
562.432958	0.119130
562.646231	0.119050
562.859486	0.119626
563.072723	0.120061
563.285941	0.120280
563.499141	0.120129
563.712323	0.120301
563.925487	0.120380
564.138632	0.120615
564.351760	0.120600
564.564869	0.120457
564.777960	0.120191
564.991032	0.120183
565.204087	0.120427
565.417123	0.120650
565.630141	0.120842
565.843140	0.120828
566.056122	0.120774
566.269085	0.120805
566.482030	0.121138
566.694957	0.121390
566.907866	0.121230
567.120756	0.121204
567.333628	0.121134
567.546482	0.120969
567.759318	0.120833
567.972135	0.120989
568.184935	0.121000
568.397716	0.121111
568.610478	0.121083
568.823223	0.121251
569.035949	0.121338
569.248657	0.121542
569.461347	0.122018
569.674019	0.122581
569.886672	0.122483
570.099308	0.122708
570.311925	0.123070
570.524523	0.123027
570.737104	0.123085
570.949666	0.123412
571.162210	0.123783
571.374736	0.123474
571.587244	0.123242
571.799733	0.123432
572.012205	0.123384
572.224658	0.123052
572.437092	0.123415
572.649509	0.123741
572.861907	0.123660
573.074287	0.123412
573.286649	0.123618
573.498993	0.123691
573.711318	0.123442
573.923625	0.123365
574.135914	0.123226
574.348185	0.122773
574.560438	0.122670
574.772672	0.122739
574.984888	0.122990
575.197086	0.122931
575.409266	0.122812
575.621427	0.123210
575.833570	0.123685
576.045695	0.123762
576.257802	0.123768
576.469890	0.123681
576.681961	0.123792
576.894013	0.123695
577.106046	0.124004
577.318062	0.124272
577.530059	0.124506
577.742039	0.124412
577.954000	0.124697
578.165942	0.125596
578.377867	0.125674
578.589773	0.125670
578.801661	0.125871
579.013531	0.125918
579.225382	0.125751
579.437216	0.125887
579.649031	0.125806
579.860828	0.126068
580.072606	0.125775
580.284367	0.125992
580.496109	0.126044
580.707833	0.126002
580.919539	0.125979
581.131227	0.126352
581.342896	0.126141
581.554547	0.126148
581.766180	0.126064
581.977795	0.126336
582.189391	0.126453
582.400969	0.126773
582.612529	0.126739
582.824071	0.126735
583.035595	0.126806
583.247100	0.127124
583.458587	0.127290
583.670056	0.127485
583.881506	0.127283
584.092939	0.127030
584.304353	0.127177
584.515749	0.127456
584.727127	0.127276
584.938486	0.127365
585.149828	0.127305
585.361151	0.127273
585.572456	0.127516
585.783742	0.127892
585.995011	0.128285
586.206261	0.128132
586.417493	0.128303
586.628706	0.128502
586.839902	0.128357
587.051079	0.128421
587.262238	0.128909
587.473379	0.128597
587.684502	0.128372
587.895606	0.128187
588.106692	0.128256
588.317760	0.128239
588.528810	0.128389
588.739841	0.128640
588.950855	0.128581
589.161850	0.127949
589.372827	0.128394
589.583785	0.128648
589.794726	0.128894
590.005648	0.128722
590.216552	0.128858
590.427437	0.129009
590.638305	0.128971
590.849154	0.129092
591.059985	0.129425
591.270798	0.129370
591.481592	0.129252
591.692369	0.129460
591.903127	0.129810
592.113867	0.129905
592.324588	0.129893
592.535292	0.130135
592.745977	0.130276
592.956644	0.130394
593.167293	0.130476
593.377923	0.130767
593.588536	0.130762
593.799130	0.130790
594.009706	0.130750
594.220263	0.131156
594.430803	0.131051
594.641324	0.130915
594.851827	0.131048
595.062312	0.131128
595.272778	0.131034
595.483227	0.131186
595.693657	0.131402
595.904069	0.131350
596.114462	0.131346
596.324838	0.131190
596.535195	0.131681
596.745534	0.131834
596.955855	0.131929
597.166157	0.132125
597.376441	0.132139
597.586707	0.131909
597.796955	0.132006
598.007185	0.132029
598.217396	0.132567
598.427589	0.132483
598.637764	0.132517
598.847921	0.132728
599.058060	0.132793
599.268180	0.132959
599.478282	0.133068
599.688366	0.133575
599.898431	0.133524
600.108479	0.133418
600.318508	0.133633
600.528519	0.133687
600.738511	0.133647
600.948486	0.133693
601.158442	0.133646
601.368380	0.134074
601.578300	0.133858
601.788202	0.134058
601.998085	0.134255
602.207950	0.134214
602.417797	0.134383
602.627626	0.134312
602.837436	0.134458
603.047228	0.134445
603.257002	0.134407
603.466758	0.134554
603.676496	0.134425
603.886215	0.134594
604.095916	0.134654
604.305599	0.134708
604.515264	0.134935
604.724910	0.134671
604.934538	0.134965
605.144148	0.135065
605.353740	0.135039
605.563314	0.135266
605.772869	0.134895
605.982406	0.134909
606.191925	0.134815
606.401425	0.134733
606.610908	0.134908
606.820372	0.134633
607.029818	0.134450
607.239246	0.134662
607.448655	0.134763
607.658047	0.135077
607.867420	0.135081
608.076775	0.135158
608.286111	0.135425
608.495430	0.135696
608.704730	0.135975
608.914012	0.136325
609.123275	0.136312
609.332521	0.136363
609.541748	0.136408
609.750957	0.136727
609.960148	0.137102
610.169321	0.136989
610.378475	0.136894
610.587611	0.136968
610.796729	0.137023
611.005829	0.136919
611.214910	0.136920
611.423974	0.136869
611.633019	0.136703
611.842045	0.136677
612.051054	0.136932
612.260044	0.136854
612.469017	0.136908
612.677970	0.136881
612.886906	0.137072
613.095824	0.137127
613.304723	0.137060
613.513604	0.137021
613.722467	0.136958
613.931311	0.136947
614.140138	0.137123
614.348946	0.137094
614.557736	0.137089
614.766507	0.136939
614.975261	0.137102
615.183996	0.137521
615.392713	0.137559
615.601412	0.137522
615.810092	0.137460
616.018754	0.137577
616.227399	0.137793
616.436024	0.137928
616.644632	0.138235
616.853222	0.138121
617.061793	0.138205
617.270346	0.138564
617.478880	0.138588
617.687397	0.138921
617.895895	0.138945
618.104375	0.139012
618.312837	0.139019
618.521281	0.138873
618.729706	0.138832
618.938113	0.138916
619.146502	0.139058
619.354873	0.139440
619.563226	0.139124
619.771560	0.139285
619.979876	0.139391
620.188174	0.139535
620.396453	0.139817
620.604715	0.139808
620.812958	0.139694
621.021183	0.139877
621.229390	0.139916
621.437578	0.139983
621.645748	0.140150
621.853900	0.140186
622.062034	0.140320
622.270150	0.140382
622.478247	0.140793
622.686326	0.140809
622.894387	0.140651
623.102430	0.140524
623.310454	0.140817
623.518461	0.140915
623.726449	0.140872
623.934418	0.140614
624.142370	0.140778
624.350303	0.140812
624.558218	0.141124
624.766115	0.141203
624.973994	0.141249
625.181855	0.141104
625.389697	0.141275
625.597521	0.141404
625.805327	0.141608
626.013114	0.141632
626.220883	0.141746
626.428634	0.141736
626.636367	0.141885
626.844082	0.141886
627.051778	0.142094
627.259457	0.141922
627.467117	0.142021
627.674758	0.142326
627.882382	0.142252
628.089987	0.142401
628.297574	0.142347
628.505143	0.142366
628.712694	0.142678
628.920226	0.142768
629.127740	0.143116
629.335236	0.143076
629.542714	0.142842
629.750174	0.142980
629.957615	0.142939
630.165038	0.143129
630.372443	0.143137
630.579829	0.143132
630.787198	0.143259
630.994548	0.143290
631.201880	0.143608
631.409194	0.144071
631.616489	0.143984
631.823766	0.144074
632.031025	0.144148
632.238266	0.144295
632.445489	0.144387
632.652693	0.144322
632.859879	0.144147
633.067047	0.143810
633.274197	0.143660
633.481329	0.144003
633.688442	0.144096
633.895537	0.143798
634.102614	0.143852
634.309672	0.143921
634.516713	0.144114
634.723735	0.144148
634.930739	0.144532
635.137724	0.144376
635.344692	0.144444
635.551641	0.144333
635.758572	0.145011
635.965485	0.144996
636.172379	0.145112
636.379256	0.145160
636.586114	0.145352
636.792954	0.145254
636.999775	0.145531
637.206579	0.145576
637.413364	0.145627
637.620131	0.145519
637.826880	0.145676
638.033610	0.145650
638.240323	0.145676
638.447017	0.145902
638.653692	0.146017
638.860350	0.146209
639.066990	0.145983
639.273611	0.146106
639.480214	0.146095
639.686798	0.146136
639.893365	0.146344
640.099913	0.146516
640.306443	0.146186
640.512955	0.146209
640.719449	0.146138
640.925924	0.146424
641.132381	0.146704
641.338820	0.146702
641.545241	0.146593
641.751644	0.146506
641.958028	0.146622
642.164394	0.146841
642.370742	0.147167
642.577071	0.147336
642.783383	0.147428
642.989676	0.147618
643.195951	0.147762
643.402207	0.147989
643.608446	0.148206
643.814666	0.148358
644.020868	0.148223
644.227052	0.148280
644.433218	0.148276
644.639365	0.148338
644.845494	0.148113
645.051605	0.148169
645.257698	0.148365
645.463772	0.148318
645.669828	0.148014
645.875866	0.148070
646.081886	0.147905
646.287888	0.147934
646.493871	0.147870
646.699836	0.147801
646.905783	0.147822
647.111712	0.147642
647.317622	0.148002
647.523514	0.148102
647.729388	0.148361
647.935244	0.148609
648.141082	0.148768
648.346901	0.149135
648.552702	0.149537
648.758485	0.149878
648.964250	0.150280
649.169996	0.150340
649.375724	0.150804
649.581434	0.151050
649.787126	0.151161
649.992800	0.151217
650.198455	0.151107
650.404092	0.151091
650.609711	0.150856
650.815311	0.150809
651.020894	0.150613
651.226458	0.150379
651.432004	0.150251
651.637532	0.150233
651.843041	0.150321
652.048532	0.150365
652.254006	0.150411
652.459460	0.150620
652.664897	0.150594
652.870315	0.150677
653.075716	0.150926
653.281097	0.151015
653.486461	0.151060
653.691807	0.151292
653.897134	0.151373
654.102443	0.151465
654.307734	0.151570
654.513006	0.151585
654.718261	0.151555
654.923497	0.151685
655.128715	0.151841
655.333915	0.151871
655.539096	0.151697
655.744259	0.151694
655.949404	0.151828
656.154531	0.151886
656.359640	0.152159
656.564730	0.152369
656.769802	0.152371
656.974856	0.152429
657.179892	0.152512
657.384909	0.152747
657.589908	0.153046
657.794889	0.153218
657.999852	0.153287
658.204797	0.153288
658.409723	0.153603
658.614631	0.153729
658.819521	0.154010
659.024393	0.154376
659.229246	0.154384
659.434081	0.154489
659.638898	0.154557
659.843697	0.154494
660.048478	0.154658
660.253240	0.154569
660.457984	0.154421
660.662710	0.154300
660.867417	0.154210
661.072107	0.154376
661.276778	0.154335
661.481431	0.154340
661.686066	0.154606
661.890682	0.154618
662.095281	0.154693
662.299861	0.154826
662.504422	0.154848
662.708966	0.154934
662.913491	0.154894
663.117999	0.155009
663.322488	0.155123
663.526958	0.155415
663.731411	0.155561
663.935845	0.155538
664.140261	0.155749
664.344659	0.156178
664.549038	0.156269
664.753400	0.156499
664.957743	0.156581
665.162068	0.156703
665.366375	0.156683
665.570663	0.156595
665.774933	0.156823
665.979185	0.156754
666.183419	0.156644
666.387635	0.156736
666.591832	0.156448
666.796011	0.156646
667.000172	0.156853
667.204315	0.156825
667.408439	0.157041
667.612545	0.157089
667.816634	0.157394
668.020703	0.157495
668.224755	0.157634
668.428788	0.157916
668.632803	0.157802
668.836800	0.157753
669.040779	0.157751
669.244739	0.157697
669.448681	0.157966
669.652605	0.157979
669.856511	0.158274
670.060399	0.158245
670.264268	0.158392
670.468119	0.158738
670.671952	0.158696
670.875767	0.158641
671.079563	0.158488
671.283341	0.158402
671.487101	0.158559
671.690843	0.158331
671.894567	0.158374
672.098272	0.158507
672.301959	0.158472
672.505628	0.158711
672.709278	0.159011
672.912911	0.159406
673.116525	0.159435
673.320121	0.159261
673.523699	0.159526
673.727258	0.159573
673.930799	0.159756
674.134322	0.159916
674.337827	0.159997
674.541314	0.160164
674.744782	0.160561
674.948232	0.160684
675.151664	0.160846
675.355078	0.160803
675.558474	0.160860
675.761851	0.160891
675.965210	0.160815
676.168551	0.160788
676.371873	0.160706
676.575178	0.160534
676.778464	0.160743
676.981732	0.160901
677.184981	0.161061
677.388213	0.161386
677.591426	0.161326
677.794621	0.161294
677.997798	0.161508
678.200956	0.161601
678.404097	0.161740
678.607219	0.161822
678.810323	0.161942
679.013408	0.161850
679.216476	0.161868
679.419525	0.162117
679.622556	0.162395
679.825569	0.162253
680.028563	0.162214
680.231540	0.162285
680.434498	0.162223
680.637438	0.162261
680.840359	0.162418
681.043263	0.162449
681.246148	0.162564
681.449015	0.162617
681.651864	0.162752
681.854694	0.163061
682.057506	0.163110
682.260301	0.163193
682.463076	0.163143
682.665834	0.163409
682.868573	0.163630
683.071295	0.163605
683.273998	0.163718
683.476682	0.163894
683.679349	0.164059
683.881997	0.164242
684.084627	0.164211
684.287239	0.164360
684.489833	0.164114
684.692408	0.164084
684.894965	0.164182
685.097504	0.164294
685.300025	0.164496
685.502527	0.164638
685.705012	0.164807
685.907478	0.165129
686.109925	0.165418
686.312355	0.165798
686.514766	0.165952
686.717159	0.166156
686.919534	0.166303
687.121891	0.166155
687.324230	0.166214
687.526550	0.166210
687.728852	0.166256
687.931136	0.166133
688.133401	0.166092
688.335649	0.166001
688.537878	0.165943
688.740089	0.165841
688.942281	0.165993
689.144456	0.165976
689.346612	0.165852
689.548750	0.165777
689.750870	0.165822
689.952971	0.165811
690.155055	0.165981
690.357120	0.165942
690.559167	0.166088
690.761195	0.166196
690.963206	0.166296
691.165198	0.166419
691.367172	0.166648
691.569128	0.166690
691.771065	0.166840
691.972984	0.166693
692.174885	0.166872
692.376768	0.166864
692.578633	0.166864
692.780479	0.166832
692.982308	0.166878
693.184118	0.166811
693.385909	0.166998
