sample name	sample
index	677
start time	 03-22-2021  11:39:06 AM


Wavelength (nm)	Absorbance
494.344910	0.011197
494.563924	0.011197
494.782919	0.011197
495.001897	1.060698
495.220856	0.060554
495.439797	0.052692
495.658719	0.061762
495.877624	0.046298
496.096510	-0.002736
496.315378	-0.009393
496.534227	0.022527
496.753059	0.003165
496.971872	-0.015340
497.190667	0.103767
497.409444	0.124828
497.628203	0.127821
497.846943	0.131107
498.065665	0.133357
498.284369	0.134766
498.503055	0.136082
498.721723	0.137513
498.940372	0.138384
499.159003	0.138429
499.377616	0.138854
499.596210	0.138846
499.814787	0.139274
500.033345	0.139414
500.251885	0.139995
500.470406	0.138429
500.688910	0.138462
500.907395	0.138630
501.125862	0.139273
501.344311	0.137981
501.562742	0.138622
501.781154	0.138891
501.999548	0.139644
502.217924	0.138981
502.436282	0.140258
502.654621	0.140518
502.872942	0.140786
503.091245	0.140229
503.309530	0.141577
503.527797	0.142118
503.746045	0.141413
503.964275	0.140679
504.182487	0.140774
504.400681	0.140594
504.618856	0.141569
504.837013	0.140912
505.055152	0.141708
505.273273	0.141327
505.491376	0.141855
505.709460	0.142082
505.927526	0.143024
506.145574	0.144188
506.363604	0.144738
506.581615	0.143801
506.799608	0.144349
507.017583	0.144309
507.235540	0.145115
507.453478	0.144202
507.671399	0.144076
507.889301	0.143741
508.107185	0.143389
508.325050	0.142935
508.542898	0.142998
508.760727	0.143238
508.978538	0.142954
509.196330	0.142787
509.414105	0.143071
509.631861	0.144013
509.849599	0.144473
510.067319	0.143935
510.285021	0.144709
510.502704	0.145141
510.720369	0.145537
510.938016	0.145671
511.155645	0.144722
511.373255	0.145010
511.590848	0.144491
511.808422	0.143312
512.025977	0.142946
512.243515	0.142699
512.461034	0.142439
512.678536	0.142851
512.896018	0.143927
513.113483	0.144935
513.330930	0.144587
513.548358	0.144726
513.765768	0.146090
513.983160	0.145962
514.200533	0.145910
514.417889	0.146349
514.635226	0.146147
514.852545	0.145804
515.069845	0.146146
515.287128	0.146771
515.504392	0.146905
515.721638	0.146455
515.938866	0.147659
516.156075	0.147297
516.373267	0.146914
516.590440	0.147206
516.807594	0.147501
517.024731	0.147146
517.241850	0.147147
517.458950	0.147474
517.676032	0.147553
517.893095	0.147254
518.110141	0.147665
518.327168	0.148120
518.544177	0.147522
518.761168	0.147327
518.978141	0.147781
519.195095	0.148030
519.412031	0.148057
519.628949	0.148208
519.845849	0.148498
520.062731	0.148921
520.279594	0.148647
520.496439	0.148901
520.713266	0.148904
520.930074	0.148877
521.146865	0.148691
521.363637	0.148982
521.580391	0.148566
521.797127	0.148898
522.013844	0.149248
522.230543	0.149415
522.447224	0.149921
522.663887	0.150160
522.880532	0.149929
523.097158	0.150881
523.313766	0.150997
523.530356	0.151905
523.746928	0.151950
523.963481	0.152024
524.180017	0.153048
524.396534	0.153196
524.613032	0.153608
524.829513	0.154256
525.045975	0.153741
525.262420	0.154117
525.478845	0.154636
525.695253	0.155147
525.911643	0.154758
526.128014	0.154471
526.344367	0.155248
526.560702	0.155157
526.777018	0.155564
526.993316	0.155765
527.209597	0.155919
527.425858	0.155504
527.642102	0.155275
527.858328	0.156342
528.074535	0.156472
528.290724	0.155737
528.506894	0.155981
528.723047	0.156139
528.939181	0.156639
529.155297	0.156500
529.371395	0.157728
529.587475	0.157847
529.803536	0.157965
530.019579	0.158561
530.235604	0.159087
530.451611	0.159080
530.667600	0.159475
530.883570	0.159744
531.099522	0.160558
531.315456	0.159811
531.531372	0.160172
531.747269	0.160044
531.963148	0.159656
532.179009	0.159801
532.394852	0.160158
532.610676	0.160057
532.826482	0.159384
533.042271	0.158994
533.258040	0.159193
533.473792	0.159462
533.689525	0.159728
533.905240	0.160145
534.120937	0.160536
534.336616	0.160722
534.552277	0.160741
534.767919	0.161440
534.983543	0.161792
535.199149	0.162036
535.414736	0.162301
535.630306	0.163022
535.845857	0.163142
536.061390	0.162701
536.276904	0.162566
536.492401	0.162642
536.707879	0.162554
536.923339	0.162839
537.138781	0.163271
537.354204	0.163606
537.569610	0.163844
537.784997	0.164328
538.000366	0.164909
538.215716	0.165403
538.431049	0.165876
538.646363	0.166498
538.861659	0.166452
539.076937	0.165909
539.292196	0.165837
539.507438	0.165608
539.722661	0.165397
539.937866	0.165081
540.153052	0.165093
540.368221	0.165041
540.583371	0.165189
540.798503	0.165550
541.013617	0.166493
541.228712	0.166687
541.443789	0.166712
541.658848	0.167002
541.873889	0.167480
542.088912	0.167758
542.303916	0.168398
542.518902	0.167995
542.733870	0.168660
542.948820	0.168283
543.163752	0.168132
543.378665	0.168635
543.593560	0.168937
543.808437	0.169064
544.023295	0.169471
544.238136	0.169342
544.452958	0.169854
544.667762	0.169524
544.882548	0.170218
545.097315	0.170700
545.312064	0.170368
545.526795	0.170300
545.741508	0.170646
545.956203	0.170774
546.170879	0.171089
546.385537	0.171602
546.600177	0.172130
546.814799	0.172056
547.029402	0.172271
547.243988	0.172315
547.458555	0.173001
547.673103	0.173323
547.887634	0.173357
548.102146	0.173556
548.316640	0.173491
548.531116	0.173239
548.745574	0.173356
548.960013	0.173244
549.174435	0.173514
549.388838	0.173363
549.603222	0.173617
549.817589	0.173355
550.031937	0.173419
550.246267	0.173673
550.460579	0.173975
550.674873	0.174301
550.889148	0.174859
551.103405	0.175393
551.317644	0.175462
551.531865	0.175088
551.746068	0.175633
551.960252	0.175809
552.174418	0.175746
552.388566	0.176086
552.602696	0.176043
552.816807	0.175508
553.030900	0.175411
553.244975	0.175556
553.459032	0.175690
553.673070	0.175826
553.887091	0.175566
554.101093	0.175852
554.315077	0.175449
554.529042	0.175463
554.742990	0.176039
554.956919	0.176288
555.170830	0.176322
555.384722	0.176589
555.598597	0.176557
555.812453	0.176952
556.026291	0.176935
556.240111	0.177150
556.453913	0.177236
556.667696	0.176863
556.881461	0.176935
557.095208	0.177083
557.308937	0.177230
557.522647	0.177553
557.736339	0.177468
557.950013	0.177422
558.163669	0.177665
558.377307	0.177972
558.590926	0.178470
558.804527	0.178464
559.018110	0.178483
559.231675	0.179003
559.445221	0.178855
559.658749	0.179116
559.872259	0.179334
560.085751	0.179504
560.299225	0.180045
560.512680	0.180855
560.726117	0.181113
560.939536	0.180971
561.152937	0.180595
561.366319	0.180822
561.579683	0.181057
561.793029	0.181695
562.006357	0.182104
562.219667	0.182318
562.432958	0.182026
562.646231	0.182226
562.859486	0.182452
563.072723	0.182767
563.285941	0.183353
563.499141	0.183586
563.712323	0.183426
563.925487	0.183228
564.138632	0.182486
564.351760	0.182523
564.564869	0.182217
564.777960	0.182326
564.991032	0.182387
565.204087	0.181977
565.417123	0.181779
565.630141	0.181653
565.843140	0.181613
566.056122	0.181889
566.269085	0.181530
566.482030	0.181552
566.694957	0.181818
566.907866	0.181430
567.120756	0.181514
567.333628	0.181533
567.546482	0.181675
567.759318	0.181609
567.972135	0.182260
568.184935	0.182662
568.397716	0.182926
568.610478	0.183367
568.823223	0.184093
569.035949	0.184427
569.248657	0.184945
569.461347	0.185335
569.674019	0.186138
569.886672	0.185929
570.099308	0.186184
570.311925	0.186171
570.524523	0.185406
570.737104	0.185332
570.949666	0.185581
571.162210	0.185365
571.374736	0.185601
571.587244	0.185559
571.799733	0.185435
572.012205	0.185387
572.224658	0.185659
572.437092	0.186150
572.649509	0.185982
572.861907	0.185880
573.074287	0.186102
573.286649	0.186285
573.498993	0.186189
573.711318	0.186436
573.923625	0.186819
574.135914	0.186978
574.348185	0.187080
574.560438	0.187281
574.772672	0.187098
574.984888	0.187224
575.197086	0.187078
575.409266	0.186887
575.621427	0.186702
575.833570	0.186641
576.045695	0.186789
576.257802	0.187169
576.469890	0.187295
576.681961	0.187863
576.894013	0.187739
577.106046	0.187768
577.318062	0.187820
577.530059	0.188099
577.742039	0.187809
577.954000	0.187841
578.165942	0.187847
578.377867	0.188002
578.589773	0.187634
578.801661	0.187721
579.013531	0.187701
579.225382	0.188110
579.437216	0.188398
579.649031	0.188728
579.860828	0.188820
580.072606	0.188721
580.284367	0.188834
580.496109	0.188953
580.707833	0.189060
580.919539	0.189002
581.131227	0.189086
581.342896	0.189208
581.554547	0.189621
581.766180	0.189409
581.977795	0.189599
582.189391	0.189981
582.400969	0.190360
582.612529	0.190586
582.824071	0.190617
583.035595	0.190736
583.247100	0.190752
583.458587	0.190807
583.670056	0.191341
583.881506	0.191826
584.092939	0.192002
584.304353	0.192239
584.515749	0.192319
584.727127	0.192747
584.938486	0.192692
585.149828	0.192903
585.361151	0.192913
585.572456	0.193179
585.783742	0.193236
585.995011	0.193243
586.206261	0.193220
586.417493	0.193483
586.628706	0.193431
586.839902	0.193502
587.051079	0.193656
587.262238	0.193761
587.473379	0.193659
587.684502	0.193452
587.895606	0.193272
588.106692	0.193311
588.317760	0.193195
588.528810	0.193298
588.739841	0.193454
588.950855	0.193372
589.161850	0.193535
589.372827	0.193286
589.583785	0.193557
589.794726	0.194083
590.005648	0.194052
590.216552	0.194364
590.427437	0.194707
590.638305	0.194940
590.849154	0.195077
591.059985	0.195032
591.270798	0.195625
591.481592	0.196096
591.692369	0.195778
591.903127	0.196276
592.113867	0.196517
592.324588	0.196472
592.535292	0.196673
592.745977	0.196907
592.956644	0.196944
593.167293	0.196626
593.377923	0.196415
593.588536	0.196923
593.799130	0.196635
594.009706	0.196422
594.220263	0.196366
594.430803	0.196385
594.641324	0.196093
594.851827	0.196290
595.062312	0.196779
595.272778	0.196718
595.483227	0.196590
595.693657	0.196893
595.904069	0.197241
596.114462	0.197740
596.324838	0.197837
596.535195	0.198292
596.745534	0.198109
596.955855	0.198322
597.166157	0.198376
597.376441	0.198445
597.586707	0.198728
597.796955	0.198698
598.007185	0.198531
598.217396	0.198706
598.427589	0.198720
598.637764	0.198873
598.847921	0.198627
599.058060	0.199047
599.268180	0.199007
599.478282	0.198939
599.688366	0.198873
599.898431	0.199080
600.108479	0.199006
600.318508	0.199268
600.528519	0.199731
600.738511	0.200050
600.948486	0.199891
601.158442	0.200290
601.368380	0.200673
601.578300	0.200923
601.788202	0.201092
601.998085	0.201520
602.207950	0.201737
602.417797	0.201641
602.627626	0.201388
602.837436	0.201370
603.047228	0.201348
603.257002	0.200815
603.466758	0.200956
603.676496	0.200901
603.886215	0.200652
604.095916	0.200225
604.305599	0.200299
604.515264	0.200712
604.724910	0.201001
604.934538	0.201356
605.144148	0.201700
605.353740	0.201740
605.563314	0.201924
605.772869	0.201989
605.982406	0.202338
606.191925	0.202512
606.401425	0.202598
606.610908	0.202516
606.820372	0.202277
607.029818	0.202452
607.239246	0.202657
607.448655	0.202709
607.658047	0.202625
607.867420	0.202590
608.076775	0.202762
608.286111	0.202705
608.495430	0.202882
608.704730	0.202871
608.914012	0.202994
609.123275	0.202932
609.332521	0.203094
609.541748	0.203481
609.750957	0.203243
609.960148	0.203176
610.169321	0.203299
610.378475	0.203432
610.587611	0.203492
610.796729	0.203784
611.005829	0.203763
611.214910	0.203865
611.423974	0.203718
611.633019	0.203776
611.842045	0.203903
612.051054	0.204014
612.260044	0.204168
612.469017	0.204287
612.677970	0.204163
612.886906	0.204613
613.095824	0.204496
613.304723	0.204734
613.513604	0.205189
613.722467	0.205146
613.931311	0.205083
614.140138	0.204795
614.348946	0.205023
614.557736	0.204926
614.766507	0.204570
614.975261	0.204705
615.183996	0.204507
615.392713	0.204531
615.601412	0.204648
615.810092	0.204606
616.018754	0.205223
616.227399	0.205041
616.436024	0.205274
616.644632	0.205554
616.853222	0.205503
617.061793	0.205889
617.270346	0.205848
617.478880	0.205966
617.687397	0.206058
617.895895	0.206013
618.104375	0.206486
618.312837	0.206647
618.521281	0.206793
618.729706	0.207045
618.938113	0.207047
619.146502	0.207511
619.354873	0.207584
619.563226	0.207945
619.771560	0.207878
619.979876	0.207701
620.188174	0.207474
620.396453	0.207198
620.604715	0.207229
620.812958	0.207266
621.021183	0.206924
621.229390	0.207132
621.437578	0.207099
621.645748	0.207340
621.853900	0.207452
622.062034	0.207780
622.270150	0.208078
622.478247	0.208315
622.686326	0.208342
622.894387	0.208546
623.102430	0.208673
623.310454	0.208716
623.518461	0.208443
623.726449	0.208658
623.934418	0.208710
624.142370	0.208970
624.350303	0.208857
624.558218	0.209170
624.766115	0.209288
624.973994	0.209260
625.181855	0.209395
625.389697	0.209571
625.597521	0.209609
625.805327	0.209807
626.013114	0.210155
626.220883	0.210291
626.428634	0.210480
626.636367	0.210859
626.844082	0.210916
627.051778	0.211120
627.259457	0.211328
627.467117	0.211463
627.674758	0.211011
627.882382	0.210858
628.089987	0.210526
628.297574	0.210361
628.505143	0.210235
628.712694	0.210203
628.920226	0.210099
629.127740	0.210079
629.335236	0.210125
629.542714	0.210688
629.750174	0.210643
629.957615	0.210945
630.165038	0.211250
630.372443	0.211224
630.579829	0.211164
630.787198	0.211400
630.994548	0.211491
631.201880	0.211458
631.409194	0.211476
631.616489	0.211606
631.823766	0.211499
632.031025	0.211393
632.238266	0.211591
632.445489	0.211963
632.652693	0.211979
632.859879	0.212233
633.067047	0.212185
633.274197	0.212055
633.481329	0.212166
633.688442	0.212613
633.895537	0.212584
634.102614	0.212693
634.309672	0.212577
634.516713	0.212469
634.723735	0.212589
634.930739	0.212551
635.137724	0.212658
635.344692	0.212635
635.551641	0.212932
635.758572	0.213363
635.965485	0.213282
636.172379	0.213276
636.379256	0.213568
636.586114	0.213232
636.792954	0.213535
636.999775	0.213709
637.206579	0.213819
637.413364	0.213506
637.620131	0.213181
637.826880	0.213374
638.033610	0.213806
638.240323	0.213820
638.447017	0.214060
638.653692	0.214042
638.860350	0.214177
639.066990	0.214173
639.273611	0.214494
639.480214	0.214555
639.686798	0.214560
639.893365	0.214547
640.099913	0.214803
640.306443	0.214916
640.512955	0.215042
640.719449	0.214859
640.925924	0.214929
641.132381	0.215083
641.338820	0.215304
641.545241	0.215466
641.751644	0.215594
641.958028	0.215619
642.164394	0.215680
642.370742	0.215925
642.577071	0.216425
642.783383	0.216689
642.989676	0.216576
643.195951	0.216582
643.402207	0.216706
643.608446	0.216871
643.814666	0.216729
644.020868	0.217037
644.227052	0.217232
644.433218	0.217201
644.639365	0.217243
644.845494	0.217348
645.051605	0.217700
645.257698	0.217754
645.463772	0.217776
645.669828	0.218136
645.875866	0.218228
646.081886	0.218096
646.287888	0.218313
646.493871	0.218400
646.699836	0.218477
646.905783	0.218563
647.111712	0.218841
647.317622	0.219110
647.523514	0.219176
647.729388	0.219168
647.935244	0.219356
648.141082	0.219286
648.346901	0.219553
648.552702	0.219625
648.758485	0.219740
648.964250	0.219664
649.169996	0.219322
649.375724	0.219267
649.581434	0.219187
649.787126	0.219405
649.992800	0.219547
650.198455	0.219450
650.404092	0.219702
650.609711	0.219680
650.815311	0.219504
651.020894	0.219618
651.226458	0.219809
651.432004	0.220157
651.637532	0.220092
651.843041	0.220119
652.048532	0.220382
652.254006	0.220336
652.459460	0.220474
652.664897	0.220823
652.870315	0.221085
653.075716	0.221089
653.281097	0.221043
653.486461	0.221193
653.691807	0.221145
653.897134	0.221152
654.102443	0.221416
654.307734	0.221600
654.513006	0.221792
654.718261	0.221760
654.923497	0.221901
655.128715	0.222015
655.333915	0.222199
655.539096	0.222721
655.744259	0.222810
655.949404	0.223026
656.154531	0.223177
656.359640	0.223387
656.564730	0.223635
656.769802	0.223893
656.974856	0.224057
657.179892	0.224300
657.384909	0.224169
657.589908	0.224387
657.794889	0.224535
657.999852	0.224539
658.204797	0.224579
658.409723	0.224632
658.614631	0.224745
658.819521	0.225022
659.024393	0.224916
659.229246	0.225166
659.434081	0.225221
659.638898	0.225254
659.843697	0.225246
660.048478	0.225135
660.253240	0.225480
660.457984	0.225364
660.662710	0.225520
660.867417	0.225878
661.072107	0.226030
661.276778	0.226093
661.481431	0.226093
661.686066	0.226377
661.890682	0.226602
662.095281	0.226725
662.299861	0.226739
662.504422	0.226694
662.708966	0.226428
662.913491	0.226291
663.117999	0.226241
663.322488	0.226646
663.526958	0.226746
663.731411	0.226841
663.935845	0.226760
664.140261	0.227118
664.344659	0.227187
664.549038	0.227379
664.753400	0.227600
664.957743	0.227790
665.162068	0.227585
665.366375	0.227454
665.570663	0.227808
665.774933	0.227999
665.979185	0.227907
666.183419	0.227908
666.387635	0.228323
666.591832	0.228311
666.796011	0.228355
667.000172	0.228210
667.204315	0.228394
667.408439	0.228298
667.612545	0.228338
667.816634	0.228792
668.020703	0.229060
668.224755	0.228807
668.428788	0.228999
668.632803	0.229142
668.836800	0.229289
669.040779	0.229527
669.244739	0.229475
669.448681	0.229414
669.652605	0.229382
669.856511	0.229760
670.060399	0.230045
670.264268	0.230189
670.468119	0.230359
670.671952	0.230803
670.875767	0.230853
671.079563	0.231209
671.283341	0.231614
671.487101	0.231552
671.690843	0.231511
671.894567	0.231686
672.098272	0.231820
672.301959	0.232055
672.505628	0.232097
672.709278	0.232484
672.912911	0.232566
673.116525	0.232725
673.320121	0.233068
673.523699	0.233211
673.727258	0.233019
673.930799	0.233151
674.134322	0.233212
674.337827	0.233305
674.541314	0.233018
674.744782	0.233216
674.948232	0.233103
675.151664	0.233323
675.355078	0.233354
675.558474	0.233669
675.761851	0.233643
675.965210	0.233898
676.168551	0.233884
676.371873	0.234143
676.575178	0.234255
676.778464	0.234576
676.981732	0.234474
677.184981	0.234393
677.388213	0.234461
677.591426	0.234544
677.794621	0.234600
677.997798	0.234834
678.200956	0.234862
678.404097	0.234806
678.607219	0.234728
678.810323	0.234916
679.013408	0.235245
679.216476	0.235276
679.419525	0.235392
679.622556	0.235633
679.825569	0.235835
680.028563	0.236283
680.231540	0.236604
680.434498	0.236883
680.637438	0.237039
680.840359	0.237143
681.043263	0.237292
681.246148	0.237666
681.449015	0.237546
681.651864	0.237638
681.854694	0.237628
682.057506	0.237655
682.260301	0.237860
682.463076	0.237670
682.665834	0.237856
682.868573	0.238451
683.071295	0.238528
683.273998	0.238841
683.476682	0.238877
683.679349	0.238757
683.881997	0.238908
684.084627	0.238865
684.287239	0.239192
684.489833	0.239167
684.692408	0.239031
684.894965	0.238859
685.097504	0.238999
685.300025	0.239326
685.502527	0.239508
685.705012	0.239360
685.907478	0.239333
686.109925	0.239446
686.312355	0.239785
686.514766	0.239744
686.717159	0.240145
686.919534	0.239966
687.121891	0.239786
687.324230	0.239877
687.526550	0.240011
687.728852	0.240148
687.931136	0.240158
688.133401	0.240090
688.335649	0.240423
688.537878	0.240323
688.740089	0.240439
688.942281	0.240673
689.144456	0.241077
689.346612	0.241325
689.548750	0.241498
689.750870	0.241783
689.952971	0.241620
690.155055	0.241529
690.357120	0.242006
690.559167	0.242023
690.761195	0.242221
690.963206	0.241958
691.165198	0.241804
691.367172	0.241903
691.569128	0.241886
691.771065	0.242274
691.972984	0.242317
692.174885	0.242195
692.376768	0.242508
692.578633	0.242484
692.780479	0.242878
692.982308	0.243287
693.184118	0.243476
693.385909	0.243680
