sample name	sample
index	3
start time	 02-11-2021  11:10:12 AM
880	-0.035313
Peak Time (s)	81.535
Peak Height 	-0.03531
calc peak height	80,83
Baseline Time (s)	8.537
Baseline Value 	-0.004116
subtract baseline	10,4
Abs	-0.011856
Peak Time (s)	82.035
Peak Height 	-0.01186
calc peak height	80,83
Baseline Time (s)	9.037
Baseline Value 	0.005416
subtract baseline	10,3
PK_550	-0.003404
Peak Time (s)	82.035
Peak Height 	-0.003404
calc peak height	80,83
Baseline Time (s)	9.037
Baseline Value 	5.5074E-4
subtract baseline	10,2
PK_880	-0.021490
Peak Time (s)	82.536
Peak Height 	-0.02149
calc peak height	80,83
Baseline Time (s)	9.539
Baseline Value 	0.001555
subtract baseline	10,1


Time (s)	A880-A510	A880-A775	A880-A975	A880	I510	I775	I975	I880	
0.035000	-0.003433	-0.002711	-0.003008	0.006184	4250.249039	17630.986017	3111.034007	9601.843458
0.535500	-0.005457	-0.001366	-0.008025	0.004137	4250.323398	17746.762477	3108.641637	9633.988999
1.036000	-0.002944	-0.002466	-0.000257	0.000207	4271.816223	17844.093951	3118.157633	9696.144782
1.535500	-0.002667	-0.000477	-0.011210	0.001601	4268.064491	17864.635383	3108.121643	9674.028872
2.036000	0.001493	0.000749	-0.002291	0.007818	4261.187823	17693.177998	3110.293505	9576.277058
2.539500	-0.001245	-0.001462	0.003756	-0.000456	4279.776518	17901.711943	3122.034019	9706.688464
3.037000	-0.001388	0.000574	0.004912	0.004517	4262.589936	17800.325149	3118.866358	9628.009451
3.537000	0.000894	-0.000817	-0.011125	0.003312	4274.280569	17793.927324	3106.820575	9646.982299
4.037500	0.001127	0.001494	-0.008824	0.005514	4267.666309	17797.689089	3106.899466	9612.341567
4.535000	-0.001864	-0.000331	-0.005061	0.003623	4263.988788	17799.959210	3111.444985	9642.093023
5.035500	-0.001049	-0.000327	-0.018753	0.002750	4269.638645	17830.157693	3101.225377	9655.855723
5.535500	-0.001379	-0.000207	-0.006719	0.002832	4268.256097	17831.469232	3110.743249	9654.562435
6.035000	0.000304	-0.000085	0.012141	0.001114	4279.702850	17895.031713	3127.758217	9681.752015
6.556500	-0.003568	-0.000384	0.006620	0.000289	4269.446001	17913.256276	3123.803543	9694.841840
7.036500	-0.003210	-0.000833	-0.010277	0.004031	4258.134628	17768.683106	3106.923427	9635.655316
7.537000	-0.001322	-0.000945	-0.007741	0.000963	4274.728160	17870.493280	3111.428529	9684.147215
8.058500	-0.002993	-0.000243	0.005138	-0.000401	4273.696067	17942.054432	3123.141174	9705.811373
8.537500	-0.001981	0.000633	0.010910	0.000000	4275.753632	17958.576249	3127.659048	9699.431300
9.037000	0.002154	0.000000	0.000000	-0.000112	4290.132332	17940.459059	3118.632543	9701.208494
9.539000	0.000000	-0.001090	-0.002480	-0.000430	4283.898418	17913.690019	3116.852123	9706.267875
10.034500	0.000478	0.000357	0.002297	-0.000942	4287.259971	17981.745318	3121.223715	9714.427546
10.534500	0.000642	0.000284	0.002023	0.002168	4277.285245	17871.308471	3118.420521	9665.051218
11.035500	-0.005533	-0.001239	-0.001198	0.000724	4261.413372	17868.583806	3116.957540	9687.928981
11.536500	-0.001199	-0.002184	-0.013588	0.000192	4277.744052	17854.340460	3107.346352	9696.387322
12.036500	-0.002975	-0.000853	-0.002549	0.000684	4270.110397	17883.327436	3115.881559	9688.569396
12.536500	0.000377	-0.000885	0.008099	0.001328	4279.225663	17859.936679	3124.172365	9678.350107
13.037000	-0.005250	-0.000001	-0.016348	0.001526	4259.682842	17883.672830	3104.087923	9675.219014
13.537500	0.002193	0.001205	0.001376	0.002221	4282.349167	17901.379055	3117.843654	9664.224032
14.037500	-0.001372	-0.000478	-0.001023	0.001015	4274.386797	17884.854400	3116.862193	9683.323878
14.535500	-0.000706	-0.000062	-0.008714	0.001739	4274.189361	17874.189931	3110.016415	9671.844960
15.035500	0.000515	0.000596	0.007189	0.001932	4277.653535	17890.268483	3122.905036	9668.784767
15.535500	-0.002702	-0.000196	0.010781	0.001958	4266.751807	17861.999341	3125.896513	9668.373382
16.036000	-0.002285	0.000606	-0.002190	0.002102	4267.666803	17884.735783	3115.014915	9666.096099
16.537000	-0.001827	0.000708	-0.002322	0.002319	4268.475273	17880.781171	3114.730836	9662.673256
17.036500	0.002027	-0.000130	-0.011258	0.001454	4284.383115	17881.724226	3108.200758	9676.364964
17.536500	0.001790	0.000402	-0.005283	0.001915	4282.021342	17884.150226	3112.648762	9669.063854
18.037000	-0.003566	0.000951	0.001827	0.001549	4265.232498	17915.843831	3118.769582	9674.857594
18.537500	-0.002058	-0.001078	0.000880	0.000242	4274.676182	17890.800445	3119.066589	9695.578695
19.037500	-0.004451	0.000246	0.002458	0.001383	4262.829715	17897.165273	3119.429025	9677.489949
19.535000	-0.004795	-0.002114	-0.004585	-0.000753	4268.826123	17889.407039	3115.391776	9711.414401
20.035500	-0.001267	0.001228	-0.000546	-0.000989	4281.501713	18013.711862	3118.905726	9715.162027
20.536000	0.000450	0.000128	0.003798	-0.000745	4286.493202	17966.939102	3122.309525	9711.290381
21.036000	-0.002432	-0.000739	-0.005339	0.000208	4273.533167	17903.739466	3113.991453	9696.127215
21.536500	0.002687	0.001851	0.000839	0.000918	4288.443353	17968.990026	3118.475433	9684.859012
22.036500	0.003903	0.000588	-0.002327	-0.000403	4297.089042	17971.023683	3116.955956	9705.836730
22.537000	-0.002886	0.000386	0.008030	-0.000956	4275.921670	17983.233005	3126.033776	9714.639224
23.037500	-0.002152	-0.000205	-0.003293	0.000465	4273.610738	17913.343343	3115.452110	9692.042838
23.555000	-0.002077	-0.000755	-0.006097	-0.002269	4283.093653	17989.229350	3115.394926	9735.594953
24.035000	-0.003663	-0.002193	0.013271	0.001629	4264.637274	17804.508791	3128.279192	9673.590327
24.562500	-0.001101	-0.000589	-0.004162	-0.001401	4283.460708	17964.788275	3116.268869	9721.741381
25.038000	-0.003632	-0.000630	-0.005432	0.000816	4267.465414	17886.474950	3113.420971	9686.476777
25.536000	-0.000042	-0.000281	0.002416	-0.001334	4286.820286	17973.152647	3121.648137	9720.664704
26.036000	-0.001948	0.000753	0.008192	0.005381	4257.842426	17776.797227	3120.867287	9614.426213
26.536500	-0.001872	-0.000039	0.002390	-0.001632	4281.630125	17991.959838	3121.874740	9725.418198
27.037000	-0.004084	-0.000482	0.003668	-0.001203	4272.722868	17961.612544	3122.582484	9718.574070
27.537000	-0.004573	-0.000843	-0.006393	0.001537	4261.906123	17854.188280	3112.054835	9675.046259
28.037000	-0.001288	0.000827	-0.004158	0.002936	4268.214545	17863.566735	3112.732834	9652.923460
28.537500	-0.000402	-0.000809	-0.001080	0.001097	4277.376354	17870.545392	3116.747997	9682.010137
29.035500	-0.003165	-0.001177	0.010077	0.000791	4269.114273	17868.435379	3126.287128	9686.873781
29.534500	-0.001107	0.000459	-0.005019	0.002006	4271.940980	17882.969718	3112.788279	9667.615201
30.035500	-0.000093	0.001025	-0.005960	0.001538	4276.934148	17918.804228	3112.405479	9675.032091
30.536500	0.000156	-0.000293	0.007830	0.001241	4278.773329	17883.426094	3124.019472	9679.730357
31.036500	-0.002838	-0.001065	0.008135	0.000680	4270.583878	17876.139506	3124.746685	9688.635545
31.536500	-0.001051	0.000632	-0.000764	0.002086	4271.862025	17886.201022	3116.195693	9666.350402
32.040000	-0.002215	0.000442	0.003784	0.002278	4267.312890	17872.986883	3119.785521	9663.321042
32.537000	-0.001786	0.000412	0.006122	0.001350	4271.864495	17904.046499	3122.500219	9678.000418
33.037500	-0.002247	-0.000897	-0.000591	0.001368	4270.258227	17858.175741	3116.927106	9677.726533
33.535000	-0.001326	0.001241	-0.006405	0.002244	4270.405661	17901.772917	3111.472252	9663.848474
34.035500	0.001114	-0.001949	-0.002119	0.000416	4284.807682	17854.712679	3116.453624	9692.817653
34.535000	0.000287	0.000436	0.001742	0.001695	4277.683724	17892.940139	3118.579198	9672.547462
35.036000	0.000030	-0.000486	-0.001497	0.000754	4279.992037	17893.613935	3116.686837	9687.456624
35.536000	-0.001197	-0.000906	0.000417	0.000621	4276.303795	17883.678964	3118.372357	9689.574119
36.036500	-0.000371	0.000146	0.012227	0.001766	4275.224369	17880.441746	3127.278796	9671.411586
36.536500	0.001825	0.001530	-0.004022	0.002664	4279.604132	17897.282901	3113.064319	9657.217261
37.037000	0.002466	0.000442	0.003138	-0.001675	4296.524649	18010.230728	3122.534630	9726.101537
37.535000	0.000155	0.000080	0.009053	-0.001107	4286.720283	17977.828408	3127.024704	9717.052051
38.036500	-0.002698	0.000399	-0.003425	-0.001189	4277.342756	17991.800957	3116.699230	9718.354061
38.535500	-0.003075	-0.001227	-0.012998	-0.001978	4278.733851	17962.668154	3109.559166	9730.939015
39.035500	0.000037	-0.000923	0.002087	-0.000905	4285.634829	17935.946924	3121.018303	9713.834629
39.536000	-0.004017	0.000214	0.002149	-0.000830	4271.695914	17972.864822	3121.008078	9712.641929
40.036500	-0.003123	-0.000515	-0.005648	0.000121	4271.503221	17914.539104	3113.810760	9697.513842
40.539000	-0.000231	-0.000496	-0.001398	-0.001343	4286.211129	17966.004525	3118.495350	9720.816013
41.036500	-0.002334	-0.000954	-0.008007	0.002233	4267.066688	17826.369910	3110.187640	9664.032717
41.537000	-0.003143	-0.000195	0.004919	0.001455	4266.960904	17879.418692	3121.410570	9676.345863
42.034500	-0.001092	-0.000941	0.005744	-0.001441	4283.623608	17953.930555	3124.519325	9722.366636
42.540500	0.002848	0.002329	0.000802	0.001361	4287.486065	17970.228377	3118.079189	9677.838042
43.035000	0.000046	-0.000222	-0.002178	0.000443	4281.099973	17913.495853	3116.382996	9692.389335
43.535500	-0.000528	-0.000454	0.000423	-0.002660	4289.679948	18013.348395	3121.093889	9741.847241
44.035500	0.000535	0.001010	0.010464	-0.001687	4289.981488	18030.486018	3128.710224	9726.293631
44.536000	0.002518	-0.001476	0.000321	-0.013339	4337.105935	18354.017963	3129.993115	9914.730808
45.036000	-0.032031	-0.020753	0.021269	0.192063	3689.877596	12096.998605	3001.994019	7232.319429
45.539000	-0.038539	-0.026037	0.033348	0.210904	3640.127138	11597.980414	2998.256704	7043.995748
46.036500	-0.045858	-0.024113	0.008112	0.047297	3998.646873	15651.013212	3087.615637	8987.160297
46.537000	-0.030092	-0.015768	-0.007730	-0.151055	4754.596189	23445.964394	3258.686871	12570.830751
47.037500	-0.032377	-0.014057	-0.008142	-0.145916	4721.676078	23284.141522	3252.353874	12455.845475
47.534500	-0.039157	-0.014870	-0.016271	-0.145589	4690.685714	23230.616168	3242.863131	12448.584615
48.035000	-0.040428	-0.013438	-0.010947	-0.154409	4723.620498	23717.169218	3258.843895	12646.609449
48.534500	-0.038298	-0.011288	-0.014021	-0.142249	4679.987647	23241.972780	3241.653416	12374.645860
49.035500	-0.042000	-0.013863	-0.022672	-0.136706	4640.652245	22864.581952	3226.168598	12253.169338
49.538500	-0.033851	-0.009518	-0.015438	-0.128454	4640.217796	22685.407972	3225.076315	12075.169116
50.036500	-0.036931	-0.008899	-0.020109	-0.121312	4597.699896	22389.920608	3212.600102	11923.837961
50.536500	-0.029502	-0.008656	-0.018088	-0.104369	4559.016142	21653.294961	3197.317235	11574.625514
51.037000	-0.022664	-0.006170	-0.021484	-0.087639	4519.681381	21046.956694	3177.518078	11242.899357
51.540000	-0.030987	-0.008676	-0.017970	-0.070783	4423.513709	20254.059878	3164.889109	10921.355737
52.038000	-0.028907	-0.007909	-0.025129	-0.067959	4420.752814	20171.852055	3155.690708	10868.694631
52.534500	-0.025976	-0.005816	-0.022732	-0.071602	4445.287668	20402.027244	3161.231132	10936.701939
53.035000	-0.026219	-0.005619	-0.014128	-0.072231	4446.737855	20435.378662	3169.850497	10948.491350
53.538500	-0.022336	-0.004073	-0.019705	-0.075361	4473.342380	20625.603319	3167.547604	11007.448508
54.036000	-0.019912	-0.003084	-0.019030	-0.076111	4485.526158	20696.873863	3168.886698	11021.639976
54.536500	-0.023126	-0.003904	-0.018045	-0.077250	4477.550498	20709.990040	3170.891310	11043.247616
55.036500	-0.021405	-0.002211	-0.025315	-0.075892	4478.945101	20723.757583	3162.810427	11017.501633
55.539500	-0.020686	-0.002920	-0.016772	-0.077587	4488.233890	20764.363471	3172.416571	11049.641552
56.037000	-0.021429	-0.002410	-0.022424	-0.076964	4482.969963	20759.686155	3166.501988	11037.809966
56.540000	-0.019625	-0.003358	-0.019104	-0.077141	4490.607966	20727.943788	3169.787460	11041.170035
57.035000	-0.017729	-0.003415	-0.019838	-0.074330	4487.075113	20610.368029	3166.457284	10987.978312
57.535000	-0.019647	-0.001720	-0.018414	-0.073895	4478.026548	20661.917770	3167.383747	10979.775984
58.035500	-0.021509	-0.002617	-0.016629	-0.073087	4467.819454	20592.198489	3168.301344	10964.575943
58.536000	-0.019689	-0.003134	-0.021110	-0.072412	4472.191361	20543.632948	3163.484208	10951.897772
59.036000	-0.024349	-0.002952	-0.027918	-0.069722	4444.335616	20441.758944	3154.757567	10901.526015
59.536500	-0.022610	-0.003637	-0.022778	-0.069678	4450.716669	20412.328648	3159.415630	10900.717236
60.036500	-0.023669	-0.003380	-0.015465	-0.068123	4440.887153	20359.946815	3164.745684	10871.753984
60.537000	-0.027386	-0.003285	-0.010659	-0.066379	4420.537887	20293.626837	3167.607560	10839.382446
61.037000	-0.027390	-0.003629	-0.019829	-0.061983	4404.328209	20104.419008	3155.075901	10758.388100
61.537500	-0.027479	-0.004174	-0.024857	-0.063222	4408.549569	20131.978813	3151.645265	10781.134198
62.035000	-0.027958	-0.004768	-0.032343	-0.061917	4402.005370	20056.632880	3143.799402	10757.177444
62.535500	-0.024240	-0.003232	-0.010310	-0.059271	4405.931365	20012.744162	3161.314756	10708.819616
63.035500	-0.027719	-0.004820	-0.015562	-0.057780	4387.801428	19891.576580	3155.133825	10681.703525
63.536000	-0.025381	-0.004896	-0.019518	-0.057244	4394.349975	19867.604020	3151.068776	10671.976772
64.036500	-0.027056	-0.004570	-0.022136	-0.056823	4386.731883	19863.883876	3148.342442	10664.340354
64.536000	-0.025380	-0.003768	-0.009411	-0.055519	4388.082710	19844.236500	3158.687677	10640.755125
65.036500	-0.029128	-0.004218	-0.010922	-0.054130	4369.553355	19772.456699	3156.035414	10615.705273
65.537000	-0.023078	-0.003997	-0.014338	-0.053293	4388.356829	19748.489871	3152.176689	10600.649018
66.039500	-0.026889	-0.004819	-0.019845	-0.054421	4378.649698	19760.398385	3148.243343	10620.942611
66.537000	-0.024153	-0.005667	-0.028826	-0.053541	4385.363516	19693.333200	3139.529767	10605.118308
67.035000	-0.026499	-0.005131	-0.015144	-0.051899	4370.980963	19650.490186	3150.195522	10575.640073
67.535500	-0.023457	-0.004622	-0.012489	-0.049508	4373.320107	19577.895982	3150.432556	10532.932589
68.035500	-0.024488	-0.004584	-0.021808	-0.049037	4367.932264	19561.260474	3141.732802	10524.555557
68.536000	-0.023569	-0.004936	-0.023797	-0.048967	4370.976220	19545.038366	3139.927371	10523.308897
69.036500	-0.023497	-0.003804	-0.023956	-0.048093	4368.099758	19554.970884	3139.025180	10507.777063
69.536500	-0.022782	-0.004348	-0.007363	-0.046224	4363.973115	19462.469218	3152.092307	10474.665270
70.036500	-0.022579	-0.004285	0.000023	-0.047833	4370.459012	19526.490455	3160.295133	10503.153760
70.537500	-0.025567	-0.005282	-0.012383	-0.048021	4360.446982	19495.468540	3149.193767	10506.490244
71.035000	-0.028148	-0.004156	-0.018523	-0.045970	4344.021933	19460.055981	3141.924168	10470.159884
71.535000	-0.031365	-0.004241	-0.006034	-0.044223	4326.616521	19390.248350	3151.485987	10439.368511
72.035000	-0.025278	-0.005047	-0.006736	-0.045988	4354.239798	19426.766215	3152.444759	10470.480604
72.536000	-0.028307	-0.005204	-0.014070	-0.045887	4343.166722	19416.919685	3145.785458	10468.694146
73.036000	-0.025462	-0.005787	-0.015576	-0.045821	4352.998658	19392.228394	3144.392192	10467.542330
73.536000	-0.022742	-0.003996	-0.019680	-0.043800	4355.479357	19383.446812	3139.010531	10431.922202
74.036000	-0.021778	-0.005831	-0.018931	-0.044147	4360.143466	19326.933338	3139.967565	10438.025953
74.536500	-0.024757	-0.003508	-0.016252	-0.042498	4343.735067	19352.485396	3140.869308	10409.056353
75.037000	-0.021955	-0.005487	-0.022481	-0.041437	4349.888396	19237.498529	3134.531869	10390.498351
75.540000	-0.021970	-0.006025	-0.011894	-0.043006	4355.400304	19276.414580	3145.159599	10417.971349
76.037500	-0.026429	-0.006777	-0.017677	-0.043354	4340.862312	19261.146514	3140.371176	10424.077055
76.535500	-0.024453	-0.005998	-0.017461	-0.042418	4344.529259	19255.247747	3139.741342	10407.667320
77.035000	-0.027050	-0.005017	-0.021646	-0.039056	4323.648456	19165.582405	3133.200901	10348.963503
77.535000	-0.028054	-0.006938	-0.021211	-0.038770	4319.168049	19082.975208	3133.329522	10344.002754
78.036000	-0.025605	-0.005151	-0.018749	-0.040460	4333.596799	19213.322263	3136.914255	10373.426449
78.536500	-0.023661	-0.006049	-0.008853	-0.041549	4344.257018	19220.533447	3146.567358	10392.456358
79.036500	-0.025425	-0.005643	-0.020842	-0.039218	4329.879406	19148.185485	3134.032016	10351.791772
79.536500	-0.025393	-0.006176	-0.028885	-0.037599	4324.345214	19067.673798	3125.804247	10323.670805
80.039500	-0.025601	-0.005852	-0.018554	-0.040204	4332.712684	19177.358570	3136.861736	10368.968592
80.537500	-0.024814	-0.006157	-0.014358	-0.040106	4335.125200	19162.215657	3140.433163	10367.254899
81.038000	-0.022402	-0.004935	-0.013873	-0.038494	4337.934367	19147.598316	3139.448174	10339.206879
81.535000	-0.025901	-0.006123	-0.017020	-0.035313	4314.645495	18984.555348	3133.960114	10284.151329
82.035500	-0.022941	-0.003404	-0.011856	-0.036687	4329.716457	19137.244470	3139.631345	10307.882567
82.536000	-0.021490	-0.005049	-0.016718	-0.038135	4339.876119	19129.841664	3136.659406	10332.966773
83.038500	-0.024465	-0.005579	-0.014131	-0.039018	4332.535752	19143.075359	3139.680405	10348.308286
83.535500	-0.029840	-0.005549	-0.014776	-0.034409	4297.991586	18972.346355	3135.115658	10268.593961
84.042000	-0.019913	-0.004317	-0.016620	-0.037934	4344.722347	19149.758409	3136.569618	10329.477360
84.539500	-0.021065	-0.004643	-0.009599	-0.037283	4338.377709	19113.161954	3142.132885	10318.200947
85.037500	-0.027890	-0.006472	-0.021785	-0.038900	4320.185220	19105.224971	3132.947480	10346.250349
85.534000	-0.020850	-0.005703	-0.005466	-0.037751	4340.776736	19091.019217	3146.201015	10326.308515
86.035000	-0.023560	-0.004859	-0.023794	-0.037603	4330.753787	19117.045869	3130.120617	10323.744264
86.535500	-0.024807	-0.005270	-0.028599	-0.038431	4329.291692	19132.680533	3126.747390	10338.113720
87.035500	-0.020970	-0.004352	-0.014137	-0.036247	4335.073370	19085.278325	3137.260166	10300.273553
