sample name	sample
index	1445
start time	 05-10-2021  01:13:11 PM


Wavelength (nm)	Absorbance
494.344910	0.030794
494.563924	0.030794
494.782919	0.030794
495.001897	-0.021418
495.220856	0.017966
495.439797	0.016133
495.658719	0.010243
495.877624	0.012914
496.096510	0.018845
496.315378	0.019774
496.534227	0.001990
496.753059	-0.000210
496.971872	-0.003802
497.190667	0.038458
497.409444	0.056044
497.628203	0.060476
497.846943	0.062591
498.065665	0.064850
498.284369	0.065761
498.503055	0.066939
498.721723	0.068595
498.940372	0.069080
499.159003	0.068965
499.377616	0.068494
499.596210	0.069752
499.814787	0.068797
500.033345	0.068809
500.251885	0.068551
500.470406	0.069858
500.688910	0.069431
500.907395	0.069731
501.125862	0.070795
501.344311	0.071178
501.562742	0.069737
501.781154	0.070930
501.999548	0.070427
502.217924	0.071424
502.436282	0.071008
502.654621	0.071313
502.872942	0.070984
503.091245	0.069818
503.309530	0.069516
503.527797	0.069957
503.746045	0.069936
503.964275	0.070756
504.182487	0.070419
504.400681	0.070649
504.618856	0.070126
504.837013	0.070598
505.055152	0.070552
505.273273	0.071473
505.491376	0.071634
505.709460	0.070771
505.927526	0.069958
506.145574	0.070459
506.363604	0.070551
506.581615	0.071065
506.799608	0.071004
507.017583	0.071690
507.235540	0.071368
507.453478	0.071365
507.671399	0.072621
507.889301	0.072863
508.107185	0.071985
508.325050	0.071126
508.542898	0.070622
508.760727	0.070603
508.978538	0.070244
509.196330	0.069970
509.414105	0.071177
509.631861	0.070723
509.849599	0.071459
510.067319	0.071874
510.285021	0.072169
510.502704	0.072388
510.720369	0.072081
510.938016	0.072227
511.155645	0.072505
511.373255	0.071590
511.590848	0.071460
511.808422	0.070839
512.025977	0.070632
512.243515	0.070783
512.461034	0.070253
512.678536	0.070653
512.896018	0.070580
513.113483	0.070482
513.330930	0.070332
513.548358	0.071328
513.765768	0.072083
513.983160	0.072487
514.200533	0.073020
514.417889	0.073226
514.635226	0.073571
514.852545	0.073369
515.069845	0.072887
515.287128	0.072948
515.504392	0.071699
515.721638	0.070489
515.938866	0.070645
516.156075	0.070728
516.373267	0.070911
516.590440	0.070976
516.807594	0.070799
517.024731	0.071441
517.241850	0.072089
517.458950	0.072624
517.676032	0.073562
517.893095	0.073506
518.110141	0.073445
518.327168	0.073460
518.544177	0.073037
518.761168	0.073199
518.978141	0.072961
519.195095	0.072618
519.412031	0.072892
519.628949	0.072561
519.845849	0.072491
520.062731	0.072289
520.279594	0.072490
520.496439	0.072375
520.713266	0.072969
520.930074	0.073153
521.146865	0.072733
521.363637	0.072440
521.580391	0.072525
521.797127	0.072350
522.013844	0.072677
522.230543	0.072781
522.447224	0.073378
522.663887	0.073196
522.880532	0.073844
523.097158	0.075250
523.313766	0.075641
523.530356	0.075894
523.746928	0.076538
523.963481	0.076190
524.180017	0.076121
524.396534	0.075526
524.613032	0.076392
524.829513	0.075521
525.045975	0.074817
525.262420	0.074894
525.478845	0.075091
525.695253	0.075458
525.911643	0.075638
526.128014	0.076180
526.344367	0.076784
526.560702	0.075876
526.777018	0.076489
526.993316	0.076265
527.209597	0.076591
527.425858	0.076564
527.642102	0.075912
527.858328	0.076601
528.074535	0.075752
528.290724	0.075549
528.506894	0.076379
528.723047	0.076368
528.939181	0.076904
529.155297	0.076194
529.371395	0.076123
529.587475	0.076544
529.803536	0.075529
530.019579	0.076125
530.235604	0.076175
530.451611	0.075695
530.667600	0.075289
530.883570	0.075330
531.099522	0.075479
531.315456	0.076092
531.531372	0.076107
531.747269	0.076236
531.963148	0.076534
532.179009	0.076735
532.394852	0.076275
532.610676	0.076263
532.826482	0.075869
533.042271	0.076971
533.258040	0.076563
533.473792	0.076460
533.689525	0.076783
533.905240	0.076865
534.120937	0.077143
534.336616	0.077774
534.552277	0.077990
534.767919	0.078871
534.983543	0.077890
535.199149	0.078312
535.414736	0.078876
535.630306	0.078964
535.845857	0.078902
536.061390	0.079007
536.276904	0.079432
536.492401	0.079731
536.707879	0.079526
536.923339	0.079993
537.138781	0.079600
537.354204	0.079408
537.569610	0.079768
537.784997	0.080266
538.000366	0.080270
538.215716	0.079985
538.431049	0.080493
538.646363	0.080475
538.861659	0.080502
539.076937	0.080613
539.292196	0.080295
539.507438	0.080190
539.722661	0.079824
539.937866	0.079875
540.153052	0.079827
540.368221	0.079595
540.583371	0.079798
540.798503	0.080092
541.013617	0.080401
541.228712	0.080506
541.443789	0.080426
541.658848	0.080613
541.873889	0.080603
542.088912	0.080557
542.303916	0.080249
542.518902	0.079792
542.733870	0.079286
542.948820	0.078828
543.163752	0.079139
543.378665	0.079152
543.593560	0.078930
543.808437	0.078903
544.023295	0.079768
544.238136	0.080125
544.452958	0.080471
544.667762	0.080965
544.882548	0.081136
545.097315	0.080799
545.312064	0.080646
545.526795	0.080763
545.741508	0.081109
545.956203	0.080671
546.170879	0.080528
546.385537	0.080709
546.600177	0.080655
546.814799	0.081166
547.029402	0.081402
547.243988	0.081759
547.458555	0.081943
547.673103	0.082138
547.887634	0.082099
548.102146	0.082083
548.316640	0.082295
548.531116	0.082421
548.745574	0.082351
548.960013	0.082467
549.174435	0.082991
549.388838	0.083329
549.603222	0.083397
549.817589	0.083647
550.031937	0.083910
550.246267	0.083703
550.460579	0.083646
550.674873	0.083707
550.889148	0.084078
551.103405	0.083649
551.317644	0.083591
551.531865	0.083251
551.746068	0.083244
551.960252	0.083058
552.174418	0.083031
552.388566	0.083169
552.602696	0.083189
552.816807	0.082980
553.030900	0.083221
553.244975	0.083473
553.459032	0.083545
553.673070	0.083446
553.887091	0.083626
554.101093	0.083986
554.315077	0.084021
554.529042	0.084473
554.742990	0.084478
554.956919	0.084433
555.170830	0.084419
555.384722	0.084630
555.598597	0.085044
555.812453	0.085348
556.026291	0.085378
556.240111	0.085266
556.453913	0.085003
556.667696	0.085032
556.881461	0.084820
557.095208	0.084443
557.308937	0.084603
557.522647	0.084364
557.736339	0.084011
557.950013	0.083879
558.163669	0.084303
558.377307	0.084108
558.590926	0.084054
558.804527	0.084483
559.018110	0.084740
559.231675	0.084547
559.445221	0.084762
559.658749	0.085084
559.872259	0.085106
560.085751	0.085099
560.299225	0.085474
560.512680	0.085743
560.726117	0.085665
560.939536	0.085542
561.152937	0.085585
561.366319	0.085726
561.579683	0.085823
561.793029	0.085994
562.006357	0.085940
562.219667	0.085877
562.432958	0.086063
562.646231	0.086238
562.859486	0.086543
563.072723	0.086445
563.285941	0.086416
563.499141	0.086528
563.712323	0.086620
563.925487	0.086615
564.138632	0.086760
564.351760	0.086571
564.564869	0.086689
564.777960	0.086763
564.991032	0.086939
565.204087	0.087044
565.417123	0.087107
565.630141	0.087138
565.843140	0.087377
566.056122	0.087223
566.269085	0.087517
566.482030	0.087469
566.694957	0.087331
566.907866	0.087638
567.120756	0.087928
567.333628	0.088027
567.546482	0.088066
567.759318	0.088203
567.972135	0.088234
568.184935	0.088572
568.397716	0.088393
568.610478	0.088393
568.823223	0.088387
569.035949	0.088125
569.248657	0.087994
569.461347	0.087856
569.674019	0.087844
569.886672	0.088385
570.099308	0.087845
570.311925	0.087836
570.524523	0.088183
570.737104	0.088327
570.949666	0.088353
571.162210	0.088610
571.374736	0.088850
571.587244	0.089093
571.799733	0.088946
572.012205	0.089337
572.224658	0.089807
572.437092	0.089714
572.649509	0.090052
572.861907	0.089870
573.074287	0.089773
573.286649	0.089760
573.498993	0.089454
573.711318	0.089684
573.923625	0.089452
574.135914	0.089599
574.348185	0.090224
574.560438	0.089644
574.772672	0.090051
574.984888	0.090283
575.197086	0.090486
575.409266	0.090619
575.621427	0.090328
575.833570	0.090755
576.045695	0.090792
576.257802	0.090494
576.469890	0.090909
576.681961	0.091085
576.894013	0.091152
577.106046	0.091429
577.318062	0.091610
577.530059	0.091976
577.742039	0.091957
577.954000	0.091851
578.165942	0.092124
578.377867	0.092179
578.589773	0.092058
578.801661	0.092166
579.013531	0.091983
579.225382	0.092053
579.437216	0.092156
579.649031	0.092088
579.860828	0.092162
580.072606	0.092065
580.284367	0.092043
580.496109	0.092262
580.707833	0.092446
580.919539	0.092352
581.131227	0.092598
581.342896	0.092592
581.554547	0.092748
581.766180	0.092985
581.977795	0.093015
582.189391	0.093357
582.400969	0.093224
582.612529	0.093204
582.824071	0.093440
583.035595	0.093236
583.247100	0.093182
583.458587	0.093381
583.670056	0.093373
583.881506	0.093686
584.092939	0.093486
584.304353	0.093466
584.515749	0.093626
584.727127	0.094052
584.938486	0.094311
585.149828	0.094584
585.361151	0.094712
585.572456	0.094689
585.783742	0.094773
585.995011	0.095059
586.206261	0.095560
586.417493	0.095461
586.628706	0.095215
586.839902	0.095222
587.051079	0.094887
587.262238	0.094915
587.473379	0.094821
587.684502	0.094816
587.895606	0.094687
588.106692	0.094529
588.317760	0.094601
588.528810	0.094912
588.739841	0.095001
588.950855	0.095278
589.161850	0.095444
589.372827	0.095877
589.583785	0.095691
589.794726	0.095924
590.005648	0.096134
590.216552	0.096433
590.427437	0.096354
590.638305	0.096979
590.849154	0.097309
591.059985	0.097689
591.270798	0.097513
591.481592	0.097693
591.692369	0.097837
591.903127	0.097938
592.113867	0.097932
592.324588	0.098270
592.535292	0.097686
592.745977	0.097688
592.956644	0.097391
593.167293	0.097627
593.377923	0.097745
593.588536	0.097485
593.799130	0.097267
594.009706	0.097111
594.220263	0.096850
594.430803	0.096885
594.641324	0.096705
594.851827	0.096591
595.062312	0.096629
595.272778	0.096578
595.483227	0.096964
595.693657	0.097310
595.904069	0.097457
596.114462	0.097635
596.324838	0.097988
596.535195	0.098189
596.745534	0.098299
596.955855	0.098481
597.166157	0.098340
597.376441	0.098087
597.586707	0.097953
597.796955	0.097984
598.007185	0.097956
598.217396	0.098180
598.427589	0.098313
598.637764	0.098492
598.847921	0.098391
599.058060	0.098670
599.268180	0.098864
599.478282	0.098733
599.688366	0.098624
599.898431	0.098591
600.108479	0.098237
600.318508	0.098090
600.528519	0.098077
600.738511	0.098262
600.948486	0.098190
601.158442	0.098368
601.368380	0.098497
601.578300	0.098582
601.788202	0.098739
601.998085	0.098780
602.207950	0.098882
602.417797	0.099060
602.627626	0.099208
602.837436	0.099346
603.047228	0.098979
603.257002	0.099042
603.466758	0.099237
603.676496	0.099466
603.886215	0.099663
604.095916	0.099909
604.305599	0.099759
604.515264	0.099515
604.724910	0.099937
604.934538	0.100385
605.144148	0.100439
605.353740	0.100671
605.563314	0.100478
605.772869	0.100656
605.982406	0.100490
606.191925	0.100863
606.401425	0.101242
606.610908	0.100987
606.820372	0.100857
607.029818	0.101125
607.239246	0.101159
607.448655	0.101395
607.658047	0.101339
607.867420	0.101657
608.076775	0.101728
608.286111	0.101722
608.495430	0.101820
608.704730	0.101741
608.914012	0.101643
609.123275	0.101844
609.332521	0.101806
609.541748	0.101633
609.750957	0.101521
609.960148	0.101522
610.169321	0.101521
610.378475	0.101698
610.587611	0.102126
610.796729	0.102442
611.005829	0.102534
611.214910	0.102725
611.423974	0.103183
611.633019	0.103282
611.842045	0.103253
612.051054	0.103288
612.260044	0.103277
612.469017	0.103326
612.677970	0.103440
612.886906	0.103264
613.095824	0.103006
613.304723	0.102687
613.513604	0.102526
613.722467	0.102539
613.931311	0.102722
614.140138	0.102817
614.348946	0.102889
614.557736	0.102796
614.766507	0.102736
614.975261	0.103220
615.183996	0.103641
615.392713	0.103896
615.601412	0.104086
615.810092	0.104134
616.018754	0.103969
616.227399	0.103956
616.436024	0.103701
616.644632	0.103790
616.853222	0.103614
617.061793	0.103589
617.270346	0.103813
617.478880	0.103786
617.687397	0.103908
617.895895	0.104091
618.104375	0.104190
618.312837	0.104657
618.521281	0.104770
618.729706	0.105209
618.938113	0.105108
619.146502	0.105053
619.354873	0.105569
619.563226	0.105402
619.771560	0.105270
619.979876	0.105405
620.188174	0.105282
620.396453	0.105334
620.604715	0.105202
620.812958	0.105384
621.021183	0.105473
621.229390	0.105049
621.437578	0.105014
621.645748	0.105225
621.853900	0.105096
622.062034	0.105263
622.270150	0.105340
622.478247	0.105322
622.686326	0.105080
622.894387	0.105204
623.102430	0.105224
623.310454	0.105404
623.518461	0.105615
623.726449	0.105594
623.934418	0.105569
624.142370	0.105720
624.350303	0.105875
624.558218	0.106091
624.766115	0.105941
624.973994	0.105989
625.181855	0.106155
625.389697	0.105954
625.597521	0.106123
625.805327	0.106410
626.013114	0.106245
626.220883	0.105968
626.428634	0.106165
626.636367	0.106191
626.844082	0.106198
627.051778	0.105956
627.259457	0.105976
627.467117	0.106113
627.674758	0.106008
627.882382	0.106170
628.089987	0.106287
628.297574	0.106318
628.505143	0.106496
628.712694	0.106625
628.920226	0.106682
629.127740	0.106932
629.335236	0.106885
629.542714	0.106954
629.750174	0.106986
629.957615	0.107229
630.165038	0.107096
630.372443	0.107160
630.579829	0.107114
630.787198	0.107404
630.994548	0.107302
631.201880	0.107202
631.409194	0.107011
631.616489	0.106938
631.823766	0.106796
632.031025	0.106925
632.238266	0.107050
632.445489	0.107065
632.652693	0.106954
632.859879	0.107035
633.067047	0.107269
633.274197	0.107374
633.481329	0.107459
633.688442	0.107623
633.895537	0.107826
634.102614	0.107695
634.309672	0.108029
634.516713	0.108283
634.723735	0.108490
634.930739	0.108511
635.137724	0.108647
635.344692	0.108820
635.551641	0.108998
635.758572	0.109045
635.965485	0.109232
636.172379	0.109126
636.379256	0.109305
636.586114	0.109423
636.792954	0.109456
636.999775	0.109501
637.206579	0.109306
637.413364	0.109414
637.620131	0.109275
637.826880	0.109274
638.033610	0.109506
638.240323	0.109449
638.447017	0.109541
638.653692	0.109827
638.860350	0.110058
639.066990	0.110648
639.273611	0.110535
639.480214	0.110647
639.686798	0.110835
639.893365	0.110902
640.099913	0.111135
640.306443	0.111166
640.512955	0.110999
640.719449	0.111120
640.925924	0.111089
641.132381	0.111415
641.338820	0.111545
641.545241	0.111482
641.751644	0.111420
641.958028	0.111358
642.164394	0.111487
642.370742	0.111383
642.577071	0.111380
642.783383	0.111456
642.989676	0.111376
643.195951	0.111451
643.402207	0.111620
643.608446	0.111690
643.814666	0.111805
644.020868	0.111705
644.227052	0.112254
644.433218	0.112203
644.639365	0.112154
644.845494	0.112290
645.051605	0.112503
645.257698	0.112273
645.463772	0.112328
645.669828	0.112234
645.875866	0.112163
646.081886	0.112058
646.287888	0.112178
646.493871	0.112168
646.699836	0.112132
646.905783	0.111980
647.111712	0.112362
647.317622	0.112551
647.523514	0.112484
647.729388	0.112741
647.935244	0.112687
648.141082	0.112784
648.346901	0.112839
648.552702	0.112901
648.758485	0.113194
648.964250	0.113155
649.169996	0.113208
649.375724	0.113587
649.581434	0.113358
649.787126	0.113472
649.992800	0.113576
650.198455	0.113684
650.404092	0.113691
650.609711	0.113523
650.815311	0.113636
651.020894	0.113497
651.226458	0.113393
651.432004	0.113691
651.637532	0.113594
651.843041	0.113559
652.048532	0.113386
652.254006	0.113409
652.459460	0.113573
652.664897	0.113680
652.870315	0.113749
653.075716	0.113809
653.281097	0.113779
653.486461	0.113939
653.691807	0.114032
653.897134	0.114403
654.102443	0.114552
654.307734	0.114689
654.513006	0.114695
654.718261	0.115130
654.923497	0.114998
655.128715	0.115440
655.333915	0.115617
655.539096	0.115816
655.744259	0.115889
655.949404	0.116010
656.154531	0.116157
656.359640	0.116357
656.564730	0.116111
656.769802	0.116488
656.974856	0.116321
657.179892	0.116430
657.384909	0.116528
657.589908	0.116538
657.794889	0.116543
657.999852	0.116446
658.204797	0.116308
658.409723	0.116448
658.614631	0.116386
658.819521	0.116298
659.024393	0.116317
659.229246	0.116271
659.434081	0.116436
659.638898	0.116635
659.843697	0.116822
660.048478	0.116885
660.253240	0.116953
660.457984	0.116998
660.662710	0.117190
660.867417	0.117406
661.072107	0.117321
661.276778	0.117240
661.481431	0.117043
661.686066	0.117150
661.890682	0.117384
662.095281	0.117553
662.299861	0.117946
662.504422	0.118060
662.708966	0.118063
662.913491	0.118323
663.117999	0.118370
663.322488	0.118721
663.526958	0.118632
663.731411	0.118600
663.935845	0.118441
664.140261	0.118430
664.344659	0.118401
664.549038	0.118567
664.753400	0.118581
664.957743	0.118672
665.162068	0.118545
665.366375	0.118667
665.570663	0.118854
665.774933	0.118955
665.979185	0.118613
666.183419	0.118686
666.387635	0.118676
666.591832	0.118773
666.796011	0.118720
667.000172	0.118665
667.204315	0.118562
667.408439	0.118322
667.612545	0.118469
667.816634	0.118814
668.020703	0.118986
668.224755	0.118931
668.428788	0.118898
668.632803	0.119280
668.836800	0.119357
669.040779	0.119443
669.244739	0.119732
669.448681	0.119875
669.652605	0.119873
669.856511	0.119921
670.060399	0.119950
670.264268	0.120119
670.468119	0.120083
670.671952	0.120478
670.875767	0.120472
671.079563	0.120620
671.283341	0.120641
671.487101	0.120789
671.690843	0.121059
671.894567	0.121166
672.098272	0.121223
672.301959	0.121337
672.505628	0.121336
672.709278	0.121737
672.912911	0.121661
673.116525	0.121742
673.320121	0.121984
673.523699	0.121918
673.727258	0.122045
673.930799	0.122046
674.134322	0.121824
674.337827	0.121781
674.541314	0.121715
674.744782	0.121879
674.948232	0.121882
675.151664	0.121708
675.355078	0.121701
675.558474	0.121658
675.761851	0.121752
675.965210	0.121892
676.168551	0.121923
676.371873	0.121978
676.575178	0.121956
676.778464	0.121929
676.981732	0.122050
677.184981	0.122145
677.388213	0.122350
677.591426	0.122616
677.794621	0.122626
677.997798	0.122702
678.200956	0.122829
678.404097	0.122926
678.607219	0.123211
678.810323	0.123293
679.013408	0.123351
679.216476	0.123346
679.419525	0.123266
679.622556	0.123517
679.825569	0.123735
680.028563	0.123704
680.231540	0.123808
680.434498	0.124004
680.637438	0.123997
680.840359	0.124096
681.043263	0.124165
681.246148	0.124267
681.449015	0.124499
681.651864	0.124447
681.854694	0.124616
682.057506	0.124607
682.260301	0.124672
682.463076	0.124881
682.665834	0.124938
682.868573	0.125011
683.071295	0.125199
683.273998	0.125258
683.476682	0.125233
683.679349	0.125204
683.881997	0.125098
684.084627	0.124919
684.287239	0.124851
684.489833	0.124757
684.692408	0.124813
684.894965	0.124621
685.097504	0.124483
685.300025	0.124687
685.502527	0.124911
685.705012	0.125162
685.907478	0.125230
686.109925	0.125227
686.312355	0.125365
686.514766	0.125337
686.717159	0.125308
686.919534	0.125384
687.121891	0.125248
687.324230	0.125216
687.526550	0.125159
687.728852	0.125071
687.931136	0.125219
688.133401	0.125394
688.335649	0.125483
688.537878	0.125487
688.740089	0.125482
688.942281	0.125588
689.144456	0.125355
689.346612	0.125594
689.548750	0.125855
689.750870	0.126082
689.952971	0.125944
690.155055	0.126115
690.357120	0.126445
690.559167	0.126587
690.761195	0.127036
690.963206	0.127464
691.165198	0.127574
691.367172	0.127775
691.569128	0.127719
691.771065	0.128036
691.972984	0.128177
692.174885	0.128232
692.376768	0.128374
692.578633	0.128158
692.780479	0.128143
692.982308	0.128050
693.184118	0.127881
693.385909	0.127786
