sample name	sample
index	663
start time	 03-22-2021  10:35:25 AM
880	0.327281
Peak Time (s)	181.037
Peak Height 	0.3273
calc peak height	180,183
Baseline Time (s)	8.537
Baseline Value 	-0.001001
subtract baseline	10,4
Abs	0.210999
Peak Time (s)	180.039
Peak Height 	0.211
calc peak height	180,183
Baseline Time (s)	10.034
Baseline Value 	0.002633
subtract baseline	10,3
PK_550	0.112715
Peak Time (s)	180.537
Peak Height 	0.1127
calc peak height	180,183
Baseline Time (s)	11.035
Baseline Value 	0.001199
subtract baseline	10,2
PK_880	0.195703
Peak Time (s)	180.537
Peak Height 	0.1957
calc peak height	180,183
Baseline Time (s)	11.035
Baseline Value 	0.001955
subtract baseline	10,1


Time (s)	A880-A510	A880-A775	A880-A975	A880	I510	I775	I975	I880	
0.037000	-0.003335	-0.000723	-0.004832	0.005411	7297.736321	45384.583048	3894.345821	23841.473714
0.534500	-0.002004	-0.000153	-0.003021	0.003705	7330.123463	45608.893949	3904.438908	23924.821536
1.035000	-0.002266	-0.001524	-0.003429	0.001171	7354.488154	45723.857928	3910.577011	24049.180782
1.536000	0.000067	-0.000977	-0.003453	-0.000571	7398.523289	45951.232718	3915.561602	24135.117133
2.035500	-0.001306	-0.000721	-0.003257	0.002223	7353.508236	45699.260480	3908.031818	23997.479764
2.536000	0.000408	-0.000705	-0.002703	-0.001248	7409.588114	46045.876623	3919.715457	24168.616361
3.036500	0.002786	-0.000099	-0.000956	-0.002560	7449.909759	46237.682792	3928.669389	24233.676161
3.536500	0.000188	-0.000134	-0.003454	0.000568	7387.478968	45921.757305	3912.252841	24078.898426
4.037000	-0.000118	0.000699	-0.002027	0.000545	7384.429231	46007.073110	3916.463501	24080.063776
4.540000	0.000816	0.000134	-0.001673	0.000104	7399.333834	45994.740062	3918.778185	24101.818119
5.034500	-0.001082	-0.001191	-0.003448	-0.000920	7389.848696	45964.704250	3916.591004	24152.380648
5.535000	-0.002073	-0.000851	-0.000607	-0.000892	7378.810403	45995.717211	3924.800887	24150.989751
6.035000	0.001039	-0.000202	0.001960	0.000495	7397.501819	45922.274527	3928.258789	24082.509697
6.535500	0.000375	-0.000067	-0.001165	-0.000375	7399.746296	46022.455507	3921.659064	24125.465374
7.036000	0.001056	-0.000148	-0.000651	0.000129	7401.666111	45964.153264	3921.687020	24100.584031
7.536000	0.001415	-0.000130	0.000399	0.000054	7406.385804	45973.359141	3924.978275	24104.274504
8.036500	0.000983	0.000510	0.001476	0.000368	7398.277630	46005.853032	3927.213087	24088.779009
8.537000	-0.002238	0.000039	-0.001568	0.000000	7367.410144	45995.603941	3919.385711	24106.927374
9.040000	-0.000195	-0.000443	-0.003742	-0.000175	7391.391080	45964.994676	3913.572776	24115.576038
9.537500	0.001526	-0.000112	0.000402	-0.000167	7409.986346	45997.229527	3925.631468	24115.172504
10.034500	-0.000746	-0.000082	0.000000	0.001326	7369.193147	45851.573116	3920.092026	24041.567406
10.535000	0.001967	0.000350	0.000249	0.000287	7409.851609	45998.062626	3923.856695	24092.779975
11.035000	0.000000	0.000000	-0.004263	-0.000059	7392.243030	45997.593067	3911.724740	24109.843209
11.535500	0.002815	0.000537	0.000053	0.000946	7411.898848	45950.901533	3921.354863	24060.264468
12.035500	-0.000355	0.000196	0.001371	0.002269	7363.251534	45785.641270	3921.341109	23995.232979
12.536000	0.001224	0.000646	0.007373	0.001031	7393.696478	45953.404475	3942.657642	24056.102576
13.036500	0.001433	0.000595	0.001888	-0.000995	7417.992393	46150.437299	3932.428566	24156.088024
13.539500	0.001800	0.001201	0.003844	0.000826	7402.176154	46029.166536	3932.827978	24066.205545
14.039500	-0.000078	0.000043	0.003446	0.002376	7365.074557	45759.788313	3927.102196	23989.973293
14.535000	-0.000772	0.000335	-0.003715	0.003672	7343.667456	45660.330164	3902.533843	23926.426553
15.035000	0.000193	0.000165	-0.000833	0.001159	7381.138184	45892.741252	3918.150227	24049.776135
15.535500	0.001006	0.000047	0.001716	0.000171	7400.664997	45979.379564	3928.494635	24098.491412
16.036000	-0.001771	-0.000142	-0.006465	0.005684	7311.471179	45414.827363	3888.910883	23828.167791
16.536000	0.001273	-0.000229	-0.001019	0.000190	7403.356769	45949.974042	3920.434029	24097.558314
17.036500	0.001245	-0.000298	0.002010	0.000181	7403.153453	45943.978888	3929.328366	24097.989970
17.536500	0.002343	0.000906	0.002117	-0.001454	7432.944379	46227.582933	3934.457071	24178.828890
18.039500	-0.000965	-0.000313	0.000056	0.002278	7356.568843	45734.209394	3917.480490	23994.755902
18.537000	0.001564	0.000849	0.002200	0.003084	7375.158526	45769.518278	3921.382061	23955.250350
19.037500	0.001914	0.000463	0.003933	0.002782	7382.199329	45761.098552	3927.337732	23970.024272
19.534500	0.000036	0.000707	0.000230	0.003325	7356.090075	45731.556891	3914.944541	23943.451675
20.035000	-0.000192	0.000327	0.002641	0.003839	7348.108337	45643.078686	3920.465513	23918.266942
20.535500	0.000789	0.000839	0.004192	0.003106	7366.549943	45766.317919	3927.147726	23954.147445
21.035500	0.000632	0.000448	0.000182	0.003176	7364.108177	45720.714314	3915.237037	23950.751128
21.536000	0.003000	0.001427	0.002685	0.003850	7382.401113	45750.954436	3920.563631	23917.750997
22.036500	0.002009	0.000388	0.004496	0.002943	7381.482264	45737.724037	3928.517168	23962.136018
22.539500	0.000486	-0.000187	-0.000899	0.002504	7369.779526	45724.388938	3914.050096	23983.700460
23.037000	0.000816	0.001287	0.005842	0.003859	7358.734168	45736.112240	3929.782999	23917.303730
23.537000	0.001670	-0.000018	0.003610	0.003083	7376.308952	45683.787206	3925.510731	23955.300376
24.037500	0.002472	0.001176	-0.000895	0.003713	7378.162115	45739.562155	3910.552671	23924.414969
24.534500	-0.000107	0.000651	0.004278	0.003435	7353.364062	45715.108189	3926.434043	23938.035089
25.035500	-0.000405	0.000664	0.002237	0.003842	7345.794342	45676.130596	3919.279243	23918.142464
25.535500	0.002346	0.000969	0.001333	0.004137	7372.231273	45677.041021	3915.787534	23903.683281
26.036000	0.001120	0.000755	0.002762	0.003915	7361.403657	45677.897228	3920.595787	23914.543833
26.536000	0.003006	0.000989	0.005356	0.003812	7382.874743	45711.226508	3928.491175	23919.575536
27.039000	0.002484	0.000510	0.004971	0.003606	7379.456913	45684.241109	3927.966292	23929.671829
27.536000	0.000244	0.001550	0.001859	0.004374	7347.048674	45711.203876	3916.629545	23892.117851
28.036500	0.003327	0.000394	0.005018	0.000464	7422.746573	45984.786597	3937.360501	24084.040950
28.537500	0.002556	0.000422	0.004917	0.001467	7403.421445	45887.608403	3934.099817	24034.624616
29.061500	0.004223	0.001873	0.002658	0.002542	7409.860651	45925.016038	3924.304786	23981.799453
29.537500	0.000308	0.001023	0.003411	0.007976	7309.207828	45304.228760	3910.680242	23716.821579
30.035500	0.002035	0.000291	0.005310	0.001294	7399.642687	45891.854191	3935.773546	24043.171546
30.535500	0.003748	0.000740	0.004959	0.002085	7409.667760	45857.869242	3932.404071	24004.256207
31.035500	0.002997	0.001461	0.005018	0.002515	7396.824774	45886.749797	3931.310601	23983.134581
31.539000	-0.000127	0.001124	0.003614	0.006987	7315.121476	45411.308545	3914.137250	23764.816275
32.039500	0.001601	0.000945	-0.000080	0.005020	7354.683169	45587.443300	3909.130108	23860.552626
32.546500	0.001746	0.000984	0.003924	0.002095	7387.821023	45881.132575	3929.330174	24003.768866
33.037000	0.002869	0.001350	0.002435	0.002868	7391.613764	45840.604177	3922.699499	23965.808620
33.537500	0.000619	0.001139	0.002222	0.007419	7318.465143	45370.303136	3908.851365	23743.854948
34.038000	0.001924	0.001408	0.000694	0.004767	7360.879829	45658.162308	3912.105663	23872.912155
34.535000	0.003117	0.001291	0.004193	0.002346	7399.976885	45886.706144	3929.383675	23991.462433
35.035000	0.003376	0.002067	0.006613	0.003746	7387.594880	45824.708750	3932.381986	23922.812784
35.535500	0.000771	0.001507	-0.000008	0.007165	7322.801773	45431.443791	3903.151663	23756.156240
36.039000	0.003690	0.001435	0.006930	0.005763	7369.184747	45562.445673	3927.386051	23824.350380
36.536500	0.002628	0.001162	0.003814	0.005653	7358.930468	45546.440253	3918.598095	23829.713815
37.037000	0.001891	0.000563	0.003715	0.004875	7359.365608	45564.033959	3920.578212	23867.641066
37.537000	0.001434	0.001418	0.004877	0.007094	7330.645019	45429.621256	3917.494244	23759.597886
38.037000	0.002734	0.001209	0.005516	0.006005	7356.277827	45516.310984	3922.535865	23812.537415
38.537500	0.002968	0.001518	0.005072	0.005573	7363.451440	45589.375993	3922.501833	23833.599781
39.035000	0.001819	0.001477	0.004988	0.005958	7346.950252	45547.407735	3921.132460	23814.860393
39.535500	0.002119	0.002159	0.003248	0.007060	7338.347203	45505.965194	3912.862466	23761.260592
40.035500	0.004342	0.002828	0.004426	0.006678	7366.349345	45609.700626	3917.394542	23779.821061
40.538000	0.003194	0.001459	0.004565	0.006193	7359.206414	45522.469744	3919.211094	23803.411193
41.036000	0.002128	0.002023	0.005404	0.006674	7342.579630	45530.556564	3920.256417	23780.014148
41.536500	0.002867	0.002152	0.003217	0.006561	7351.726765	45554.440299	3914.217706	23785.494355
42.037000	0.002559	0.001425	0.002607	0.006118	7353.178237	45526.419468	3913.734688	23807.038495
42.537000	0.001728	0.001621	0.005051	0.006373	7341.512062	45520.598045	3920.102699	23794.642840
43.037500	0.002289	0.001496	0.003171	0.006432	7346.901931	45502.481130	3914.460696	23791.761177
43.537500	0.001760	0.001733	0.003429	0.006516	7340.330755	45517.618751	3914.964836	23787.689342
44.035500	0.001666	0.001819	0.005107	0.006890	7335.312586	45489.222661	3918.760679	23769.523440
44.535500	0.003308	0.002353	0.003703	0.007394	7347.521562	45492.150318	3913.213042	23745.055706
45.038000	0.003145	0.002365	0.005998	0.003889	7383.546895	45840.078221	3930.152958	23915.821625
45.536000	0.000391	0.000992	0.005804	0.008926	7299.990187	45208.129925	3914.865202	23670.841836
46.036500	0.003754	0.002103	0.004847	0.005586	7371.787783	45645.908821	3921.806483	23832.964476
46.536500	0.003450	0.002578	0.006216	0.004326	7382.116372	45817.828293	3929.510351	23894.470487
47.037000	0.002661	0.001511	0.007923	0.003966	7377.473164	45747.636981	3935.597811	23912.042478
47.537000	-0.000281	0.000502	0.000444	0.008886	7293.270539	45164.089557	3899.503221	23672.761822
48.037500	0.000841	0.001254	0.006413	0.009440	7299.305089	45183.454931	3915.140037	23645.998513
48.555000	0.004035	0.001826	0.006135	0.004552	7386.000272	45720.808120	3928.605458	23883.390589
49.035500	0.001663	0.001463	0.003532	0.007270	7331.214352	45416.722702	3913.075401	23751.067865
49.538500	0.001580	0.001233	0.001877	0.007626	7326.521241	45359.263774	3907.256148	23733.812500
50.061000	0.002256	0.001664	0.004556	0.006859	7341.958714	45476.992025	3917.245781	23770.999046
50.536000	0.004360	0.002170	0.004649	0.004708	7387.831794	45739.454305	3923.793658	23875.769783
51.036000	0.002575	0.002160	0.006188	0.004572	7370.004335	45752.012958	3928.704849	23882.443049
51.536500	0.001783	0.001139	0.003267	0.009602	7307.597952	45156.290564	3905.563191	23638.152587
52.036500	0.003204	0.002301	0.006286	0.007889	7341.094956	45438.345049	3919.286524	23721.042944
52.537500	0.000330	-0.004495	0.010446	-0.006081	7461.612645	46150.120140	3973.255015	24409.205679
53.037500	-0.034316	-0.012814	0.030400	0.234644	5218.096482	27189.646629	3447.225022	15158.691139
53.535000	-0.032518	-0.007823	-0.010961	0.057538	6509.946025	39943.513521	3738.550912	21446.896824
54.038000	-0.030972	-0.037217	-0.019162	-0.172027	9198.184107	61747.507966	4460.059784	34525.902003
54.536000	-0.040061	-0.177721	-0.022354	-0.339532	12065.682328	65535.000000	5290.949236	49518.520732
55.036000	-0.048786	-0.145896	-0.026282	-0.307707	11229.347338	65535.000000	5082.505169	46208.279604
55.536000	-0.055622	-0.135128	-0.030269	-0.296939	10889.888397	65535.000000	5001.354845	45142.020372
56.036500	-0.042761	-0.109986	-0.014379	-0.271798	10661.090208	65535.000000	4951.863811	42753.102372
56.536500	-0.023932	-0.103873	-0.022038	-0.265684	10898.096821	65535.000000	4880.113703	42192.777764
57.036500	-0.016484	-0.115702	-0.023361	-0.277513	11270.921537	65535.000000	4934.635238	43284.065577
57.534500	-0.008104	-0.102506	-0.018681	-0.264317	11176.229102	65535.000000	4890.339630	42068.579213
58.034500	-0.012466	-0.068969	-0.016187	-0.227676	10411.106811	65087.384095	4721.178934	38880.885869
58.538000	-0.011009	-0.040828	-0.011283	-0.185662	9722.151650	63126.173619	4551.818231	35541.917683
59.035500	-0.008523	-0.024506	-0.012668	-0.148858	9187.392313	60342.804070	4392.001996	32871.003964
59.536000	-0.010087	-0.014950	-0.008322	-0.102434	8507.040350	55651.654218	4231.441954	29809.173649
60.036000	-0.007905	-0.010708	-0.008519	-0.078585	8223.646216	53314.422535	4146.434472	28359.016720
60.535500	-0.005438	-0.009740	-0.002496	-0.060210	8024.407226	51326.126245	4104.567812	27294.817295
61.037000	-0.004797	-0.006536	-0.005112	-0.039472	7782.898911	49402.227456	4028.585269	26146.597796
61.536500	-0.007645	-0.006167	-0.001848	-0.018537	7511.161960	47242.369814	3973.745711	25041.721237
62.037000	-0.004705	-0.004782	0.002373	-0.006148	7407.272439	46128.044090	3949.142414	24412.542011
62.535000	-0.003956	-0.003050	0.008288	0.011312	7228.973393	44583.632922	3915.151536	23555.792786
63.040500	-0.000462	-0.001187	0.014599	0.023883	7134.959979	43563.688418	3897.089661	22959.867670
63.535000	0.006676	0.003432	0.011815	0.038083	7063.170585	42672.204126	3849.386639	22307.199953
64.035500	0.014571	0.005054	0.017806	0.032293	7203.360101	43360.098247	3882.278624	22570.747734
64.536000	0.015466	0.004769	0.017467	0.032671	7208.752737	43298.102300	3880.251100	22553.453782
65.036500	0.017983	0.006858	0.023858	0.035935	7200.974315	43188.439024	3889.116519	22404.569948
65.554000	0.018300	0.007449	0.026826	0.038541	7177.214087	43001.030567	3890.145610	22286.474941
66.036500	0.022919	0.009516	0.023063	0.038386	7226.882773	43207.678548	3879.914589	22293.487998
66.537000	0.025196	0.010464	0.029564	0.040910	7224.312496	43061.024534	3891.200401	22179.784309
67.037500	0.025807	0.010515	0.026946	0.042931	7209.580576	42878.314158	3878.045518	22089.181036
67.538000	0.026207	0.010356	0.031463	0.047535	7165.989771	42440.204444	3877.801633	21884.418657
68.035000	0.028551	0.012142	0.031888	0.048717	7177.996519	42495.467719	3875.666281	21832.174108
68.536000	0.031381	0.012590	0.032808	0.050133	7192.654030	42406.915245	3874.272879	21769.810437
69.036000	0.030719	0.013474	0.034851	0.054861	7137.039284	42056.977124	3866.745573	21562.993849
69.536000	0.031246	0.014565	0.035179	0.061176	7078.093765	41586.498890	3850.135335	21290.296475
70.036500	0.035703	0.015896	0.036217	0.061626	7118.820560	41665.450342	3851.754290	21270.993887
70.537000	0.033992	0.016209	0.039325	0.062569	7091.799176	41608.959446	3857.745508	21230.657177
71.037000	0.037822	0.016249	0.045738	0.064736	7108.706551	41418.914087	3869.578598	21138.284502
71.537500	0.036684	0.016980	0.041066	0.069100	7053.010132	41096.396645	3844.532924	20953.628159
72.040000	0.040924	0.018678	0.040596	0.071575	7070.798410	41027.844230	3836.481562	20849.728562
72.537000	0.042771	0.019606	0.043832	0.072687	7078.228058	41011.536630	3842.282327	20803.228543
73.035500	0.047379	0.021883	0.048717	0.076025	7091.101578	40918.086105	3846.525882	20664.404942
73.535500	0.044600	0.021844	0.047182	0.080442	7018.668244	40528.039486	3830.283727	20482.308520
74.039000	0.047997	0.023335	0.049447	0.081234	7044.747606	40588.865215	3834.282521	20449.838648
74.536000	0.049526	0.024039	0.050125	0.081996	7052.460907	40583.902747	3834.054558	20418.688054
75.035500	0.050330	0.025008	0.054107	0.084204	7038.352423	40475.913068	3838.886033	20328.664347
75.537000	0.052929	0.025201	0.048287	0.086127	7045.145640	40325.828713	3817.934861	20250.652825
76.037000	0.051891	0.026272	0.051726	0.089388	7002.189982	40136.593290	3818.414058	20119.153164
76.540000	0.054518	0.027135	0.055904	0.089838	7023.888049	40172.212174	3828.458534	20101.086528
77.040500	0.056279	0.027116	0.058439	0.091241	7027.465122	40049.632088	3831.523945	20044.834460
77.534500	0.056172	0.028090	0.060392	0.094612	6992.814431	39844.109334	3827.684362	19910.507821
78.035500	0.058933	0.030170	0.062420	0.096386	7002.613511	39870.291718	3828.369349	19840.207711
78.536000	0.059000	0.029666	0.067190	0.097731	6989.931300	39712.423092	3837.675268	19787.123976
79.036000	0.061898	0.029808	0.061969	0.098688	7009.216753	39643.034007	3820.947908	19749.458520
79.535500	0.061944	0.030489	0.065644	0.101302	6983.715470	39478.991129	3823.801589	19646.964523
80.036500	0.063100	0.031240	0.063072	0.103920	6969.262608	39321.177618	3809.896961	19544.906849
80.537000	0.063965	0.032341	0.064835	0.104931	6967.821759	39328.746519	3811.901642	19505.668293
81.040000	0.066487	0.032740	0.071214	0.105876	6983.416450	39282.803965	3826.489003	19469.096959
81.534500	0.063392	0.033502	0.069445	0.110364	6908.989682	38970.283092	3809.708745	19296.377753
82.035000	0.065986	0.034432	0.070444	0.111404	6924.132730	38961.116547	3809.598525	19256.614683
82.535500	0.067838	0.034947	0.074491	0.111440	6941.898132	39001.142866	3820.328367	19255.239696
83.035500	0.070445	0.035936	0.073825	0.113948	6942.880520	38874.465052	3811.830858	19159.753256
83.536000	0.068626	0.036024	0.071311	0.117333	6892.141944	38600.874933	3796.201186	19031.725258
84.036000	0.071966	0.036335	0.076804	0.118658	6911.714015	38517.149008	3807.222165	18981.869629
84.536000	0.072590	0.037378	0.078479	0.119165	6912.855399	38561.347726	3810.327993	18962.834038
85.036500	0.075323	0.038529	0.082838	0.121468	6917.040444	38466.388145	3815.817774	18876.656047
85.542500	0.075124	0.037862	0.082859	0.122821	6901.943592	38300.458425	3812.260170	18826.257849
86.037500	0.076578	0.038626	0.081922	0.124048	6904.147456	38262.569677	3806.500512	18780.686268
86.537500	0.076546	0.038653	0.083786	0.125238	6892.295801	38167.507538	3808.290176	18736.606508
87.035000	0.079139	0.040021	0.083511	0.127547	6895.044591	38090.699496	3801.438906	18651.400062
87.535000	0.077602	0.039649	0.085377	0.129818	6858.285790	37876.019024	3800.369242	18568.059817
88.036000	0.080686	0.040773	0.084362	0.130600	6880.470877	37903.719070	3795.631307	18539.457290
88.536000	0.079474	0.042245	0.086383	0.133218	6843.615679	37810.919911	3794.061256	18444.059647
89.039000	0.080509	0.042363	0.096491	0.134239	6843.755604	37738.012942	3818.182430	18407.036232
89.536500	0.081126	0.041586	0.082644	0.137040	6822.886215	37450.589729	3774.372319	18305.858925
90.042500	0.083089	0.043471	0.092115	0.138217	6830.382268	37507.299932	3795.988493	18263.542793
90.537500	0.086415	0.044154	0.090139	0.140082	6844.351075	37412.630264	3785.925237	18196.704180
91.034500	0.084519	0.044145	0.091859	0.141155	6816.002877	37326.288110	3787.613460	18158.388227
91.537500	0.085296	0.044998	0.093759	0.144024	6796.150808	37166.009138	3785.087873	18056.426481
92.035500	0.088543	0.045602	0.098882	0.145162	6816.174571	37123.653023	3795.520932	18016.160641
92.535500	0.089487	0.047524	0.099497	0.147126	6806.474407	37120.330788	3791.979492	17946.919969
93.036000	0.089531	0.047154	0.098936	0.148673	6792.238350	36968.752392	3786.464906	17892.603322
93.536000	0.091030	0.047861	0.100977	0.152484	6770.412364	36724.676963	3781.854697	17759.576135
94.036000	0.092563	0.048360	0.098460	0.152722	6782.626281	36745.164837	3774.719658	17751.328478
94.539500	0.094537	0.049151	0.101627	0.155135	6778.477503	36618.252371	3776.665141	17667.751620
95.036500	0.093338	0.049529	0.101850	0.156422	6755.114519	36547.369684	3773.919270	17623.387899
95.537500	0.095613	0.050920	0.106483	0.158734	6754.768561	36475.672263	3779.923123	17543.996097
96.037500	0.095371	0.050767	0.105882	0.160283	6738.006249	36343.564930	3774.359993	17491.040567
96.534500	0.094406	0.050934	0.107545	0.160978	6722.542392	36302.675043	3776.860483	17467.322352
97.035500	0.099862	0.053059	0.108568	0.163863	6746.529751	36243.998858	3772.054175	17369.375557
97.535500	0.098725	0.052671	0.111364	0.165560	6720.090844	36083.312749	3774.888628	17312.026236
