sample name	sample
index	840
start time	 04-05-2021  10:59:36 AM


Wavelength (nm)	Absorbance
494.344910	-0.062224
494.563924	-0.062224
494.782919	-0.062224
495.001897	0.048087
495.220856	-0.014127
495.439797	-0.000129
495.658719	0.014294
495.877624	0.017874
496.096510	0.001775
496.315378	-0.004304
496.534227	-0.009962
496.753059	-0.012677
496.971872	-0.005827
497.190667	0.070875
497.409444	0.098020
497.628203	0.110137
497.846943	0.115816
498.065665	0.121930
498.284369	0.123854
498.503055	0.125866
498.721723	0.127119
498.940372	0.127954
499.159003	0.127682
499.377616	0.128184
499.596210	0.127911
499.814787	0.128454
500.033345	0.127993
500.251885	0.129458
500.470406	0.129715
500.688910	0.129588
500.907395	0.128694
501.125862	0.130170
501.344311	0.130926
501.562742	0.131093
501.781154	0.130992
501.999548	0.130897
502.217924	0.130851
502.436282	0.131139
502.654621	0.132434
502.872942	0.133137
503.091245	0.133224
503.309530	0.133883
503.527797	0.134433
503.746045	0.135180
503.964275	0.135799
504.182487	0.135647
504.400681	0.135966
504.618856	0.135085
504.837013	0.135348
505.055152	0.135175
505.273273	0.134781
505.491376	0.134801
505.709460	0.134389
505.927526	0.133964
506.145574	0.133466
506.363604	0.134219
506.581615	0.134500
506.799608	0.133867
507.017583	0.133755
507.235540	0.133343
507.453478	0.133388
507.671399	0.134194
507.889301	0.135227
508.107185	0.135429
508.325050	0.134755
508.542898	0.134756
508.760727	0.135195
508.978538	0.135765
509.196330	0.135728
509.414105	0.135468
509.631861	0.134716
509.849599	0.134911
510.067319	0.135746
510.285021	0.135933
510.502704	0.136561
510.720369	0.137850
510.938016	0.137867
511.155645	0.138816
511.373255	0.139582
511.590848	0.139764
511.808422	0.139224
512.025977	0.139252
512.243515	0.140098
512.461034	0.140074
512.678536	0.139915
512.896018	0.139099
513.113483	0.139006
513.330930	0.138470
513.548358	0.139882
513.765768	0.140225
513.983160	0.140992
514.200533	0.141593
514.417889	0.141229
514.635226	0.141425
514.852545	0.142293
515.069845	0.142171
515.287128	0.143214
515.504392	0.143078
515.721638	0.142731
515.938866	0.141844
516.156075	0.141194
516.373267	0.142102
516.590440	0.141680
516.807594	0.142217
517.024731	0.142329
517.241850	0.142251
517.458950	0.141990
517.676032	0.142557
517.893095	0.143392
518.110141	0.143571
518.327168	0.143588
518.544177	0.143304
518.761168	0.143443
518.978141	0.144081
519.195095	0.143802
519.412031	0.144233
519.628949	0.144952
519.845849	0.145038
520.062731	0.145031
520.279594	0.146165
520.496439	0.148355
520.713266	0.149182
520.930074	0.149366
521.146865	0.150135
521.363637	0.151317
521.580391	0.152072
521.797127	0.152424
522.013844	0.152975
522.230543	0.152302
522.447224	0.150486
522.663887	0.150117
522.880532	0.150487
523.097158	0.150418
523.313766	0.150114
523.530356	0.149815
523.746928	0.150333
523.963481	0.151308
524.180017	0.151937
524.396534	0.153018
524.613032	0.153247
524.829513	0.153631
525.045975	0.154298
525.262420	0.154167
525.478845	0.154525
525.695253	0.154666
525.911643	0.154361
526.128014	0.155339
526.344367	0.154932
526.560702	0.155100
526.777018	0.155227
526.993316	0.155189
527.209597	0.155831
527.425858	0.155588
527.642102	0.155622
527.858328	0.156007
528.074535	0.155486
528.290724	0.157160
528.506894	0.157154
528.723047	0.157540
528.939181	0.158006
529.155297	0.157757
529.371395	0.158138
529.587475	0.158320
529.803536	0.158253
530.019579	0.158249
530.235604	0.157621
530.451611	0.158471
530.667600	0.158667
530.883570	0.158344
531.099522	0.158778
531.315456	0.158525
531.531372	0.158926
531.747269	0.159065
531.963148	0.158985
532.179009	0.159622
532.394852	0.160043
532.610676	0.160622
532.826482	0.161435
533.042271	0.161798
533.258040	0.162821
533.473792	0.163165
533.689525	0.163959
533.905240	0.165280
534.120937	0.165981
534.336616	0.166028
534.552277	0.166130
534.767919	0.166177
534.983543	0.167113
535.199149	0.167513
535.414736	0.167875
535.630306	0.167702
535.845857	0.167444
536.061390	0.167918
536.276904	0.168521
536.492401	0.168801
536.707879	0.169445
536.923339	0.169258
537.138781	0.169222
537.354204	0.169306
537.569610	0.169622
537.784997	0.170345
538.000366	0.169926
538.215716	0.170055
538.431049	0.170178
538.646363	0.170434
538.861659	0.170908
539.076937	0.171061
539.292196	0.171721
539.507438	0.172150
539.722661	0.172618
539.937866	0.173089
540.153052	0.173434
540.368221	0.173721
540.583371	0.174218
540.798503	0.174110
541.013617	0.174442
541.228712	0.174457
541.443789	0.174807
541.658848	0.174931
541.873889	0.174990
542.088912	0.175743
542.303916	0.175925
542.518902	0.175539
542.733870	0.176103
542.948820	0.176761
543.163752	0.176841
543.378665	0.177433
543.593560	0.177619
543.808437	0.178087
544.023295	0.178259
544.238136	0.179027
544.452958	0.180379
544.667762	0.179895
544.882548	0.180305
545.097315	0.180781
545.312064	0.180499
545.526795	0.180937
545.741508	0.181118
545.956203	0.180987
546.170879	0.180816
546.385537	0.180682
546.600177	0.181171
546.814799	0.181359
547.029402	0.181966
547.243988	0.181649
547.458555	0.182093
547.673103	0.182167
547.887634	0.182170
548.102146	0.182259
548.316640	0.182566
548.531116	0.183334
548.745574	0.183476
548.960013	0.183254
549.174435	0.184328
549.388838	0.184322
549.603222	0.184865
549.817589	0.185392
550.031937	0.185618
550.246267	0.185092
550.460579	0.184939
550.674873	0.185250
550.889148	0.185665
551.103405	0.185847
551.317644	0.185918
551.531865	0.185897
551.746068	0.185703
551.960252	0.186102
552.174418	0.186535
552.388566	0.187146
552.602696	0.187377
552.816807	0.187488
553.030900	0.187924
553.244975	0.188018
553.459032	0.188123
553.673070	0.188361
553.887091	0.188500
554.101093	0.189098
554.315077	0.189056
554.529042	0.188768
554.742990	0.188874
554.956919	0.188707
555.170830	0.189006
555.384722	0.189683
555.598597	0.190042
555.812453	0.190254
556.026291	0.190124
556.240111	0.190335
556.453913	0.190950
556.667696	0.191447
556.881461	0.191611
557.095208	0.191924
557.308937	0.191744
557.522647	0.191941
557.736339	0.192101
557.950013	0.192506
558.163669	0.192860
558.377307	0.192936
558.590926	0.193071
558.804527	0.193287
559.018110	0.193615
559.231675	0.193728
559.445221	0.193527
559.658749	0.193539
559.872259	0.193545
560.085751	0.193646
560.299225	0.193727
560.512680	0.193805
560.726117	0.194127
560.939536	0.193910
561.152937	0.194026
561.366319	0.194699
561.579683	0.194900
561.793029	0.194792
562.006357	0.194646
562.219667	0.194638
562.432958	0.194810
562.646231	0.194695
562.859486	0.194570
563.072723	0.194939
563.285941	0.194682
563.499141	0.195227
563.712323	0.195442
563.925487	0.195504
564.138632	0.196077
564.351760	0.195768
564.564869	0.195686
564.777960	0.196529
564.991032	0.196592
565.204087	0.196950
565.417123	0.196971
565.630141	0.196911
565.843140	0.197571
566.056122	0.197531
566.269085	0.197909
566.482030	0.198377
566.694957	0.198233
566.907866	0.198735
567.120756	0.199016
567.333628	0.199420
567.546482	0.199416
567.759318	0.199408
567.972135	0.199457
568.184935	0.200046
568.397716	0.199978
568.610478	0.199935
568.823223	0.199795
569.035949	0.199758
569.248657	0.199767
569.461347	0.200669
569.674019	0.200776
569.886672	0.200877
570.099308	0.200859
570.311925	0.201455
570.524523	0.201989
570.737104	0.202143
570.949666	0.202190
571.162210	0.202465
571.374736	0.202388
571.587244	0.202729
571.799733	0.203217
572.012205	0.203279
572.224658	0.203567
572.437092	0.203178
572.649509	0.203196
572.861907	0.203527
573.074287	0.203406
573.286649	0.203254
573.498993	0.203255
573.711318	0.203104
573.923625	0.203388
574.135914	0.203503
574.348185	0.204129
574.560438	0.204321
574.772672	0.204384
574.984888	0.204389
575.197086	0.204964
575.409266	0.205078
575.621427	0.205290
575.833570	0.205459
576.045695	0.205430
576.257802	0.205183
576.469890	0.205410
576.681961	0.205610
576.894013	0.206017
577.106046	0.206194
577.318062	0.206159
577.530059	0.206177
577.742039	0.205884
577.954000	0.206122
578.165942	0.206218
578.377867	0.206269
578.589773	0.206361
578.801661	0.206272
579.013531	0.206177
579.225382	0.206313
579.437216	0.206661
579.649031	0.206825
579.860828	0.206857
580.072606	0.207498
580.284367	0.207554
580.496109	0.207745
580.707833	0.208166
580.919539	0.208550
581.131227	0.208472
581.342896	0.208677
581.554547	0.209007
581.766180	0.208905
581.977795	0.208783
582.189391	0.208812
582.400969	0.208978
582.612529	0.209025
582.824071	0.209085
583.035595	0.209399
583.247100	0.209350
583.458587	0.209859
583.670056	0.209790
583.881506	0.210174
584.092939	0.210280
584.304353	0.209913
584.515749	0.209873
584.727127	0.209821
584.938486	0.210204
585.149828	0.210322
585.361151	0.209789
585.572456	0.210054
585.783742	0.209493
585.995011	0.209699
586.206261	0.210592
586.417493	0.210516
586.628706	0.211124
586.839902	0.210989
587.051079	0.211379
587.262238	0.211939
587.473379	0.212474
587.684502	0.212871
587.895606	0.213235
588.106692	0.213463
588.317760	0.213838
588.528810	0.213805
588.739841	0.214392
588.950855	0.214584
589.161850	0.214883
589.372827	0.214981
589.583785	0.215420
589.794726	0.215147
590.005648	0.215122
590.216552	0.215283
590.427437	0.215454
590.638305	0.215099
590.849154	0.215171
591.059985	0.215013
591.270798	0.214731
591.481592	0.214861
591.692369	0.214988
591.903127	0.215000
592.113867	0.215255
592.324588	0.215283
592.535292	0.215598
592.745977	0.215404
592.956644	0.215819
593.167293	0.215760
593.377923	0.215489
593.588536	0.215912
593.799130	0.215633
594.009706	0.215601
594.220263	0.215426
594.430803	0.215172
594.641324	0.215497
594.851827	0.215288
595.062312	0.216078
595.272778	0.216585
595.483227	0.216378
595.693657	0.216798
595.904069	0.216789
596.114462	0.217241
596.324838	0.217718
596.535195	0.217359
596.745534	0.217353
596.955855	0.217308
597.166157	0.217298
597.376441	0.217693
597.586707	0.217784
597.796955	0.217856
598.007185	0.218116
598.217396	0.218365
598.427589	0.218811
598.637764	0.219044
598.847921	0.218877
599.058060	0.218948
599.268180	0.219138
599.478282	0.219456
599.688366	0.220046
599.898431	0.220203
600.108479	0.220596
600.318508	0.220818
600.528519	0.220800
600.738511	0.221222
600.948486	0.221351
601.158442	0.221621
601.368380	0.221712
601.578300	0.221801
601.788202	0.221800
601.998085	0.221354
602.207950	0.220963
602.417797	0.220965
602.627626	0.220689
602.837436	0.220686
603.047228	0.220866
603.257002	0.220689
603.466758	0.220517
603.676496	0.220327
603.886215	0.220803
604.095916	0.221556
604.305599	0.222071
604.515264	0.222644
604.724910	0.222949
604.934538	0.222898
605.144148	0.223133
605.353740	0.223386
605.563314	0.223938
605.772869	0.223884
605.982406	0.223729
606.191925	0.223552
606.401425	0.223452
606.610908	0.223669
606.820372	0.223702
607.029818	0.224162
607.239246	0.224196
607.448655	0.224290
607.658047	0.224227
607.867420	0.224821
608.076775	0.225113
608.286111	0.225061
608.495430	0.225090
608.704730	0.225345
608.914012	0.225162
609.123275	0.225335
609.332521	0.225157
609.541748	0.225713
609.750957	0.225350
609.960148	0.225544
610.169321	0.225538
610.378475	0.225538
610.587611	0.225674
610.796729	0.226132
611.005829	0.226107
611.214910	0.226461
611.423974	0.226645
611.633019	0.227037
611.842045	0.227172
612.051054	0.227381
612.260044	0.227764
612.469017	0.227541
612.677970	0.227357
612.886906	0.227588
613.095824	0.227230
613.304723	0.227320
613.513604	0.227272
613.722467	0.227217
613.931311	0.227916
614.140138	0.227771
614.348946	0.227926
614.557736	0.228033
614.766507	0.228194
614.975261	0.228543
615.183996	0.228197
615.392713	0.228425
615.601412	0.228683
615.810092	0.228561
616.018754	0.228591
616.227399	0.228898
616.436024	0.229146
616.644632	0.229301
616.853222	0.229245
617.061793	0.229618
617.270346	0.229577
617.478880	0.229757
617.687397	0.229864
617.895895	0.229773
618.104375	0.229796
618.312837	0.229807
618.521281	0.229596
618.729706	0.229677
618.938113	0.229826
619.146502	0.230017
619.354873	0.230046
619.563226	0.229846
619.771560	0.230389
619.979876	0.230868
620.188174	0.230937
620.396453	0.231572
620.604715	0.231753
620.812958	0.231992
621.021183	0.232104
621.229390	0.232310
621.437578	0.232651
621.645748	0.232544
621.853900	0.232461
622.062034	0.232378
622.270150	0.232291
622.478247	0.232496
622.686326	0.232478
622.894387	0.232994
623.102430	0.232951
623.310454	0.233458
623.518461	0.233862
623.726449	0.233859
623.934418	0.234193
624.142370	0.234298
624.350303	0.234423
624.558218	0.234419
624.766115	0.234253
624.973994	0.234667
625.181855	0.234601
625.389697	0.234807
625.597521	0.235001
625.805327	0.235027
626.013114	0.235101
626.220883	0.235446
626.428634	0.235776
626.636367	0.235944
626.844082	0.235953
627.051778	0.236044
627.259457	0.236098
627.467117	0.236375
627.674758	0.236374
627.882382	0.236611
628.089987	0.236826
628.297574	0.236687
628.505143	0.236727
628.712694	0.236859
628.920226	0.236864
629.127740	0.236984
629.335236	0.236986
629.542714	0.237446
629.750174	0.237406
629.957615	0.237338
630.165038	0.237790
630.372443	0.238081
630.579829	0.238289
630.787198	0.238605
630.994548	0.238840
631.201880	0.239035
631.409194	0.239160
631.616489	0.239390
631.823766	0.239592
632.031025	0.239553
632.238266	0.239611
632.445489	0.239826
632.652693	0.239715
632.859879	0.239497
633.067047	0.239618
633.274197	0.239740
633.481329	0.239831
633.688442	0.239896
633.895537	0.240472
634.102614	0.240755
634.309672	0.240849
634.516713	0.241219
634.723735	0.241760
634.930739	0.242238
635.137724	0.242225
635.344692	0.242138
635.551641	0.242469
635.758572	0.242377
635.965485	0.242454
636.172379	0.242714
636.379256	0.242963
636.586114	0.243025
636.792954	0.242888
636.999775	0.243153
637.206579	0.243602
637.413364	0.243776
637.620131	0.243632
637.826880	0.243625
638.033610	0.243550
638.240323	0.243602
638.447017	0.243810
638.653692	0.243976
638.860350	0.244110
639.066990	0.244084
639.273611	0.244183
639.480214	0.244490
639.686798	0.244524
639.893365	0.244598
640.099913	0.244659
640.306443	0.244728
640.512955	0.244998
640.719449	0.245047
640.925924	0.245440
641.132381	0.245619
641.338820	0.245719
641.545241	0.245920
641.751644	0.246143
641.958028	0.246330
642.164394	0.246351
642.370742	0.246370
642.577071	0.246500
642.783383	0.246566
642.989676	0.246765
643.195951	0.246841
643.402207	0.247175
643.608446	0.247455
643.814666	0.247639
644.020868	0.247569
644.227052	0.247922
644.433218	0.248091
644.639365	0.248064
644.845494	0.248057
645.051605	0.248147
645.257698	0.248212
645.463772	0.248068
645.669828	0.247792
645.875866	0.248201
646.081886	0.248179
646.287888	0.248655
646.493871	0.248983
646.699836	0.249155
646.905783	0.249392
647.111712	0.249678
647.317622	0.250149
647.523514	0.250600
647.729388	0.250615
647.935244	0.250637
648.141082	0.250831
648.346901	0.251079
648.552702	0.250957
648.758485	0.251323
648.964250	0.251506
649.169996	0.251628
649.375724	0.252023
649.581434	0.252617
649.787126	0.253033
649.992800	0.253035
650.198455	0.253164
650.404092	0.253726
650.609711	0.253873
650.815311	0.253827
651.020894	0.254118
651.226458	0.254151
651.432004	0.254328
651.637532	0.254501
651.843041	0.254603
652.048532	0.254668
652.254006	0.254756
652.459460	0.254832
652.664897	0.255100
652.870315	0.255192
653.075716	0.255437
653.281097	0.255512
653.486461	0.255580
653.691807	0.255890
653.897134	0.256392
654.102443	0.256509
654.307734	0.256604
654.513006	0.256679
654.718261	0.256849
654.923497	0.257237
655.128715	0.257325
655.333915	0.257600
655.539096	0.257881
655.744259	0.257858
655.949404	0.258024
656.154531	0.258351
656.359640	0.258711
656.564730	0.258778
656.769802	0.258906
656.974856	0.259026
657.179892	0.259141
657.384909	0.259109
657.589908	0.259237
657.794889	0.259854
657.999852	0.260132
658.204797	0.260390
658.409723	0.260693
658.614631	0.260649
658.819521	0.260919
659.024393	0.261177
659.229246	0.261368
659.434081	0.261601
659.638898	0.261635
659.843697	0.261652
660.048478	0.261822
660.253240	0.262027
660.457984	0.262379
660.662710	0.262512
660.867417	0.262456
661.072107	0.262766
661.276778	0.262922
661.481431	0.262970
661.686066	0.263107
661.890682	0.263184
662.095281	0.263268
662.299861	0.263565
662.504422	0.263789
662.708966	0.264163
662.913491	0.264307
663.117999	0.264587
663.322488	0.264765
663.526958	0.265474
663.731411	0.265912
663.935845	0.266154
664.140261	0.266031
664.344659	0.266315
664.549038	0.266371
664.753400	0.266651
664.957743	0.267038
665.162068	0.267214
665.366375	0.267041
665.570663	0.266957
665.774933	0.267213
665.979185	0.267463
666.183419	0.267663
666.387635	0.267874
666.591832	0.267966
666.796011	0.268001
667.000172	0.268271
667.204315	0.268570
667.408439	0.268786
667.612545	0.268938
667.816634	0.269176
668.020703	0.269339
668.224755	0.269599
668.428788	0.269953
668.632803	0.270124
668.836800	0.270162
669.040779	0.270477
669.244739	0.270633
669.448681	0.270904
669.652605	0.271126
669.856511	0.271420
670.060399	0.271548
670.264268	0.271437
670.468119	0.271774
670.671952	0.272007
670.875767	0.272226
671.079563	0.272481
671.283341	0.272810
671.487101	0.272954
671.690843	0.272822
671.894567	0.273200
672.098272	0.273462
672.301959	0.273562
672.505628	0.273694
672.709278	0.273694
672.912911	0.273927
673.116525	0.273938
673.320121	0.274095
673.523699	0.274577
673.727258	0.274839
673.930799	0.275220
674.134322	0.275193
674.337827	0.275258
674.541314	0.275299
674.744782	0.275547
674.948232	0.275637
675.151664	0.275998
675.355078	0.276047
675.558474	0.275869
675.761851	0.276132
675.965210	0.276489
676.168551	0.277109
676.371873	0.277361
676.575178	0.277306
676.778464	0.277789
676.981732	0.277901
677.184981	0.278053
677.388213	0.278918
677.591426	0.279216
677.794621	0.279520
677.997798	0.279411
678.200956	0.279645
678.404097	0.280081
678.607219	0.279949
678.810323	0.280335
679.013408	0.280644
679.216476	0.280370
679.419525	0.280268
679.622556	0.280353
679.825569	0.280732
680.028563	0.281235
680.231540	0.281481
680.434498	0.281743
680.637438	0.281759
680.840359	0.282039
681.043263	0.282262
681.246148	0.282561
681.449015	0.282639
681.651864	0.283080
681.854694	0.283075
682.057506	0.283146
682.260301	0.283469
682.463076	0.283678
682.665834	0.283756
682.868573	0.284178
683.071295	0.284001
683.273998	0.284227
683.476682	0.284250
683.679349	0.284633
683.881997	0.284717
684.084627	0.284823
684.287239	0.285079
684.489833	0.285419
684.692408	0.285428
684.894965	0.285845
685.097504	0.286122
685.300025	0.286408
685.502527	0.286439
685.705012	0.286756
685.907478	0.287181
686.109925	0.287371
686.312355	0.287576
686.514766	0.287871
686.717159	0.288122
686.919534	0.288316
687.121891	0.288346
687.324230	0.288460
687.526550	0.288809
687.728852	0.288838
687.931136	0.288906
688.133401	0.288942
688.335649	0.289011
688.537878	0.289053
688.740089	0.289157
688.942281	0.289574
689.144456	0.290051
689.346612	0.290276
689.548750	0.290197
689.750870	0.290491
689.952971	0.290582
690.155055	0.290705
690.357120	0.291210
690.559167	0.291572
690.761195	0.291504
690.963206	0.291477
691.165198	0.291545
691.367172	0.291787
691.569128	0.291825
691.771065	0.292147
691.972984	0.292339
692.174885	0.292555
692.376768	0.292607
692.578633	0.292621
692.780479	0.292764
692.982308	0.292877
693.184118	0.293126
693.385909	0.293259
