sample name	sample
index	395
start time	 03-08-2021  10:07:00 AM


Wavelength (nm)	Absorbance
494.344910	-0.007900
494.563924	-0.007900
494.782919	-0.007900
495.001897	-0.125107
495.220856	-0.013072
495.439797	-0.021045
495.658719	-0.027240
495.877624	-0.006869
496.096510	0.015690
496.315378	0.015499
496.534227	-0.005721
496.753059	0.006963
496.971872	-0.013335
497.190667	0.040675
497.409444	0.058490
497.628203	0.063202
497.846943	0.062780
498.065665	0.062255
498.284369	0.064009
498.503055	0.066833
498.721723	0.067057
498.940372	0.068871
499.159003	0.069628
499.377616	0.069866
499.596210	0.070326
499.814787	0.070337
500.033345	0.072446
500.251885	0.072189
500.470406	0.071349
500.688910	0.070992
500.907395	0.070594
501.125862	0.070417
501.344311	0.069643
501.562742	0.069149
501.781154	0.069593
501.999548	0.067671
502.217924	0.066648
502.436282	0.066394
502.654621	0.066528
502.872942	0.067337
503.091245	0.068220
503.309530	0.068026
503.527797	0.068616
503.746045	0.068456
503.964275	0.068898
504.182487	0.070125
504.400681	0.070523
504.618856	0.071493
504.837013	0.071769
505.055152	0.071667
505.273273	0.072616
505.491376	0.072206
505.709460	0.072551
505.927526	0.073656
506.145574	0.073781
506.363604	0.073593
506.581615	0.072557
506.799608	0.071398
507.017583	0.070884
507.235540	0.071233
507.453478	0.071137
507.671399	0.071149
507.889301	0.070208
508.107185	0.070497
508.325050	0.070276
508.542898	0.071128
508.760727	0.071605
508.978538	0.072241
509.196330	0.071895
509.414105	0.071962
509.631861	0.072536
509.849599	0.072577
510.067319	0.073016
510.285021	0.074779
510.502704	0.075072
510.720369	0.074690
510.938016	0.075148
511.155645	0.074752
511.373255	0.075443
511.590848	0.075172
511.808422	0.075825
512.025977	0.075356
512.243515	0.074367
512.461034	0.074427
512.678536	0.074796
512.896018	0.074135
513.113483	0.074931
513.330930	0.074984
513.548358	0.075267
513.765768	0.075228
513.983160	0.075691
514.200533	0.076346
514.417889	0.076767
514.635226	0.076892
514.852545	0.077181
515.069845	0.077332
515.287128	0.077440
515.504392	0.077130
515.721638	0.077074
515.938866	0.077209
516.156075	0.077258
516.373267	0.076965
516.590440	0.077074
516.807594	0.077140
517.024731	0.077224
517.241850	0.076732
517.458950	0.077036
517.676032	0.077206
517.893095	0.076871
518.110141	0.076266
518.327168	0.076220
518.544177	0.076306
518.761168	0.076332
518.978141	0.076779
519.195095	0.077560
519.412031	0.078311
519.628949	0.079414
519.845849	0.079502
520.062731	0.079661
520.279594	0.079439
520.496439	0.079538
520.713266	0.079766
520.930074	0.079925
521.146865	0.080062
521.363637	0.079681
521.580391	0.078708
521.797127	0.078986
522.013844	0.078934
522.230543	0.079705
522.447224	0.080194
522.663887	0.079986
522.880532	0.079720
523.097158	0.080151
523.313766	0.080187
523.530356	0.080781
523.746928	0.080893
523.963481	0.082005
524.180017	0.082106
524.396534	0.082110
524.613032	0.082822
524.829513	0.083192
525.045975	0.082866
525.262420	0.083842
525.478845	0.083988
525.695253	0.084266
525.911643	0.083885
526.128014	0.083674
526.344367	0.083546
526.560702	0.082902
526.777018	0.082616
526.993316	0.082960
527.209597	0.082060
527.425858	0.082204
527.642102	0.082350
527.858328	0.082958
528.074535	0.082969
528.290724	0.083327
528.506894	0.084322
528.723047	0.084476
528.939181	0.085105
529.155297	0.086431
529.371395	0.086699
529.587475	0.086466
529.803536	0.086330
530.019579	0.086739
530.235604	0.087002
530.451611	0.086585
530.667600	0.086995
530.883570	0.086521
531.099522	0.086268
531.315456	0.086231
531.531372	0.086516
531.747269	0.086992
531.963148	0.087437
532.179009	0.087644
532.394852	0.087821
532.610676	0.087536
532.826482	0.087796
533.042271	0.086857
533.258040	0.086963
533.473792	0.087433
533.689525	0.087422
533.905240	0.087407
534.120937	0.088018
534.336616	0.088471
534.552277	0.088738
534.767919	0.088594
534.983543	0.089326
535.199149	0.089479
535.414736	0.089661
535.630306	0.089796
535.845857	0.089975
536.061390	0.089591
536.276904	0.089512
536.492401	0.089819
536.707879	0.090033
536.923339	0.090125
537.138781	0.090361
537.354204	0.090262
537.569610	0.090016
537.784997	0.089841
538.000366	0.090073
538.215716	0.090099
538.431049	0.089834
538.646363	0.089997
538.861659	0.090349
539.076937	0.090340
539.292196	0.090678
539.507438	0.090858
539.722661	0.091167
539.937866	0.090725
540.153052	0.091136
540.368221	0.092124
540.583371	0.092553
540.798503	0.092654
541.013617	0.092692
541.228712	0.092951
541.443789	0.092965
541.658848	0.093236
541.873889	0.093665
542.088912	0.093615
542.303916	0.093531
542.518902	0.093875
542.733870	0.093984
542.948820	0.094455
543.163752	0.094352
543.378665	0.094595
543.593560	0.094324
543.808437	0.094374
544.023295	0.094537
544.238136	0.094458
544.452958	0.094315
544.667762	0.094418
544.882548	0.094422
545.097315	0.094441
545.312064	0.094279
545.526795	0.094396
545.741508	0.094757
545.956203	0.094848
546.170879	0.094903
546.385537	0.094741
546.600177	0.094348
546.814799	0.094263
547.029402	0.094598
547.243988	0.094932
547.458555	0.095084
547.673103	0.095265
547.887634	0.095416
548.102146	0.096091
548.316640	0.096361
548.531116	0.097133
548.745574	0.097278
548.960013	0.097363
549.174435	0.097636
549.388838	0.097700
549.603222	0.097973
549.817589	0.098310
550.031937	0.097652
550.246267	0.097747
550.460579	0.097963
550.674873	0.098255
550.889148	0.098322
551.103405	0.098247
551.317644	0.098202
551.531865	0.098205
551.746068	0.097863
551.960252	0.098624
552.174418	0.098769
552.388566	0.098761
552.602696	0.098688
552.816807	0.098923
553.030900	0.099051
553.244975	0.099434
553.459032	0.099279
553.673070	0.099837
553.887091	0.099403
554.101093	0.100057
554.315077	0.099833
554.529042	0.099753
554.742990	0.099899
554.956919	0.100253
555.170830	0.100430
555.384722	0.100424
555.598597	0.100135
555.812453	0.100581
556.026291	0.100015
556.240111	0.100345
556.453913	0.100466
556.667696	0.100067
556.881461	0.099778
557.095208	0.099891
557.308937	0.100465
557.522647	0.100971
557.736339	0.101040
557.950013	0.101178
558.163669	0.100909
558.377307	0.101505
558.590926	0.101849
558.804527	0.102232
559.018110	0.102278
559.231675	0.101617
559.445221	0.101630
559.658749	0.101750
559.872259	0.101506
560.085751	0.101824
560.299225	0.101301
560.512680	0.101260
560.726117	0.101052
560.939536	0.101227
561.152937	0.101252
561.366319	0.101574
561.579683	0.101410
561.793029	0.102144
562.006357	0.102251
562.219667	0.102584
562.432958	0.102980
562.646231	0.103278
562.859486	0.103260
563.072723	0.104261
563.285941	0.104239
563.499141	0.104358
563.712323	0.104195
563.925487	0.104504
564.138632	0.104822
564.351760	0.104624
564.564869	0.104862
564.777960	0.105115
564.991032	0.104729
565.204087	0.104639
565.417123	0.104657
565.630141	0.104566
565.843140	0.104642
566.056122	0.104397
566.269085	0.104750
566.482030	0.104961
566.694957	0.104893
566.907866	0.104807
567.120756	0.104587
567.333628	0.104984
567.546482	0.105379
567.759318	0.104900
567.972135	0.105333
568.184935	0.105132
568.397716	0.104913
568.610478	0.104886
568.823223	0.105201
569.035949	0.105429
569.248657	0.105176
569.461347	0.104921
569.674019	0.105390
569.886672	0.105463
570.099308	0.105619
570.311925	0.105753
570.524523	0.106260
570.737104	0.106329
570.949666	0.106579
571.162210	0.106903
571.374736	0.106817
571.587244	0.107109
571.799733	0.107026
572.012205	0.107433
572.224658	0.107656
572.437092	0.107681
572.649509	0.107743
572.861907	0.107608
573.074287	0.107687
573.286649	0.108173
573.498993	0.107921
573.711318	0.108048
573.923625	0.108001
574.135914	0.108077
574.348185	0.108104
574.560438	0.107997
574.772672	0.108139
574.984888	0.108110
575.197086	0.108304
575.409266	0.108535
575.621427	0.108665
575.833570	0.108748
576.045695	0.108812
576.257802	0.108639
576.469890	0.109212
576.681961	0.109408
576.894013	0.109133
577.106046	0.109345
577.318062	0.109406
577.530059	0.109114
577.742039	0.109116
577.954000	0.109137
578.165942	0.109458
578.377867	0.109054
578.589773	0.109104
578.801661	0.109391
579.013531	0.109440
579.225382	0.109813
579.437216	0.110399
579.649031	0.110605
579.860828	0.111016
580.072606	0.110822
580.284367	0.111057
580.496109	0.111321
580.707833	0.111461
580.919539	0.111208
581.131227	0.110944
581.342896	0.110834
581.554547	0.110815
581.766180	0.110576
581.977795	0.110783
582.189391	0.110917
582.400969	0.110984
582.612529	0.110817
582.824071	0.111012
583.035595	0.111223
583.247100	0.111336
583.458587	0.111360
583.670056	0.111526
583.881506	0.111881
584.092939	0.112136
584.304353	0.112170
584.515749	0.112624
584.727127	0.112716
584.938486	0.112575
585.149828	0.112889
585.361151	0.112969
585.572456	0.113084
585.783742	0.113028
585.995011	0.113015
586.206261	0.112561
586.417493	0.112647
586.628706	0.112219
586.839902	0.112670
587.051079	0.112645
587.262238	0.112883
587.473379	0.112738
587.684502	0.112737
587.895606	0.112760
588.106692	0.113391
588.317760	0.113482
588.528810	0.114062
588.739841	0.114188
588.950855	0.113815
589.161850	0.113993
589.372827	0.114350
589.583785	0.114557
589.794726	0.114620
590.005648	0.114708
590.216552	0.115059
590.427437	0.115120
590.638305	0.115012
590.849154	0.115520
591.059985	0.115296
591.270798	0.115050
591.481592	0.114872
591.692369	0.115083
591.903127	0.115214
592.113867	0.115238
592.324588	0.115259
592.535292	0.115083
592.745977	0.115172
592.956644	0.115305
593.167293	0.115671
593.377923	0.115795
593.588536	0.115798
593.799130	0.115836
594.009706	0.115822
594.220263	0.115748
594.430803	0.115910
594.641324	0.115995
594.851827	0.116104
595.062312	0.116171
595.272778	0.116668
595.483227	0.116683
595.693657	0.116653
595.904069	0.116674
596.114462	0.117341
596.324838	0.117618
596.535195	0.117737
596.745534	0.117794
596.955855	0.118027
597.166157	0.117637
597.376441	0.117904
597.586707	0.117780
597.796955	0.118013
598.007185	0.117550
598.217396	0.117705
598.427589	0.117570
598.637764	0.117576
598.847921	0.117595
599.058060	0.117569
599.268180	0.117420
599.478282	0.117863
599.688366	0.117739
599.898431	0.118019
600.108479	0.117828
600.318508	0.117943
600.528519	0.118085
600.738511	0.117769
600.948486	0.118000
601.158442	0.118072
601.368380	0.118158
601.578300	0.118058
601.788202	0.118131
601.998085	0.118403
602.207950	0.118362
602.417797	0.118301
602.627626	0.118586
602.837436	0.118539
603.047228	0.118654
603.257002	0.118498
603.466758	0.119078
603.676496	0.119207
603.886215	0.119188
604.095916	0.119768
604.305599	0.119921
604.515264	0.119913
604.724910	0.120241
604.934538	0.120340
605.144148	0.120149
605.353740	0.119824
605.563314	0.119752
605.772869	0.119894
605.982406	0.119753
606.191925	0.119964
606.401425	0.120179
606.610908	0.120145
606.820372	0.120318
607.029818	0.120563
607.239246	0.120592
607.448655	0.120863
607.658047	0.120833
607.867420	0.120795
608.076775	0.120996
608.286111	0.120886
608.495430	0.121057
608.704730	0.121142
608.914012	0.121249
609.123275	0.121418
609.332521	0.121526
609.541748	0.121491
609.750957	0.121657
609.960148	0.121804
610.169321	0.122010
610.378475	0.122056
610.587611	0.121949
610.796729	0.122145
611.005829	0.122055
611.214910	0.121945
611.423974	0.122087
611.633019	0.122092
611.842045	0.121960
612.051054	0.121967
612.260044	0.122145
612.469017	0.122202
612.677970	0.122136
612.886906	0.122297
613.095824	0.122332
613.304723	0.122493
613.513604	0.122306
613.722467	0.122388
613.931311	0.122411
614.140138	0.122202
614.348946	0.122723
614.557736	0.122738
614.766507	0.122791
614.975261	0.122730
615.183996	0.122582
615.392713	0.122552
615.601412	0.122447
615.810092	0.122415
616.018754	0.122661
616.227399	0.122295
616.436024	0.122463
616.644632	0.122678
616.853222	0.123149
617.061793	0.123413
617.270346	0.123855
617.478880	0.124076
617.687397	0.124404
617.895895	0.124168
618.104375	0.124262
618.312837	0.124410
618.521281	0.124153
618.729706	0.123881
618.938113	0.123888
619.146502	0.123928
619.354873	0.123840
619.563226	0.123455
619.771560	0.123885
619.979876	0.123759
620.188174	0.123844
620.396453	0.124345
620.604715	0.124282
620.812958	0.124338
621.021183	0.124145
621.229390	0.124282
621.437578	0.124595
621.645748	0.124645
621.853900	0.124871
622.062034	0.124780
622.270150	0.124610
622.478247	0.124728
622.686326	0.124929
622.894387	0.125236
623.102430	0.125516
623.310454	0.125596
623.518461	0.125366
623.726449	0.125458
623.934418	0.125576
624.142370	0.125520
624.350303	0.125717
624.558218	0.125661
624.766115	0.125721
624.973994	0.125583
625.181855	0.125631
625.389697	0.125981
625.597521	0.125880
625.805327	0.126089
626.013114	0.126322
626.220883	0.126353
626.428634	0.126499
626.636367	0.126591
626.844082	0.126743
627.051778	0.126829
627.259457	0.127059
627.467117	0.127378
627.674758	0.127492
627.882382	0.127439
628.089987	0.127304
628.297574	0.127288
628.505143	0.127314
628.712694	0.127295
628.920226	0.127303
629.127740	0.127108
629.335236	0.127143
629.542714	0.127119
629.750174	0.127357
629.957615	0.127731
630.165038	0.127779
630.372443	0.127941
630.579829	0.127973
630.787198	0.128052
630.994548	0.128182
631.201880	0.128038
631.409194	0.128079
631.616489	0.127762
631.823766	0.127874
632.031025	0.127958
632.238266	0.127972
632.445489	0.127862
632.652693	0.127859
632.859879	0.127782
633.067047	0.127855
633.274197	0.127655
633.481329	0.127883
633.688442	0.127633
633.895537	0.127598
634.102614	0.127553
634.309672	0.127678
634.516713	0.127882
634.723735	0.128025
634.930739	0.128158
635.137724	0.128396
635.344692	0.128567
635.551641	0.128946
635.758572	0.129079
635.965485	0.129000
636.172379	0.129077
636.379256	0.128896
636.586114	0.128724
636.792954	0.128704
636.999775	0.128694
637.206579	0.128763
637.413364	0.128576
637.620131	0.128639
637.826880	0.128736
638.033610	0.128841
638.240323	0.129003
638.447017	0.129279
638.653692	0.129428
638.860350	0.129414
639.066990	0.129597
639.273611	0.130124
639.480214	0.130239
639.686798	0.130285
639.893365	0.130465
640.099913	0.130566
640.306443	0.130603
640.512955	0.130874
640.719449	0.130970
640.925924	0.130770
641.132381	0.130392
641.338820	0.130409
641.545241	0.130695
641.751644	0.130711
641.958028	0.130873
642.164394	0.130832
642.370742	0.130569
642.577071	0.130839
642.783383	0.130955
642.989676	0.131290
643.195951	0.131362
643.402207	0.131320
643.608446	0.131576
643.814666	0.131658
644.020868	0.131984
644.227052	0.132146
644.433218	0.132243
644.639365	0.132311
644.845494	0.132209
645.051605	0.132396
645.257698	0.132500
645.463772	0.132405
645.669828	0.132362
645.875866	0.132294
646.081886	0.132143
646.287888	0.132173
646.493871	0.132252
646.699836	0.132339
646.905783	0.132319
647.111712	0.132203
647.317622	0.132526
647.523514	0.132637
647.729388	0.132688
647.935244	0.133120
648.141082	0.133167
648.346901	0.133391
648.552702	0.133549
648.758485	0.133519
648.964250	0.133707
649.169996	0.133595
649.375724	0.133613
649.581434	0.133626
649.787126	0.133566
649.992800	0.133554
650.198455	0.133733
650.404092	0.133744
650.609711	0.134145
650.815311	0.134004
651.020894	0.133767
651.226458	0.134141
651.432004	0.134222
651.637532	0.134402
651.843041	0.134822
652.048532	0.134659
652.254006	0.134695
652.459460	0.134594
652.664897	0.134838
652.870315	0.135172
653.075716	0.135020
653.281097	0.135147
653.486461	0.135073
653.691807	0.134895
653.897134	0.135115
654.102443	0.135109
654.307734	0.134952
654.513006	0.135145
654.718261	0.135103
654.923497	0.135165
655.128715	0.135248
655.333915	0.135374
655.539096	0.135287
655.744259	0.135410
655.949404	0.135640
656.154531	0.135924
656.359640	0.136010
656.564730	0.136256
656.769802	0.136306
656.974856	0.136466
657.179892	0.136740
657.384909	0.136804
657.589908	0.136781
657.794889	0.136964
657.999852	0.136917
658.204797	0.137064
658.409723	0.137061
658.614631	0.137345
658.819521	0.137442
659.024393	0.137399
659.229246	0.137417
659.434081	0.137650
659.638898	0.137565
659.843697	0.137826
660.048478	0.137859
660.253240	0.137997
660.457984	0.138015
660.662710	0.138026
660.867417	0.138021
661.072107	0.138297
661.276778	0.138161
661.481431	0.138155
661.686066	0.138198
661.890682	0.138260
662.095281	0.138289
662.299861	0.138361
662.504422	0.138530
662.708966	0.138979
662.913491	0.139274
663.117999	0.139487
663.322488	0.139908
663.526958	0.140011
663.731411	0.140290
663.935845	0.140397
664.140261	0.140563
664.344659	0.140512
664.549038	0.140315
664.753400	0.140216
664.957743	0.140211
665.162068	0.140186
665.366375	0.140244
665.570663	0.140169
665.774933	0.140172
665.979185	0.140158
666.183419	0.140301
666.387635	0.140445
666.591832	0.140502
666.796011	0.140793
667.000172	0.140951
667.204315	0.140927
667.408439	0.141031
667.612545	0.141297
667.816634	0.141392
668.020703	0.141559
668.224755	0.141807
668.428788	0.141836
668.632803	0.141850
668.836800	0.141768
669.040779	0.142111
669.244739	0.142317
669.448681	0.142466
669.652605	0.142726
669.856511	0.142735
670.060399	0.142548
670.264268	0.142724
670.468119	0.142680
670.671952	0.142909
670.875767	0.142856
671.079563	0.142779
671.283341	0.142910
671.487101	0.142890
671.690843	0.143021
671.894567	0.143151
672.098272	0.143333
672.301959	0.143511
672.505628	0.143544
672.709278	0.143826
672.912911	0.143990
673.116525	0.143869
673.320121	0.143934
673.523699	0.143935
673.727258	0.144010
673.930799	0.143987
674.134322	0.144156
674.337827	0.144257
674.541314	0.144153
674.744782	0.144138
674.948232	0.144137
675.151664	0.144144
675.355078	0.144108
675.558474	0.144292
675.761851	0.144516
675.965210	0.144512
676.168551	0.144463
676.371873	0.144775
676.575178	0.144759
676.778464	0.144854
676.981732	0.144960
677.184981	0.145353
677.388213	0.145421
677.591426	0.145224
677.794621	0.145361
677.997798	0.145441
678.200956	0.145157
678.404097	0.145333
678.607219	0.145457
678.810323	0.145471
679.013408	0.145374
679.216476	0.145498
679.419525	0.145578
679.622556	0.145516
679.825569	0.145599
680.028563	0.145793
680.231540	0.145863
680.434498	0.145872
680.637438	0.146128
680.840359	0.146222
681.043263	0.146172
681.246148	0.146588
681.449015	0.146697
681.651864	0.146829
681.854694	0.146843
682.057506	0.146859
682.260301	0.147053
682.463076	0.146890
682.665834	0.146882
682.868573	0.146915
683.071295	0.146662
683.273998	0.146655
683.476682	0.146601
683.679349	0.146700
683.881997	0.146829
684.084627	0.146852
684.287239	0.147014
684.489833	0.147156
684.692408	0.147273
684.894965	0.147426
685.097504	0.147570
685.300025	0.147718
685.502527	0.147849
685.705012	0.147947
685.907478	0.147956
686.109925	0.148115
686.312355	0.148354
686.514766	0.148584
686.717159	0.148724
686.919534	0.148821
687.121891	0.148873
687.324230	0.148918
687.526550	0.148966
687.728852	0.149026
687.931136	0.149125
688.133401	0.149094
688.335649	0.148932
688.537878	0.148865
688.740089	0.148914
688.942281	0.148827
689.144456	0.148790
689.346612	0.148929
689.548750	0.148963
689.750870	0.148887
689.952971	0.148815
690.155055	0.148992
690.357120	0.149066
690.559167	0.149290
690.761195	0.149663
690.963206	0.149669
691.165198	0.149505
691.367172	0.149753
691.569128	0.149915
691.771065	0.150086
691.972984	0.150117
692.174885	0.150496
692.376768	0.150482
692.578633	0.150445
692.780479	0.150563
692.982308	0.150813
693.184118	0.150884
693.385909	0.150838
