sample name	sample
index	761
start time	 03-31-2021  12:23:52 PM


Wavelength (nm)	Absorbance
494.344910	-0.123072
494.563924	-0.123072
494.782919	-0.123072
495.001897	-0.049074
495.220856	-0.037223
495.439797	-0.039472
495.658719	-0.028563
495.877624	-0.011173
496.096510	0.014983
496.315378	0.040123
496.534227	0.055310
496.753059	0.026197
496.971872	0.006249
497.190667	0.115306
497.409444	0.140652
497.628203	0.145738
497.846943	0.149448
498.065665	0.150674
498.284369	0.150661
498.503055	0.150840
498.721723	0.152906
498.940372	0.153651
499.159003	0.153942
499.377616	0.153969
499.596210	0.154568
499.814787	0.154260
500.033345	0.153321
500.251885	0.154325
500.470406	0.154040
500.688910	0.154146
500.907395	0.154772
501.125862	0.156353
501.344311	0.156168
501.562742	0.157006
501.781154	0.158091
501.999548	0.158587
502.217924	0.158057
502.436282	0.159092
502.654621	0.159564
502.872942	0.159401
503.091245	0.158373
503.309530	0.158405
503.527797	0.157581
503.746045	0.156563
503.964275	0.157224
504.182487	0.157838
504.400681	0.156962
504.618856	0.155795
504.837013	0.155144
505.055152	0.154836
505.273273	0.156051
505.491376	0.157117
505.709460	0.158504
505.927526	0.158856
506.145574	0.158980
506.363604	0.159652
506.581615	0.161177
506.799608	0.161769
507.017583	0.162150
507.235540	0.161391
507.453478	0.159493
507.671399	0.158748
507.889301	0.158972
508.107185	0.159513
508.325050	0.160780
508.542898	0.160496
508.760727	0.161073
508.978538	0.161470
509.196330	0.161452
509.414105	0.163450
509.631861	0.163605
509.849599	0.163200
510.067319	0.162906
510.285021	0.162647
510.502704	0.162937
510.720369	0.162501
510.938016	0.162984
511.155645	0.163477
511.373255	0.163999
511.590848	0.163814
511.808422	0.164503
512.025977	0.164612
512.243515	0.164199
512.461034	0.164005
512.678536	0.164086
512.896018	0.163952
513.113483	0.164250
513.330930	0.163813
513.548358	0.164338
513.765768	0.164917
513.983160	0.164816
514.200533	0.166083
514.417889	0.166092
514.635226	0.166886
514.852545	0.167055
515.069845	0.167437
515.287128	0.167500
515.504392	0.167302
515.721638	0.166101
515.938866	0.165912
516.156075	0.165896
516.373267	0.166898
516.590440	0.167123
516.807594	0.167448
517.024731	0.167135
517.241850	0.167649
517.458950	0.168610
517.676032	0.170270
517.893095	0.171112
518.110141	0.171453
518.327168	0.171516
518.544177	0.172448
518.761168	0.173215
518.978141	0.174494
519.195095	0.174855
519.412031	0.174780
519.628949	0.174823
519.845849	0.175603
520.062731	0.174712
520.279594	0.174616
520.496439	0.174126
520.713266	0.173890
520.930074	0.173825
521.146865	0.173821
521.363637	0.174276
521.580391	0.174727
521.797127	0.174674
522.013844	0.175926
522.230543	0.176319
522.447224	0.176642
522.663887	0.177583
522.880532	0.177588
523.097158	0.178327
523.313766	0.178346
523.530356	0.178728
523.746928	0.178537
523.963481	0.178505
524.180017	0.178417
524.396534	0.178832
524.613032	0.178375
524.829513	0.179064
525.045975	0.178785
525.262420	0.179502
525.478845	0.178912
525.695253	0.179777
525.911643	0.179994
526.128014	0.180984
526.344367	0.181259
526.560702	0.182536
526.777018	0.182857
526.993316	0.183823
527.209597	0.183657
527.425858	0.184035
527.642102	0.184230
527.858328	0.184883
528.074535	0.184752
528.290724	0.184878
528.506894	0.184237
528.723047	0.184488
528.939181	0.184106
529.155297	0.184363
529.371395	0.184667
529.587475	0.184980
529.803536	0.185461
530.019579	0.185242
530.235604	0.185415
530.451611	0.185884
530.667600	0.186083
530.883570	0.186880
531.099522	0.187600
531.315456	0.188766
531.531372	0.189469
531.747269	0.189814
531.963148	0.190686
532.179009	0.191281
532.394852	0.191437
532.610676	0.191621
532.826482	0.191739
533.042271	0.192361
533.258040	0.192409
533.473792	0.192558
533.689525	0.192596
533.905240	0.193072
534.120937	0.192811
534.336616	0.193220
534.552277	0.193881
534.767919	0.194591
534.983543	0.194798
535.199149	0.195214
535.414736	0.195891
535.630306	0.196330
535.845857	0.196662
536.061390	0.197882
536.276904	0.198020
536.492401	0.198443
536.707879	0.198804
536.923339	0.199051
537.138781	0.199167
537.354204	0.199089
537.569610	0.199233
537.784997	0.199364
538.000366	0.199826
538.215716	0.200461
538.431049	0.200598
538.646363	0.200689
538.861659	0.201072
539.076937	0.200969
539.292196	0.202088
539.507438	0.202046
539.722661	0.202864
539.937866	0.203528
540.153052	0.204047
540.368221	0.204796
540.583371	0.205233
540.798503	0.205709
541.013617	0.206775
541.228712	0.206890
541.443789	0.207788
541.658848	0.208023
541.873889	0.207764
542.088912	0.208110
542.303916	0.208310
542.518902	0.208325
542.733870	0.208833
542.948820	0.208735
543.163752	0.208487
543.378665	0.208928
543.593560	0.209506
543.808437	0.210427
544.023295	0.210922
544.238136	0.210579
544.452958	0.211279
544.667762	0.211861
544.882548	0.212158
545.097315	0.212774
545.312064	0.213185
545.526795	0.212958
545.741508	0.213055
545.956203	0.212827
546.170879	0.213456
546.385537	0.213272
546.600177	0.212939
546.814799	0.213553
547.029402	0.213942
547.243988	0.213869
547.458555	0.214116
547.673103	0.214225
547.887634	0.215144
548.102146	0.215723
548.316640	0.216335
548.531116	0.216970
548.745574	0.216682
548.960013	0.216645
549.174435	0.216902
549.388838	0.217332
549.603222	0.217583
549.817589	0.217550
550.031937	0.217737
550.246267	0.218345
550.460579	0.218404
550.674873	0.219048
550.889148	0.218877
551.103405	0.219300
551.317644	0.219830
551.531865	0.219958
551.746068	0.220314
551.960252	0.220618
552.174418	0.220279
552.388566	0.220501
552.602696	0.221179
552.816807	0.222413
553.030900	0.222565
553.244975	0.223116
553.459032	0.223309
553.673070	0.223242
553.887091	0.223732
554.101093	0.224034
554.315077	0.224952
554.529042	0.224665
554.742990	0.224615
554.956919	0.224873
555.170830	0.224613
555.384722	0.225050
555.598597	0.225548
555.812453	0.225353
556.026291	0.225735
556.240111	0.225561
556.453913	0.225671
556.667696	0.226012
556.881461	0.226766
557.095208	0.226832
557.308937	0.226651
557.522647	0.226833
557.736339	0.227332
557.950013	0.227510
558.163669	0.227786
558.377307	0.228331
558.590926	0.228468
558.804527	0.228158
559.018110	0.228651
559.231675	0.228853
559.445221	0.229404
559.658749	0.229404
559.872259	0.229675
560.085751	0.229904
560.299225	0.229942
560.512680	0.230294
560.726117	0.230863
560.939536	0.231086
561.152937	0.231822
561.366319	0.231607
561.579683	0.231733
561.793029	0.232177
562.006357	0.232243
562.219667	0.232851
562.432958	0.232791
562.646231	0.232876
562.859486	0.233340
563.072723	0.233026
563.285941	0.233757
563.499141	0.234002
563.712323	0.234098
563.925487	0.234593
564.138632	0.234669
564.351760	0.235117
564.564869	0.235411
564.777960	0.235314
564.991032	0.236058
565.204087	0.236572
565.417123	0.237446
565.630141	0.237514
565.843140	0.237725
566.056122	0.238076
566.269085	0.238525
566.482030	0.239254
566.694957	0.239933
566.907866	0.240570
567.120756	0.240257
567.333628	0.240531
567.546482	0.241229
567.759318	0.241564
567.972135	0.241878
568.184935	0.242083
568.397716	0.241981
568.610478	0.242347
568.823223	0.241750
569.035949	0.242238
569.248657	0.242167
569.461347	0.242699
569.674019	0.242531
569.886672	0.242648
570.099308	0.243167
570.311925	0.243345
570.524523	0.243312
570.737104	0.243819
570.949666	0.243896
571.162210	0.244118
571.374736	0.244043
571.587244	0.244776
571.799733	0.244838
572.012205	0.244500
572.224658	0.245068
572.437092	0.245413
572.649509	0.245805
572.861907	0.246120
573.074287	0.246575
573.286649	0.246885
573.498993	0.246962
573.711318	0.247822
573.923625	0.248155
574.135914	0.248284
574.348185	0.248384
574.560438	0.248683
574.772672	0.248556
574.984888	0.248506
575.197086	0.248720
575.409266	0.248720
575.621427	0.249071
575.833570	0.249309
576.045695	0.249025
576.257802	0.249315
576.469890	0.249344
576.681961	0.250143
576.894013	0.250411
577.106046	0.250942
577.318062	0.251498
577.530059	0.251413
577.742039	0.251608
577.954000	0.252604
578.165942	0.252548
578.377867	0.253157
578.589773	0.252767
578.801661	0.253139
579.013531	0.252860
579.225382	0.252886
579.437216	0.252800
579.649031	0.253175
579.860828	0.253118
580.072606	0.253593
580.284367	0.253877
580.496109	0.254465
580.707833	0.254342
580.919539	0.254323
581.131227	0.254751
581.342896	0.254958
581.554547	0.255296
581.766180	0.255496
581.977795	0.255935
582.189391	0.256360
582.400969	0.256717
582.612529	0.256823
582.824071	0.257463
583.035595	0.257698
583.247100	0.258073
583.458587	0.258269
583.670056	0.258203
583.881506	0.258715
584.092939	0.258842
584.304353	0.259123
584.515749	0.259989
584.727127	0.260544
584.938486	0.260814
585.149828	0.260892
585.361151	0.261324
585.572456	0.261553
585.783742	0.261757
585.995011	0.261530
586.206261	0.261715
586.417493	0.261720
586.628706	0.261204
586.839902	0.261381
587.051079	0.261816
587.262238	0.261641
587.473379	0.261619
587.684502	0.261965
587.895606	0.262349
588.106692	0.262830
588.317760	0.263429
588.528810	0.263961
588.739841	0.264474
588.950855	0.264562
589.161850	0.264941
589.372827	0.265682
589.583785	0.265359
589.794726	0.266003
590.005648	0.266417
590.216552	0.266413
590.427437	0.266875
590.638305	0.267047
590.849154	0.267603
591.059985	0.267928
591.270798	0.267994
591.481592	0.268440
591.692369	0.268273
591.903127	0.268272
592.113867	0.268390
592.324588	0.268499
592.535292	0.268103
592.745977	0.268318
592.956644	0.268672
593.167293	0.269044
593.377923	0.269511
593.588536	0.269844
593.799130	0.269892
594.009706	0.270501
594.220263	0.270633
594.430803	0.271299
594.641324	0.271449
594.851827	0.271438
595.062312	0.271697
595.272778	0.271505
595.483227	0.272131
595.693657	0.272499
595.904069	0.272507
596.114462	0.272949
596.324838	0.273263
596.535195	0.273627
596.745534	0.274005
596.955855	0.274130
597.166157	0.274034
597.376441	0.274016
597.586707	0.274308
597.796955	0.274720
598.007185	0.274849
598.217396	0.275009
598.427589	0.275272
598.637764	0.275656
598.847921	0.275933
599.058060	0.276510
599.268180	0.276409
599.478282	0.276521
599.688366	0.276503
599.898431	0.276737
600.108479	0.277067
600.318508	0.277556
600.528519	0.277767
600.738511	0.278166
600.948486	0.278701
601.158442	0.279168
601.368380	0.279437
601.578300	0.279833
601.788202	0.280195
601.998085	0.280410
602.207950	0.280417
602.417797	0.280298
602.627626	0.280457
602.837436	0.280610
603.047228	0.280884
603.257002	0.280829
603.466758	0.280854
603.676496	0.281191
603.886215	0.281355
604.095916	0.281349
604.305599	0.282080
604.515264	0.282583
604.724910	0.282816
604.934538	0.282803
605.144148	0.283229
605.353740	0.283603
605.563314	0.283424
605.772869	0.283522
605.982406	0.283993
606.191925	0.284126
606.401425	0.284277
606.610908	0.284451
606.820372	0.284877
607.029818	0.285266
607.239246	0.285424
607.448655	0.285760
607.658047	0.286075
607.867420	0.286452
608.076775	0.286217
608.286111	0.286150
608.495430	0.286199
608.704730	0.286273
608.914012	0.286427
609.123275	0.286663
609.332521	0.286902
609.541748	0.287511
609.750957	0.287753
609.960148	0.288362
610.169321	0.288986
610.378475	0.289106
610.587611	0.289417
610.796729	0.289446
611.005829	0.289323
611.214910	0.289364
611.423974	0.289205
611.633019	0.289324
611.842045	0.289652
612.051054	0.289367
612.260044	0.289814
612.469017	0.290527
612.677970	0.290891
612.886906	0.291596
613.095824	0.291934
613.304723	0.292281
613.513604	0.292513
613.722467	0.292592
613.931311	0.292653
614.140138	0.292781
614.348946	0.292340
614.557736	0.292340
614.766507	0.292565
614.975261	0.292765
615.183996	0.292573
615.392713	0.292557
615.601412	0.292766
615.810092	0.293512
616.018754	0.293700
616.227399	0.293912
616.436024	0.294316
616.644632	0.294181
616.853222	0.294364
617.061793	0.294696
617.270346	0.295013
617.478880	0.295291
617.687397	0.295094
617.895895	0.295452
618.104375	0.295664
618.312837	0.296133
618.521281	0.296593
618.729706	0.297042
618.938113	0.297377
619.146502	0.297048
619.354873	0.296722
619.563226	0.296843
619.771560	0.296787
619.979876	0.297242
620.188174	0.297153
620.396453	0.297068
620.604715	0.297312
620.812958	0.297628
621.021183	0.297963
621.229390	0.298645
621.437578	0.299121
621.645748	0.299688
621.853900	0.299745
622.062034	0.299835
622.270150	0.300419
622.478247	0.300269
622.686326	0.300294
622.894387	0.300598
623.102430	0.300692
623.310454	0.300925
623.518461	0.300922
623.726449	0.301051
623.934418	0.301374
624.142370	0.301321
624.350303	0.301715
624.558218	0.302072
624.766115	0.302603
624.973994	0.302921
625.181855	0.303058
625.389697	0.303479
625.597521	0.303810
625.805327	0.303989
626.013114	0.304327
626.220883	0.304356
626.428634	0.304363
626.636367	0.304565
626.844082	0.304559
627.051778	0.304902
627.259457	0.304807
627.467117	0.305101
627.674758	0.305540
627.882382	0.305629
628.089987	0.305797
628.297574	0.306328
628.505143	0.306297
628.712694	0.306325
628.920226	0.306175
629.127740	0.306727
629.335236	0.306753
629.542714	0.306744
629.750174	0.306813
629.957615	0.307082
630.165038	0.306934
630.372443	0.307264
630.579829	0.307802
630.787198	0.308354
630.994548	0.308166
631.201880	0.308611
631.409194	0.308752
631.616489	0.309103
631.823766	0.309511
632.031025	0.309832
632.238266	0.310105
632.445489	0.309948
632.652693	0.310059
632.859879	0.310317
633.067047	0.310237
633.274197	0.310193
633.481329	0.310466
633.688442	0.310886
633.895537	0.310776
634.102614	0.310878
634.309672	0.311500
634.516713	0.311573
634.723735	0.311744
634.930739	0.312019
635.137724	0.312730
635.344692	0.313043
635.551641	0.312850
635.758572	0.313593
635.965485	0.313787
636.172379	0.313775
636.379256	0.314023
636.586114	0.314318
636.792954	0.314473
636.999775	0.314507
637.206579	0.314662
637.413364	0.315046
637.620131	0.314840
637.826880	0.314959
638.033610	0.315395
638.240323	0.315619
638.447017	0.315732
638.653692	0.316130
638.860350	0.316272
639.066990	0.316381
639.273611	0.316553
639.480214	0.316839
639.686798	0.317398
639.893365	0.317363
640.099913	0.317818
640.306443	0.318116
640.512955	0.318326
640.719449	0.318688
640.925924	0.318994
641.132381	0.319103
641.338820	0.319660
641.545241	0.319772
641.751644	0.320011
641.958028	0.319994
642.164394	0.320108
642.370742	0.320332
642.577071	0.320683
642.783383	0.320912
642.989676	0.321604
643.195951	0.321710
643.402207	0.321867
643.608446	0.322104
643.814666	0.322488
644.020868	0.322925
644.227052	0.323266
644.433218	0.323510
644.639365	0.323805
644.845494	0.323552
645.051605	0.324001
645.257698	0.324463
645.463772	0.324330
645.669828	0.324475
645.875866	0.324536
646.081886	0.324440
646.287888	0.324447
646.493871	0.324430
646.699836	0.324877
646.905783	0.324452
647.111712	0.324508
647.317622	0.325103
647.523514	0.325362
647.729388	0.325650
647.935244	0.326112
648.141082	0.326250
648.346901	0.326596
648.552702	0.326810
648.758485	0.327500
648.964250	0.327692
649.169996	0.327801
649.375724	0.328225
649.581434	0.328755
649.787126	0.328860
649.992800	0.329109
650.198455	0.329580
650.404092	0.329772
650.609711	0.329995
650.815311	0.330075
651.020894	0.330373
651.226458	0.330418
651.432004	0.330837
651.637532	0.331150
651.843041	0.331590
652.048532	0.331686
652.254006	0.332032
652.459460	0.332432
652.664897	0.332981
652.870315	0.333400
653.075716	0.333694
653.281097	0.333296
653.486461	0.333552
653.691807	0.333640
653.897134	0.333873
654.102443	0.334008
654.307734	0.333780
654.513006	0.333789
654.718261	0.333945
654.923497	0.334135
655.128715	0.334636
655.333915	0.334661
655.539096	0.335185
655.744259	0.335533
655.949404	0.335701
656.154531	0.336277
656.359640	0.336563
656.564730	0.336908
656.769802	0.337166
656.974856	0.337517
657.179892	0.338235
657.384909	0.338339
657.589908	0.338672
657.794889	0.339220
657.999852	0.339650
658.204797	0.340087
658.409723	0.340536
658.614631	0.340997
658.819521	0.341364
659.024393	0.341651
659.229246	0.341953
659.434081	0.341907
659.638898	0.342474
659.843697	0.342547
660.048478	0.342396
660.253240	0.342610
660.457984	0.342803
660.662710	0.342904
660.867417	0.343069
661.072107	0.343462
661.276778	0.343925
661.481431	0.343594
661.686066	0.343827
661.890682	0.344305
662.095281	0.344395
662.299861	0.344451
662.504422	0.344830
662.708966	0.344977
662.913491	0.345287
663.117999	0.345535
663.322488	0.346262
663.526958	0.346510
663.731411	0.346959
663.935845	0.347207
664.140261	0.347656
664.344659	0.347830
664.549038	0.348115
664.753400	0.348308
664.957743	0.348629
665.162068	0.348544
665.366375	0.348985
665.570663	0.349035
665.774933	0.349938
665.979185	0.350241
666.183419	0.350760
666.387635	0.350900
666.591832	0.351158
666.796011	0.351218
667.000172	0.351649
667.204315	0.351664
667.408439	0.352066
667.612545	0.351849
667.816634	0.352080
668.020703	0.351975
668.224755	0.352192
668.428788	0.352564
668.632803	0.352921
668.836800	0.352967
669.040779	0.353409
669.244739	0.353481
669.448681	0.353710
669.652605	0.353998
669.856511	0.354389
670.060399	0.354757
670.264268	0.354673
670.468119	0.355115
670.671952	0.355313
670.875767	0.355622
671.079563	0.356200
671.283341	0.356600
671.487101	0.356870
671.690843	0.357233
671.894567	0.357668
672.098272	0.357803
672.301959	0.357786
672.505628	0.358157
672.709278	0.358513
672.912911	0.358533
673.116525	0.358717
673.320121	0.359024
673.523699	0.359323
673.727258	0.359522
673.930799	0.360088
674.134322	0.360700
674.337827	0.361113
674.541314	0.361346
674.744782	0.361574
674.948232	0.361982
675.151664	0.362303
675.355078	0.362457
675.558474	0.362788
675.761851	0.362913
675.965210	0.363025
676.168551	0.363608
676.371873	0.363554
676.575178	0.363890
676.778464	0.364147
676.981732	0.364357
677.184981	0.364428
677.388213	0.364498
677.591426	0.364919
677.794621	0.365159
677.997798	0.365023
678.200956	0.365487
678.404097	0.365858
678.607219	0.365904
678.810323	0.366055
679.013408	0.366630
679.216476	0.366879
679.419525	0.366984
679.622556	0.367215
679.825569	0.367505
680.028563	0.367623
680.231540	0.368235
680.434498	0.368628
680.637438	0.368745
680.840359	0.368807
681.043263	0.369281
681.246148	0.369544
681.449015	0.369831
681.651864	0.370067
681.854694	0.370296
682.057506	0.370241
682.260301	0.370541
682.463076	0.370796
682.665834	0.370857
682.868573	0.371237
683.071295	0.371665
683.273998	0.371857
683.476682	0.372162
683.679349	0.372680
683.881997	0.373137
684.084627	0.373208
684.287239	0.373540
684.489833	0.374059
684.692408	0.374083
684.894965	0.374371
685.097504	0.374639
685.300025	0.374832
685.502527	0.375206
685.705012	0.375140
685.907478	0.375298
686.109925	0.375772
686.312355	0.376064
686.514766	0.376446
686.717159	0.376500
686.919534	0.376968
687.121891	0.377222
687.324230	0.377344
687.526550	0.377858
687.728852	0.378309
687.931136	0.378369
688.133401	0.378552
688.335649	0.379036
688.537878	0.379391
688.740089	0.379528
688.942281	0.379817
689.144456	0.380008
689.346612	0.380375
689.548750	0.380574
689.750870	0.381093
689.952971	0.381484
690.155055	0.381671
690.357120	0.381997
690.559167	0.382167
690.761195	0.382404
690.963206	0.382659
691.165198	0.382479
691.367172	0.383032
691.569128	0.382789
691.771065	0.383092
691.972984	0.383120
692.174885	0.383515
692.376768	0.384215
692.578633	0.384561
692.780479	0.384481
692.982308	0.385066
693.184118	0.384975
693.385909	0.385466
