sample name	sample
index	273
start time	 02-25-2021  11:38:58 AM


Wavelength (nm)	Absorbance
494.344910	-0.074048
494.563924	-0.074048
494.782919	-0.074048
495.001897	-0.100500
495.220856	-0.062947
495.439797	-0.035275
495.658719	-0.034932
495.877624	-0.016551
496.096510	-0.000728
496.315378	-0.005086
496.534227	-0.011698
496.753059	-0.008169
496.971872	0.015195
497.190667	0.111128
497.409444	0.123676
497.628203	0.135989
497.846943	0.137108
498.065665	0.137214
498.284369	0.138587
498.503055	0.139292
498.721723	0.139546
498.940372	0.140144
499.159003	0.140616
499.377616	0.141069
499.596210	0.140199
499.814787	0.140716
500.033345	0.141288
500.251885	0.141259
500.470406	0.140905
500.688910	0.140835
500.907395	0.141838
501.125862	0.140522
501.344311	0.141328
501.562742	0.141259
501.781154	0.140216
501.999548	0.140332
502.217924	0.140300
502.436282	0.140968
502.654621	0.141383
502.872942	0.140669
503.091245	0.141973
503.309530	0.140414
503.527797	0.140293
503.746045	0.140886
503.964275	0.141715
504.182487	0.141936
504.400681	0.143058
504.618856	0.141942
504.837013	0.141557
505.055152	0.141283
505.273273	0.143140
505.491376	0.143742
505.709460	0.145250
505.927526	0.144788
506.145574	0.144732
506.363604	0.144201
506.581615	0.146150
506.799608	0.146535
507.017583	0.146405
507.235540	0.146248
507.453478	0.146169
507.671399	0.145639
507.889301	0.146215
508.107185	0.147022
508.325050	0.146843
508.542898	0.147005
508.760727	0.147922
508.978538	0.148343
509.196330	0.148239
509.414105	0.148716
509.631861	0.147792
509.849599	0.147688
510.067319	0.148008
510.285021	0.148921
510.502704	0.149485
510.720369	0.147971
510.938016	0.148480
511.155645	0.148353
511.373255	0.147984
511.590848	0.149588
511.808422	0.150013
512.025977	0.149957
512.243515	0.150056
512.461034	0.149811
512.678536	0.150677
512.896018	0.150262
513.113483	0.150828
513.330930	0.150658
513.548358	0.150852
513.765768	0.151172
513.983160	0.151588
514.200533	0.151571
514.417889	0.151301
514.635226	0.152560
514.852545	0.153465
515.069845	0.153602
515.287128	0.153432
515.504392	0.152832
515.721638	0.152678
515.938866	0.152765
516.156075	0.152480
516.373267	0.152608
516.590440	0.152497
516.807594	0.152379
517.024731	0.152858
517.241850	0.153863
517.458950	0.154592
517.676032	0.154428
517.893095	0.155208
518.110141	0.155953
518.327168	0.156306
518.544177	0.156406
518.761168	0.157844
518.978141	0.158043
519.195095	0.158007
519.412031	0.158606
519.628949	0.158977
519.845849	0.157921
520.062731	0.158367
520.279594	0.159102
520.496439	0.159427
520.713266	0.158509
520.930074	0.158494
521.146865	0.158130
521.363637	0.157843
521.580391	0.157861
521.797127	0.158206
522.013844	0.159031
522.230543	0.158762
522.447224	0.159478
522.663887	0.159625
522.880532	0.160030
523.097158	0.161089
523.313766	0.161627
523.530356	0.162353
523.746928	0.163708
523.963481	0.163266
524.180017	0.163806
524.396534	0.164012
524.613032	0.165252
524.829513	0.165692
525.045975	0.165922
525.262420	0.165894
525.478845	0.166131
525.695253	0.166069
525.911643	0.166922
526.128014	0.167260
526.344367	0.166909
526.560702	0.166546
526.777018	0.166852
526.993316	0.167970
527.209597	0.167519
527.425858	0.167286
527.642102	0.167929
527.858328	0.167601
528.074535	0.167958
528.290724	0.167779
528.506894	0.168480
528.723047	0.168944
528.939181	0.169249
529.155297	0.170519
529.371395	0.170827
529.587475	0.170943
529.803536	0.171419
530.019579	0.171476
530.235604	0.172151
530.451611	0.172414
530.667600	0.172163
530.883570	0.171954
531.099522	0.171869
531.315456	0.173668
531.531372	0.173356
531.747269	0.174090
531.963148	0.174931
532.179009	0.175760
532.394852	0.176150
532.610676	0.177004
532.826482	0.177462
533.042271	0.178342
533.258040	0.177439
533.473792	0.177977
533.689525	0.177930
533.905240	0.178039
534.120937	0.178432
534.336616	0.178681
534.552277	0.179398
534.767919	0.179442
534.983543	0.179185
535.199149	0.179704
535.414736	0.180203
535.630306	0.180382
535.845857	0.180291
536.061390	0.179936
536.276904	0.179946
536.492401	0.179405
536.707879	0.179623
536.923339	0.180180
537.138781	0.180284
537.354204	0.180719
537.569610	0.180905
537.784997	0.181886
538.000366	0.182856
538.215716	0.182988
538.431049	0.183140
538.646363	0.183243
538.861659	0.183750
539.076937	0.184235
539.292196	0.184332
539.507438	0.184701
539.722661	0.184730
539.937866	0.184863
540.153052	0.184929
540.368221	0.186075
540.583371	0.186538
540.798503	0.187327
541.013617	0.187777
541.228712	0.188356
541.443789	0.188934
541.658848	0.189072
541.873889	0.188993
542.088912	0.190157
542.303916	0.190351
542.518902	0.190992
542.733870	0.190779
542.948820	0.190768
543.163752	0.190854
543.378665	0.191165
543.593560	0.191141
543.808437	0.191642
544.023295	0.191383
544.238136	0.191097
544.452958	0.191396
544.667762	0.191254
544.882548	0.191732
545.097315	0.191949
545.312064	0.192078
545.526795	0.192810
545.741508	0.193016
545.956203	0.193618
546.170879	0.194045
546.385537	0.194200
546.600177	0.195226
546.814799	0.195546
547.029402	0.195066
547.243988	0.195885
547.458555	0.195931
547.673103	0.196523
547.887634	0.196675
548.102146	0.197007
548.316640	0.197724
548.531116	0.197600
548.745574	0.197494
548.960013	0.198513
549.174435	0.198045
549.388838	0.198216
549.603222	0.198064
549.817589	0.197909
550.031937	0.197626
550.246267	0.197009
550.460579	0.197308
550.674873	0.197667
550.889148	0.198092
551.103405	0.198673
551.317644	0.199094
551.531865	0.199610
551.746068	0.199974
551.960252	0.200852
552.174418	0.201128
552.388566	0.201181
552.602696	0.201510
552.816807	0.200897
553.030900	0.200933
553.244975	0.200941
553.459032	0.200889
553.673070	0.201338
553.887091	0.201527
554.101093	0.201927
554.315077	0.202685
554.529042	0.203314
554.742990	0.204211
554.956919	0.204346
555.170830	0.205059
555.384722	0.205322
555.598597	0.205461
555.812453	0.205133
556.026291	0.205469
556.240111	0.205110
556.453913	0.205034
556.667696	0.204778
556.881461	0.204954
557.095208	0.204619
557.308937	0.204599
557.522647	0.204456
557.736339	0.205102
557.950013	0.205328
558.163669	0.205567
558.377307	0.205563
558.590926	0.206110
558.804527	0.206592
559.018110	0.206917
559.231675	0.207212
559.445221	0.208236
559.658749	0.208602
559.872259	0.208792
560.085751	0.209024
560.299225	0.208928
560.512680	0.209017
560.726117	0.208791
560.939536	0.208991
561.152937	0.209597
561.366319	0.209014
561.579683	0.209032
561.793029	0.209111
562.006357	0.209542
562.219667	0.209977
562.432958	0.210237
562.646231	0.210656
562.859486	0.210794
563.072723	0.211088
563.285941	0.211588
563.499141	0.211831
563.712323	0.212240
563.925487	0.212352
564.138632	0.212684
564.351760	0.212977
564.564869	0.213106
564.777960	0.213191
564.991032	0.213179
565.204087	0.213426
565.417123	0.213365
565.630141	0.213722
565.843140	0.213944
566.056122	0.214070
566.269085	0.214346
566.482030	0.214668
566.694957	0.215096
566.907866	0.215351
567.120756	0.215303
567.333628	0.215884
567.546482	0.215926
567.759318	0.215608
567.972135	0.216194
568.184935	0.216070
568.397716	0.216641
568.610478	0.216475
568.823223	0.216759
569.035949	0.217111
569.248657	0.217156
569.461347	0.217199
569.674019	0.217561
569.886672	0.217579
570.099308	0.218022
570.311925	0.217916
570.524523	0.218207
570.737104	0.218191
570.949666	0.218589
571.162210	0.218623
571.374736	0.218895
571.587244	0.219501
571.799733	0.219341
572.012205	0.219479
572.224658	0.219329
572.437092	0.219575
572.649509	0.219585
572.861907	0.219668
573.074287	0.219834
573.286649	0.219689
573.498993	0.219450
573.711318	0.219767
573.923625	0.219782
574.135914	0.220088
574.348185	0.220365
574.560438	0.220580
574.772672	0.220578
574.984888	0.220905
575.197086	0.221283
575.409266	0.221877
575.621427	0.222066
575.833570	0.222409
576.045695	0.222632
576.257802	0.222757
576.469890	0.222599
576.681961	0.222995
576.894013	0.223189
577.106046	0.223314
577.318062	0.223383
577.530059	0.223387
577.742039	0.223439
577.954000	0.223548
578.165942	0.223754
578.377867	0.224444
578.589773	0.224574
578.801661	0.224672
579.013531	0.224520
579.225382	0.224524
579.437216	0.224978
579.649031	0.225456
579.860828	0.225790
580.072606	0.226063
580.284367	0.226549
580.496109	0.226651
580.707833	0.226690
580.919539	0.227182
581.131227	0.227420
581.342896	0.227681
581.554547	0.227713
581.766180	0.227450
581.977795	0.227744
582.189391	0.227577
582.400969	0.227793
582.612529	0.228293
582.824071	0.228483
583.035595	0.229061
583.247100	0.229171
583.458587	0.229354
583.670056	0.229968
583.881506	0.229706
584.092939	0.229742
584.304353	0.229820
584.515749	0.229682
584.727127	0.229814
584.938486	0.229413
585.149828	0.229651
585.361151	0.229983
585.572456	0.229812
585.783742	0.230232
585.995011	0.230276
586.206261	0.230586
586.417493	0.230859
586.628706	0.231411
586.839902	0.231817
587.051079	0.232043
587.262238	0.232314
587.473379	0.232891
587.684502	0.232838
587.895606	0.233259
588.106692	0.233565
588.317760	0.233985
588.528810	0.234075
588.739841	0.234278
588.950855	0.234228
589.161850	0.234174
589.372827	0.234474
589.583785	0.235035
589.794726	0.235060
590.005648	0.235095
590.216552	0.235192
590.427437	0.235325
590.638305	0.235040
590.849154	0.235082
591.059985	0.235394
591.270798	0.235442
591.481592	0.235462
591.692369	0.235885
591.903127	0.236181
592.113867	0.236436
592.324588	0.236618
592.535292	0.237052
592.745977	0.237503
592.956644	0.237356
593.167293	0.237414
593.377923	0.237573
593.588536	0.237660
593.799130	0.237364
594.009706	0.237089
594.220263	0.237506
594.430803	0.237714
594.641324	0.237917
594.851827	0.238418
595.062312	0.238807
595.272778	0.239212
595.483227	0.239621
595.693657	0.240216
595.904069	0.240571
596.114462	0.240447
596.324838	0.240544
596.535195	0.240470
596.745534	0.240373
596.955855	0.240561
597.166157	0.240705
597.376441	0.240671
597.586707	0.240797
597.796955	0.240942
598.007185	0.240851
598.217396	0.241048
598.427589	0.241067
598.637764	0.241167
598.847921	0.241138
599.058060	0.240900
599.268180	0.241025
599.478282	0.241354
599.688366	0.241531
599.898431	0.242094
600.108479	0.242176
600.318508	0.242776
600.528519	0.242957
600.738511	0.243528
600.948486	0.243925
601.158442	0.243986
601.368380	0.243909
601.578300	0.244163
601.788202	0.243953
601.998085	0.243911
602.207950	0.244067
602.417797	0.244455
602.627626	0.244469
602.837436	0.244747
603.047228	0.244841
603.257002	0.245261
603.466758	0.245811
603.676496	0.246458
603.886215	0.246961
604.095916	0.246992
604.305599	0.246971
604.515264	0.246986
604.724910	0.246843
604.934538	0.246914
605.144148	0.246581
605.353740	0.246510
605.563314	0.246105
605.772869	0.246375
605.982406	0.246385
606.191925	0.246605
606.401425	0.246609
606.610908	0.247208
606.820372	0.247663
607.029818	0.248050
607.239246	0.247900
607.448655	0.248154
607.658047	0.248138
607.867420	0.248325
608.076775	0.248297
608.286111	0.248570
608.495430	0.248296
608.704730	0.248329
608.914012	0.248336
609.123275	0.248931
609.332521	0.248872
609.541748	0.248898
609.750957	0.249298
609.960148	0.249197
610.169321	0.249319
610.378475	0.249751
610.587611	0.249702
610.796729	0.249481
611.005829	0.249394
611.214910	0.249793
611.423974	0.250025
611.633019	0.250102
611.842045	0.250753
612.051054	0.251104
612.260044	0.251050
612.469017	0.251376
612.677970	0.251787
612.886906	0.251787
613.095824	0.251997
613.304723	0.252250
613.513604	0.252358
613.722467	0.252633
613.931311	0.252759
614.140138	0.253276
614.348946	0.253599
614.557736	0.254065
614.766507	0.254432
614.975261	0.254563
615.183996	0.254675
615.392713	0.254611
615.601412	0.254728
615.810092	0.254470
616.018754	0.254235
616.227399	0.254167
616.436024	0.253992
616.644632	0.253952
616.853222	0.254176
617.061793	0.254618
617.270346	0.254973
617.478880	0.254951
617.687397	0.255152
617.895895	0.255288
618.104375	0.255502
618.312837	0.255964
618.521281	0.256341
618.729706	0.256532
618.938113	0.256282
619.146502	0.256631
619.354873	0.256672
619.563226	0.256887
619.771560	0.257241
619.979876	0.257587
620.188174	0.257962
620.396453	0.258193
620.604715	0.258261
620.812958	0.258934
621.021183	0.258988
621.229390	0.259153
621.437578	0.259440
621.645748	0.259695
621.853900	0.259773
622.062034	0.259564
622.270150	0.259541
622.478247	0.259845
622.686326	0.260045
622.894387	0.260101
623.102430	0.260426
623.310454	0.260517
623.518461	0.260707
623.726449	0.260943
623.934418	0.260992
624.142370	0.261268
624.350303	0.261737
624.558218	0.261404
624.766115	0.261503
624.973994	0.261720
625.181855	0.262067
625.389697	0.262190
625.597521	0.262361
625.805327	0.263016
626.013114	0.263141
626.220883	0.262933
626.428634	0.263337
626.636367	0.263719
626.844082	0.263694
627.051778	0.263661
627.259457	0.263754
627.467117	0.263936
627.674758	0.263913
627.882382	0.263830
628.089987	0.263998
628.297574	0.264060
628.505143	0.264154
628.712694	0.264422
628.920226	0.264630
629.127740	0.264704
629.335236	0.264573
629.542714	0.264501
629.750174	0.264816
629.957615	0.265170
630.165038	0.265265
630.372443	0.265505
630.579829	0.265789
630.787198	0.265759
630.994548	0.265921
631.201880	0.266398
631.409194	0.266603
631.616489	0.266821
631.823766	0.266769
632.031025	0.267254
632.238266	0.267376
632.445489	0.267249
632.652693	0.267515
632.859879	0.267832
633.067047	0.267876
633.274197	0.268256
633.481329	0.268378
633.688442	0.268607
633.895537	0.268567
634.102614	0.268922
634.309672	0.269118
634.516713	0.269361
634.723735	0.269534
634.930739	0.269643
635.137724	0.269811
635.344692	0.269754
635.551641	0.269870
635.758572	0.269841
635.965485	0.269623
636.172379	0.269852
636.379256	0.269948
636.586114	0.269883
636.792954	0.270245
636.999775	0.270219
637.206579	0.270597
637.413364	0.270676
637.620131	0.270913
637.826880	0.271264
638.033610	0.271664
638.240323	0.271936
638.447017	0.272128
638.653692	0.272408
638.860350	0.272548
639.066990	0.272569
639.273611	0.272812
639.480214	0.272927
639.686798	0.273177
639.893365	0.273180
640.099913	0.273356
640.306443	0.273680
640.512955	0.273593
640.719449	0.273984
640.925924	0.274342
641.132381	0.274760
641.338820	0.275040
641.545241	0.275106
641.751644	0.275240
641.958028	0.275621
642.164394	0.275883
642.370742	0.276204
642.577071	0.276374
642.783383	0.276817
642.989676	0.276888
643.195951	0.277179
643.402207	0.277439
643.608446	0.277560
643.814666	0.277600
644.020868	0.277661
644.227052	0.278055
644.433218	0.278290
644.639365	0.278224
644.845494	0.278384
645.051605	0.278662
645.257698	0.278736
645.463772	0.278907
645.669828	0.279081
645.875866	0.279112
646.081886	0.279117
646.287888	0.278994
646.493871	0.279140
646.699836	0.279526
646.905783	0.279553
647.111712	0.279798
647.317622	0.280020
647.523514	0.280275
647.729388	0.280501
647.935244	0.280543
648.141082	0.280868
648.346901	0.281289
648.552702	0.281268
648.758485	0.281329
648.964250	0.281489
649.169996	0.281885
649.375724	0.282219
649.581434	0.282558
649.787126	0.282935
649.992800	0.283398
650.198455	0.283600
650.404092	0.284010
650.609711	0.284432
650.815311	0.284905
651.020894	0.285257
651.226458	0.285351
651.432004	0.285508
651.637532	0.285519
651.843041	0.285539
652.048532	0.285716
652.254006	0.285908
652.459460	0.285981
652.664897	0.285876
652.870315	0.286055
653.075716	0.286203
653.281097	0.286676
653.486461	0.286961
653.691807	0.287162
653.897134	0.287319
654.102443	0.287495
654.307734	0.287755
654.513006	0.288266
654.718261	0.288507
654.923497	0.288730
655.128715	0.288811
655.333915	0.289046
655.539096	0.289136
655.744259	0.289461
655.949404	0.289342
656.154531	0.289426
656.359640	0.289185
656.564730	0.289240
656.769802	0.289500
656.974856	0.289717
657.179892	0.289842
657.384909	0.290069
657.589908	0.290129
657.794889	0.290741
657.999852	0.291280
658.204797	0.291884
658.409723	0.292066
658.614631	0.292405
658.819521	0.292581
659.024393	0.292725
659.229246	0.293063
659.434081	0.293249
659.638898	0.293469
659.843697	0.293508
660.048478	0.293700
660.253240	0.293866
660.457984	0.293854
660.662710	0.294067
660.867417	0.294369
661.072107	0.294658
661.276778	0.294809
661.481431	0.294675
661.686066	0.294906
661.890682	0.295165
662.095281	0.295618
662.299861	0.296026
662.504422	0.296023
662.708966	0.296303
662.913491	0.296473
663.117999	0.296767
663.322488	0.297284
663.526958	0.297512
663.731411	0.297705
663.935845	0.297771
664.140261	0.297942
664.344659	0.298227
664.549038	0.298432
664.753400	0.298665
664.957743	0.298801
665.162068	0.298730
665.366375	0.298930
665.570663	0.299203
665.774933	0.299579
665.979185	0.299640
666.183419	0.299859
666.387635	0.299968
666.591832	0.300196
666.796011	0.300140
667.000172	0.300459
667.204315	0.300650
667.408439	0.300488
667.612545	0.300457
667.816634	0.300639
668.020703	0.300878
668.224755	0.301225
668.428788	0.301359
668.632803	0.301921
668.836800	0.301962
669.040779	0.302203
669.244739	0.302643
669.448681	0.302820
669.652605	0.303126
669.856511	0.303331
670.060399	0.303364
670.264268	0.303543
670.468119	0.303681
670.671952	0.303989
670.875767	0.304020
671.079563	0.304239
671.283341	0.304517
671.487101	0.304573
671.690843	0.304831
671.894567	0.305080
672.098272	0.305257
672.301959	0.305445
672.505628	0.305526
672.709278	0.306234
672.912911	0.306442
673.116525	0.306737
673.320121	0.307194
673.523699	0.307665
673.727258	0.307843
673.930799	0.308454
674.134322	0.308882
674.337827	0.309546
674.541314	0.309671
674.744782	0.310269
674.948232	0.310573
675.151664	0.310901
675.355078	0.310950
675.558474	0.311633
675.761851	0.311605
675.965210	0.311871
676.168551	0.311883
676.371873	0.311922
676.575178	0.311573
676.778464	0.311746
676.981732	0.312112
677.184981	0.312516
677.388213	0.312546
677.591426	0.312813
677.794621	0.313171
677.997798	0.313621
678.200956	0.313795
678.404097	0.314388
678.607219	0.314788
678.810323	0.314959
679.013408	0.315054
679.216476	0.315379
679.419525	0.315643
679.622556	0.315782
679.825569	0.315970
680.028563	0.316300
680.231540	0.316666
680.434498	0.316824
680.637438	0.316699
680.840359	0.316879
681.043263	0.317074
681.246148	0.317152
681.449015	0.317538
681.651864	0.317693
681.854694	0.317979
682.057506	0.317854
682.260301	0.317867
682.463076	0.318120
682.665834	0.318425
682.868573	0.318843
683.071295	0.319245
683.273998	0.319114
683.476682	0.319236
683.679349	0.319485
683.881997	0.319687
684.084627	0.320155
684.287239	0.320513
684.489833	0.320681
684.692408	0.320541
684.894965	0.320718
685.097504	0.321052
685.300025	0.321269
685.502527	0.321241
685.705012	0.321652
685.907478	0.321507
686.109925	0.321717
686.312355	0.321988
686.514766	0.322372
686.717159	0.322689
686.919534	0.322720
687.121891	0.322764
687.324230	0.323035
687.526550	0.323165
687.728852	0.323508
687.931136	0.323526
688.133401	0.323701
688.335649	0.323811
688.537878	0.323803
688.740089	0.324275
688.942281	0.324739
689.144456	0.325119
689.346612	0.325122
689.548750	0.325097
689.750870	0.325486
689.952971	0.325447
690.155055	0.325478
690.357120	0.325714
690.559167	0.325679
690.761195	0.325729
690.963206	0.325756
691.165198	0.326092
691.367172	0.326473
691.569128	0.326358
691.771065	0.326645
691.972984	0.326730
692.174885	0.327000
692.376768	0.326833
692.578633	0.327037
692.780479	0.327232
692.982308	0.327381
693.184118	0.327632
693.385909	0.328082
