sample name	sample
index	836
start time	 04-05-2021  10:50:27 AM


Wavelength (nm)	Absorbance
494.344910	-0.041697
494.563924	-0.041697
494.782919	-0.041697
495.001897	-0.039805
495.220856	-0.005077
495.439797	0.007481
495.658719	0.011579
495.877624	-0.001630
496.096510	0.002936
496.315378	-0.005786
496.534227	0.002313
496.753059	0.001516
496.971872	0.008492
497.190667	0.061939
497.409444	0.080880
497.628203	0.089776
497.846943	0.093785
498.065665	0.095975
498.284369	0.097065
498.503055	0.097299
498.721723	0.098383
498.940372	0.098265
499.159003	0.098922
499.377616	0.099325
499.596210	0.098813
499.814787	0.098922
500.033345	0.099916
500.251885	0.100185
500.470406	0.100847
500.688910	0.100984
500.907395	0.101217
501.125862	0.100629
501.344311	0.100558
501.562742	0.101002
501.781154	0.101652
501.999548	0.100873
502.217924	0.100274
502.436282	0.099734
502.654621	0.099226
502.872942	0.098787
503.091245	0.098905
503.309530	0.099138
503.527797	0.099047
503.746045	0.099812
503.964275	0.099149
504.182487	0.098817
504.400681	0.098971
504.618856	0.098255
504.837013	0.098992
505.055152	0.099394
505.273273	0.099088
505.491376	0.099834
505.709460	0.098416
505.927526	0.099156
506.145574	0.100016
506.363604	0.101579
506.581615	0.102318
506.799608	0.102097
507.017583	0.102195
507.235540	0.102226
507.453478	0.101040
507.671399	0.101930
507.889301	0.102272
508.107185	0.102537
508.325050	0.100896
508.542898	0.100760
508.760727	0.101279
508.978538	0.101277
509.196330	0.102279
509.414105	0.102916
509.631861	0.102960
509.849599	0.102553
510.067319	0.102137
510.285021	0.103456
510.502704	0.104495
510.720369	0.105535
510.938016	0.106071
511.155645	0.105021
511.373255	0.104926
511.590848	0.105246
511.808422	0.105025
512.025977	0.104736
512.243515	0.104194
512.461034	0.104405
512.678536	0.102908
512.896018	0.102946
513.113483	0.103515
513.330930	0.103766
513.548358	0.104241
513.765768	0.104983
513.983160	0.106970
514.200533	0.107295
514.417889	0.107164
514.635226	0.107916
514.852545	0.107987
515.069845	0.108514
515.287128	0.109339
515.504392	0.108816
515.721638	0.109320
515.938866	0.108594
516.156075	0.108458
516.373267	0.107938
516.590440	0.107765
516.807594	0.107665
517.024731	0.107881
517.241850	0.108002
517.458950	0.108639
517.676032	0.108400
517.893095	0.108949
518.110141	0.109225
518.327168	0.110596
518.544177	0.111625
518.761168	0.112335
518.978141	0.111727
519.195095	0.111594
519.412031	0.112157
519.628949	0.111576
519.845849	0.111025
520.062731	0.111078
520.279594	0.110814
520.496439	0.110301
520.713266	0.111143
520.930074	0.111753
521.146865	0.112136
521.363637	0.111645
521.580391	0.112866
521.797127	0.113966
522.013844	0.114306
522.230543	0.114093
522.447224	0.114480
522.663887	0.113422
522.880532	0.113803
523.097158	0.114290
523.313766	0.114509
523.530356	0.114377
523.746928	0.113682
523.963481	0.113676
524.180017	0.114470
524.396534	0.114999
524.613032	0.115674
524.829513	0.116368
525.045975	0.116142
525.262420	0.116421
525.478845	0.116872
525.695253	0.117532
525.911643	0.117601
526.128014	0.117673
526.344367	0.117628
526.560702	0.117722
526.777018	0.117475
526.993316	0.117659
527.209597	0.117828
527.425858	0.118265
527.642102	0.118900
527.858328	0.119388
528.074535	0.119554
528.290724	0.120366
528.506894	0.120846
528.723047	0.121055
528.939181	0.121402
529.155297	0.121807
529.371395	0.121859
529.587475	0.121571
529.803536	0.121652
530.019579	0.122569
530.235604	0.122850
530.451611	0.122697
530.667600	0.123031
530.883570	0.123797
531.099522	0.124391
531.315456	0.124765
531.531372	0.125276
531.747269	0.126408
531.963148	0.126003
532.179009	0.126052
532.394852	0.126381
532.610676	0.126785
532.826482	0.126565
533.042271	0.126083
533.258040	0.126791
533.473792	0.127550
533.689525	0.127226
533.905240	0.127967
534.120937	0.127896
534.336616	0.128405
534.552277	0.129262
534.767919	0.129327
534.983543	0.130291
535.199149	0.129910
535.414736	0.129543
535.630306	0.130687
535.845857	0.130522
536.061390	0.131461
536.276904	0.132171
536.492401	0.131762
536.707879	0.132208
536.923339	0.132378
537.138781	0.133233
537.354204	0.133581
537.569610	0.133227
537.784997	0.133780
538.000366	0.133674
538.215716	0.133618
538.431049	0.133575
538.646363	0.134268
538.861659	0.134253
539.076937	0.134067
539.292196	0.134622
539.507438	0.135211
539.722661	0.135443
539.937866	0.135388
540.153052	0.135255
540.368221	0.136183
540.583371	0.135601
540.798503	0.136232
541.013617	0.136803
541.228712	0.137002
541.443789	0.136911
541.658848	0.137137
541.873889	0.137684
542.088912	0.138068
542.303916	0.138113
542.518902	0.139178
542.733870	0.139342
542.948820	0.139630
543.163752	0.140112
543.378665	0.140310
543.593560	0.140665
543.808437	0.140443
544.023295	0.140620
544.238136	0.140624
544.452958	0.140475
544.667762	0.140856
544.882548	0.140696
545.097315	0.140620
545.312064	0.141007
545.526795	0.141035
545.741508	0.142005
545.956203	0.142329
546.170879	0.142262
546.385537	0.142718
546.600177	0.142908
546.814799	0.143150
547.029402	0.143963
547.243988	0.144158
547.458555	0.144707
547.673103	0.144622
547.887634	0.144809
548.102146	0.145547
548.316640	0.145755
548.531116	0.145770
548.745574	0.145756
548.960013	0.145270
549.174435	0.145627
549.388838	0.145517
549.603222	0.145761
549.817589	0.146343
550.031937	0.146520
550.246267	0.146709
550.460579	0.147224
550.674873	0.148322
550.889148	0.148929
551.103405	0.149340
551.317644	0.149497
551.531865	0.149576
551.746068	0.149625
551.960252	0.149652
552.174418	0.149860
552.388566	0.149932
552.602696	0.149838
552.816807	0.149630
553.030900	0.149540
553.244975	0.149241
553.459032	0.149591
553.673070	0.149740
553.887091	0.150014
554.101093	0.150217
554.315077	0.150640
554.529042	0.150563
554.742990	0.151096
554.956919	0.151379
555.170830	0.151824
555.384722	0.152323
555.598597	0.152476
555.812453	0.152597
556.026291	0.152558
556.240111	0.152478
556.453913	0.152867
556.667696	0.152903
556.881461	0.152571
557.095208	0.152791
557.308937	0.152708
557.522647	0.152877
557.736339	0.153123
557.950013	0.153506
558.163669	0.153319
558.377307	0.152976
558.590926	0.152710
558.804527	0.153358
559.018110	0.154032
559.231675	0.154213
559.445221	0.154447
559.658749	0.154636
559.872259	0.154770
560.085751	0.155363
560.299225	0.155786
560.512680	0.156367
560.726117	0.156420
560.939536	0.156467
561.152937	0.156371
561.366319	0.156682
561.579683	0.156644
561.793029	0.157172
562.006357	0.157486
562.219667	0.157597
562.432958	0.157764
562.646231	0.157969
562.859486	0.158285
563.072723	0.158589
563.285941	0.157979
563.499141	0.158001
563.712323	0.157763
563.925487	0.157144
564.138632	0.157123
564.351760	0.156801
564.564869	0.157311
564.777960	0.157414
564.991032	0.157515
565.204087	0.158183
565.417123	0.159014
565.630141	0.159066
565.843140	0.159986
566.056122	0.160610
566.269085	0.161343
566.482030	0.161552
566.694957	0.161242
566.907866	0.161651
567.120756	0.161976
567.333628	0.161791
567.546482	0.161918
567.759318	0.161977
567.972135	0.161971
568.184935	0.162155
568.397716	0.162011
568.610478	0.162463
568.823223	0.162575
569.035949	0.162561
569.248657	0.162766
569.461347	0.163394
569.674019	0.163067
569.886672	0.163350
570.099308	0.163245
570.311925	0.163217
570.524523	0.163387
570.737104	0.163607
570.949666	0.163930
571.162210	0.164123
571.374736	0.163723
571.587244	0.164132
571.799733	0.163920
572.012205	0.164200
572.224658	0.164425
572.437092	0.164695
572.649509	0.164240
572.861907	0.164339
573.074287	0.164194
573.286649	0.164725
573.498993	0.164925
573.711318	0.165313
573.923625	0.165262
574.135914	0.165406
574.348185	0.165127
574.560438	0.165860
574.772672	0.165884
574.984888	0.165956
575.197086	0.165777
575.409266	0.165612
575.621427	0.165933
575.833570	0.166279
576.045695	0.166215
576.257802	0.166685
576.469890	0.166847
576.681961	0.167161
576.894013	0.167968
577.106046	0.168114
577.318062	0.168621
577.530059	0.168630
577.742039	0.169102
577.954000	0.169500
578.165942	0.169944
578.377867	0.169981
578.589773	0.169955
578.801661	0.169738
579.013531	0.170118
579.225382	0.169940
579.437216	0.170115
579.649031	0.170038
579.860828	0.170024
580.072606	0.169888
580.284367	0.170193
580.496109	0.170179
580.707833	0.170369
580.919539	0.170388
581.131227	0.171139
581.342896	0.171278
581.554547	0.170911
581.766180	0.171009
581.977795	0.171358
582.189391	0.171103
582.400969	0.171543
582.612529	0.171857
582.824071	0.171961
583.035595	0.171752
583.247100	0.171726
583.458587	0.172422
583.670056	0.172387
583.881506	0.171957
584.092939	0.172149
584.304353	0.171810
584.515749	0.171638
584.727127	0.171977
584.938486	0.171857
585.149828	0.172128
585.361151	0.171904
585.572456	0.172301
585.783742	0.172645
585.995011	0.173037
586.206261	0.173198
586.417493	0.173396
586.628706	0.173285
586.839902	0.173755
587.051079	0.173809
587.262238	0.173866
587.473379	0.174013
587.684502	0.174395
587.895606	0.174214
588.106692	0.174692
588.317760	0.174354
588.528810	0.174995
588.739841	0.175035
588.950855	0.175384
589.161850	0.175670
589.372827	0.176140
589.583785	0.176125
589.794726	0.176213
590.005648	0.176359
590.216552	0.176672
590.427437	0.176622
590.638305	0.176747
590.849154	0.176690
591.059985	0.176883
591.270798	0.176834
591.481592	0.176572
591.692369	0.177137
591.903127	0.177397
592.113867	0.177786
592.324588	0.177808
592.535292	0.178306
592.745977	0.178370
592.956644	0.178468
593.167293	0.178481
593.377923	0.178740
593.588536	0.178581
593.799130	0.178485
594.009706	0.178863
594.220263	0.179152
594.430803	0.178801
594.641324	0.178894
594.851827	0.178849
595.062312	0.178569
595.272778	0.179223
595.483227	0.179260
595.693657	0.179505
595.904069	0.179421
596.114462	0.179294
596.324838	0.179746
596.535195	0.180042
596.745534	0.180462
596.955855	0.181068
597.166157	0.180888
597.376441	0.181106
597.586707	0.181168
597.796955	0.181361
598.007185	0.181477
598.217396	0.181436
598.427589	0.181630
598.637764	0.181382
598.847921	0.181657
599.058060	0.181917
599.268180	0.182331
599.478282	0.182552
599.688366	0.182549
599.898431	0.182980
600.108479	0.183421
600.318508	0.183734
600.528519	0.184204
600.738511	0.184310
600.948486	0.184514
601.158442	0.184583
601.368380	0.184967
601.578300	0.185177
601.788202	0.185381
601.998085	0.185090
602.207950	0.184914
602.417797	0.185155
602.627626	0.185217
602.837436	0.185206
603.047228	0.185264
603.257002	0.185215
603.466758	0.185206
603.676496	0.185026
603.886215	0.185126
604.095916	0.185151
604.305599	0.185223
604.515264	0.185228
604.724910	0.185717
604.934538	0.186000
605.144148	0.186291
605.353740	0.186787
605.563314	0.187067
605.772869	0.187527
605.982406	0.187891
606.191925	0.188115
606.401425	0.188459
606.610908	0.188275
606.820372	0.188291
607.029818	0.188143
607.239246	0.188008
607.448655	0.188346
607.658047	0.188365
607.867420	0.188474
608.076775	0.188544
608.286111	0.188501
608.495430	0.188718
608.704730	0.188968
608.914012	0.189073
609.123275	0.189102
609.332521	0.188904
609.541748	0.188801
609.750957	0.188979
609.960148	0.189273
610.169321	0.189287
610.378475	0.189166
610.587611	0.189070
610.796729	0.189431
611.005829	0.189620
611.214910	0.189699
611.423974	0.189920
611.633019	0.190165
611.842045	0.190067
612.051054	0.190425
612.260044	0.190918
612.469017	0.190958
612.677970	0.190997
612.886906	0.191099
613.095824	0.191509
613.304723	0.191680
613.513604	0.191744
613.722467	0.191931
613.931311	0.192104
614.140138	0.192231
614.348946	0.192654
614.557736	0.192684
614.766507	0.193014
614.975261	0.193085
615.183996	0.193367
615.392713	0.193499
615.601412	0.193796
615.810092	0.194045
616.018754	0.193941
616.227399	0.193969
616.436024	0.194108
616.644632	0.194266
616.853222	0.194178
617.061793	0.194223
617.270346	0.194185
617.478880	0.194161
617.687397	0.193878
617.895895	0.194032
618.104375	0.194094
618.312837	0.194222
618.521281	0.194360
618.729706	0.194737
618.938113	0.195164
619.146502	0.195485
619.354873	0.195534
619.563226	0.195834
619.771560	0.196079
619.979876	0.196026
620.188174	0.196068
620.396453	0.196292
620.604715	0.196382
620.812958	0.196277
621.021183	0.196115
621.229390	0.196436
621.437578	0.196376
621.645748	0.196375
621.853900	0.196635
622.062034	0.197143
622.270150	0.197014
622.478247	0.196979
622.686326	0.197064
622.894387	0.197211
623.102430	0.197223
623.310454	0.197407
623.518461	0.197357
623.726449	0.197606
623.934418	0.197304
624.142370	0.197642
624.350303	0.197615
624.558218	0.197721
624.766115	0.198031
624.973994	0.198286
625.181855	0.198678
625.389697	0.199082
625.597521	0.199265
625.805327	0.199772
626.013114	0.200010
626.220883	0.200445
626.428634	0.200622
626.636367	0.200764
626.844082	0.200585
627.051778	0.200518
627.259457	0.200482
627.467117	0.200492
627.674758	0.200465
627.882382	0.200399
628.089987	0.200184
628.297574	0.200183
628.505143	0.200294
628.712694	0.200711
628.920226	0.200922
629.127740	0.201252
629.335236	0.201455
629.542714	0.201645
629.750174	0.201372
629.957615	0.201768
630.165038	0.202090
630.372443	0.202304
630.579829	0.202235
630.787198	0.202469
630.994548	0.202319
631.201880	0.202232
631.409194	0.202425
631.616489	0.202924
631.823766	0.203170
632.031025	0.203268
632.238266	0.203314
632.445489	0.203742
632.652693	0.203637
632.859879	0.204070
633.067047	0.204185
633.274197	0.204437
633.481329	0.204504
633.688442	0.204596
633.895537	0.204960
634.102614	0.205035
634.309672	0.204977
634.516713	0.205168
634.723735	0.205283
634.930739	0.205542
635.137724	0.205440
635.344692	0.205849
635.551641	0.205895
635.758572	0.205625
635.965485	0.205878
636.172379	0.205945
636.379256	0.206291
636.586114	0.206603
636.792954	0.207212
636.999775	0.207535
637.206579	0.207550
637.413364	0.207624
637.620131	0.208014
637.826880	0.208032
638.033610	0.208301
638.240323	0.208279
638.447017	0.208193
638.653692	0.207957
638.860350	0.207959
639.066990	0.208079
639.273611	0.208412
639.480214	0.208562
639.686798	0.208971
639.893365	0.209330
640.099913	0.209621
640.306443	0.209840
640.512955	0.209820
640.719449	0.210022
640.925924	0.209989
641.132381	0.209898
641.338820	0.210088
641.545241	0.209835
641.751644	0.209632
641.958028	0.209576
642.164394	0.209739
642.370742	0.210159
642.577071	0.210416
642.783383	0.210724
642.989676	0.210850
643.195951	0.211068
643.402207	0.211658
643.608446	0.211962
643.814666	0.212413
644.020868	0.212356
644.227052	0.212391
644.433218	0.212457
644.639365	0.212530
644.845494	0.213010
645.051605	0.212977
645.257698	0.212889
645.463772	0.212868
645.669828	0.212911
645.875866	0.213367
646.081886	0.213706
646.287888	0.213863
646.493871	0.214404
646.699836	0.214419
646.905783	0.214653
647.111712	0.215051
647.317622	0.215352
647.523514	0.215628
647.729388	0.215819
647.935244	0.215935
648.141082	0.216421
648.346901	0.216558
648.552702	0.216660
648.758485	0.216700
648.964250	0.216689
649.169996	0.216540
649.375724	0.216655
649.581434	0.216726
649.787126	0.216752
649.992800	0.216702
650.198455	0.216662
650.404092	0.217085
650.609711	0.217414
650.815311	0.217420
651.020894	0.218025
651.226458	0.218005
651.432004	0.218205
651.637532	0.218621
651.843041	0.218603
652.048532	0.218829
652.254006	0.219043
652.459460	0.219192
652.664897	0.219661
652.870315	0.219791
653.075716	0.220096
653.281097	0.220245
653.486461	0.220318
653.691807	0.220570
653.897134	0.220535
654.102443	0.220604
654.307734	0.220663
654.513006	0.220700
654.718261	0.220827
654.923497	0.221006
655.128715	0.220941
655.333915	0.221063
655.539096	0.221178
655.744259	0.221616
655.949404	0.221896
656.154531	0.222046
656.359640	0.222125
656.564730	0.222413
656.769802	0.222501
656.974856	0.222633
657.179892	0.222860
657.384909	0.223043
657.589908	0.223266
657.794889	0.223267
657.999852	0.223692
658.204797	0.224108
658.409723	0.224364
658.614631	0.224688
658.819521	0.225246
659.024393	0.225438
659.229246	0.225667
659.434081	0.225530
659.638898	0.225845
659.843697	0.225879
660.048478	0.226180
660.253240	0.226011
660.457984	0.225888
660.662710	0.225759
660.867417	0.225822
661.072107	0.226042
661.276778	0.226645
661.481431	0.226743
661.686066	0.227013
661.890682	0.227032
662.095281	0.227313
662.299861	0.227713
662.504422	0.228045
662.708966	0.228406
662.913491	0.228495
663.117999	0.228217
663.322488	0.228402
663.526958	0.228702
663.731411	0.228858
663.935845	0.229288
664.140261	0.229681
664.344659	0.229830
664.549038	0.229830
664.753400	0.230367
664.957743	0.230929
665.162068	0.231310
665.366375	0.231514
665.570663	0.231690
665.774933	0.231790
665.979185	0.231967
666.183419	0.232460
666.387635	0.232953
666.591832	0.232807
666.796011	0.233126
667.000172	0.233270
667.204315	0.233357
667.408439	0.233747
667.612545	0.233922
667.816634	0.233978
668.020703	0.234076
668.224755	0.234229
668.428788	0.234256
668.632803	0.234184
668.836800	0.234241
669.040779	0.234407
669.244739	0.234738
669.448681	0.235118
669.652605	0.235217
669.856511	0.235428
670.060399	0.235585
670.264268	0.236167
670.468119	0.236455
670.671952	0.236715
670.875767	0.236718
671.079563	0.236716
671.283341	0.236650
671.487101	0.237050
671.690843	0.237137
671.894567	0.237351
672.098272	0.237449
672.301959	0.237891
672.505628	0.238181
672.709278	0.238596
672.912911	0.238648
673.116525	0.239138
673.320121	0.239411
673.523699	0.239731
673.727258	0.239781
673.930799	0.240094
674.134322	0.239960
674.337827	0.240172
674.541314	0.240519
674.744782	0.240787
674.948232	0.240938
675.151664	0.241191
675.355078	0.241355
675.558474	0.241584
675.761851	0.241469
675.965210	0.241575
676.168551	0.241688
676.371873	0.241800
676.575178	0.241840
676.778464	0.242078
676.981732	0.242238
677.184981	0.242263
677.388213	0.242419
677.591426	0.242829
677.794621	0.243124
677.997798	0.243457
678.200956	0.243760
678.404097	0.244128
678.607219	0.244274
678.810323	0.244312
679.013408	0.244765
679.216476	0.245144
679.419525	0.245559
679.622556	0.245857
679.825569	0.245694
680.028563	0.245709
680.231540	0.245873
680.434498	0.245952
680.637438	0.246163
680.840359	0.246286
681.043263	0.246655
681.246148	0.246705
681.449015	0.246907
681.651864	0.247160
681.854694	0.247092
682.057506	0.247534
682.260301	0.247973
682.463076	0.248131
682.665834	0.248406
682.868573	0.248477
683.071295	0.248647
683.273998	0.248752
683.476682	0.249071
683.679349	0.249554
683.881997	0.249329
684.084627	0.249281
684.287239	0.249611
684.489833	0.249996
684.692408	0.249963
684.894965	0.249983
685.097504	0.250126
685.300025	0.250285
685.502527	0.250442
685.705012	0.250740
685.907478	0.250890
686.109925	0.251161
686.312355	0.251244
686.514766	0.251492
686.717159	0.251876
686.919534	0.252088
687.121891	0.252405
687.324230	0.252448
687.526550	0.252807
687.728852	0.253127
687.931136	0.253348
688.133401	0.253224
688.335649	0.253365
688.537878	0.253261
688.740089	0.253550
688.942281	0.253841
689.144456	0.254165
689.346612	0.254195
689.548750	0.254117
689.750870	0.254448
689.952971	0.254737
690.155055	0.255047
690.357120	0.255226
690.559167	0.255399
690.761195	0.255257
690.963206	0.255488
691.165198	0.255950
691.367172	0.256390
691.569128	0.256221
691.771065	0.256414
691.972984	0.256689
692.174885	0.257016
692.376768	0.257201
692.578633	0.257534
692.780479	0.257714
692.982308	0.257708
693.184118	0.257814
693.385909	0.257883
