sample name	sample
index	500
start time	 03-11-2021  02:42:23 PM
880	0.062926
Peak Time (s)	92.537
Peak Height 	0.06293
calc peak height	90,93
Baseline Time (s)	10.537
Baseline Value 	-0.004347
subtract baseline	10,4
Abs	0.035153
Peak Time (s)	91.037
Peak Height 	0.03515
calc peak height	90,93
Baseline Time (s)	10.537
Baseline Value 	0.002944
subtract baseline	10,3
PK_550	0.023372
Peak Time (s)	92.537
Peak Height 	0.02337
calc peak height	90,93
Baseline Time (s)	11.037
Baseline Value 	5.43E-4
subtract baseline	10,2
PK_880	0.036153
Peak Time (s)	90.035
Peak Height 	0.03615
calc peak height	90,93
Baseline Time (s)	9.539
Baseline Value 	0.001226
subtract baseline	10,1


Time (s)	A880-A510	A880-A775	A880-A975	A880	I510	I775	I975	I880	
0.036000	-0.000608	-0.000535	-0.003042	0.002310	7054.004922	45446.012170	3972.748620	24162.504582
0.539500	-0.002447	-0.000096	-0.001433	0.006871	6993.234057	45044.804203	3965.236118	23940.427791
1.037000	-0.000590	-0.000571	-0.002630	0.004190	7036.224055	45259.022332	3969.005813	24070.670802
1.537500	0.000189	-0.000151	-0.001758	0.001413	7070.236636	45571.532878	3978.333301	24206.470007
2.037500	0.000257	-0.000368	-0.002551	0.001292	7072.057337	45562.129007	3976.608860	24212.420288
2.535500	-0.000669	0.000474	0.005500	0.005103	7026.794304	45271.954962	3987.526211	24026.243911
3.035500	0.001168	-0.000537	-0.002247	-0.000472	7097.827304	45718.737860	3981.918929	24299.121441
3.535500	-0.003810	-0.001765	-0.006291	-0.000083	7046.266076	45559.898547	3970.564520	24279.960593
4.036000	-0.000365	0.000032	0.000432	0.001313	7065.873622	45599.199013	3984.222562	24211.346918
4.536000	-0.003468	-0.000417	-0.003083	0.004512	7005.855101	45242.610690	3967.035164	24054.970611
5.036000	-0.001223	0.000129	-0.004432	0.000898	7061.634871	45649.587821	3972.804961	24231.757558
5.536500	0.000039	-0.000283	0.002734	0.000720	7075.448832	45626.484688	3991.717420	24240.477480
6.037000	-0.000668	-0.000076	-0.001165	0.000546	7070.337034	45664.016763	3982.085197	24249.043604
6.537500	0.000886	-0.000346	-0.003431	-0.000266	7093.121643	45717.283168	3978.346452	24288.989534
7.034500	-0.000245	0.000029	0.002595	0.000238	7077.355653	45704.557045	3992.607664	24264.172714
7.535000	-0.001508	-0.000720	-0.001232	-0.000125	7068.708828	45666.632224	3983.642991	24282.053419
8.035500	0.001577	-0.000532	0.003771	0.000261	7094.695598	45647.132212	3995.609660	24263.025198
8.535500	0.000254	-0.000038	-0.000465	0.000455	7080.067831	45676.628811	3984.121654	24253.491623
9.035500	-0.000072	0.000258	-0.001323	0.000771	7073.903138	45674.763154	3981.099984	24237.993394
9.539000	0.000000	-0.000854	0.000033	-0.000343	7085.311056	45674.865328	3987.471970	24292.769948
10.037000	-0.002038	-0.000336	-0.001753	-0.000195	7064.300161	45711.327015	3982.478893	24285.490406
10.536500	0.001151	0.000442	0.000000	0.000000	7093.102225	45768.676097	3986.499462	24275.890414
11.037000	-0.000167	0.000000	0.000877	-0.000490	7085.121377	45773.471810	3990.041125	24300.038026
11.537500	0.001003	0.000088	0.002729	0.000667	7085.247566	45668.256418	3991.843717	24243.100602
12.035500	-0.000733	-0.000453	0.000612	-0.000541	7080.164869	45733.909923	3989.486206	24302.548737
12.535000	0.000693	-0.000528	0.001092	-0.000557	7094.056945	45728.034539	3990.769544	24303.310109
13.035500	0.000963	-0.000460	0.001154	-0.000421	7095.351150	45721.329700	3990.577352	24296.611632
13.536000	-0.000210	0.000169	0.002488	0.000714	7073.111961	45671.517422	3991.094419	24240.761081
14.039000	-0.001409	-0.000370	-0.000902	0.002591	7043.662745	45434.616153	3977.503993	24148.737972
14.538000	-0.002050	-0.001031	-0.002338	0.001513	7047.830891	45475.402036	3976.587893	24201.553663
15.037000	0.000686	-0.000127	-0.000608	-0.000112	7089.698823	45723.711809	3985.218826	24281.395888
15.584500	0.000791	0.000224	0.001975	0.000093	7088.734271	45738.069505	3991.374435	24271.304590
16.051000	-0.000425	-0.000345	0.001952	-0.000352	7081.302746	45725.844765	3992.472123	24293.232675
16.534500	-0.000553	-0.000188	-0.001408	-0.000190	7078.505190	45725.329850	3983.353439	24285.222051
17.035500	0.002617	0.000249	-0.001387	-0.000184	7109.061501	45767.758640	3983.392651	24284.928979
17.535500	0.000259	-0.000727	0.001457	0.000958	7075.281288	45559.562015	3987.788273	24228.782311
18.036000	0.000291	-0.000063	-0.000299	0.000923	7075.921572	45628.191756	3983.343592	24230.493483
18.539000	0.000743	0.000635	0.007349	0.001337	7076.289072	45656.021350	4002.147398	24210.170074
19.036500	-0.000158	0.000161	0.000854	0.001323	7067.766263	45610.966279	3985.288249	24210.876730
19.536500	-0.001223	-0.000317	0.000387	0.000719	7063.348455	45623.289292	3985.639341	24240.513552
20.036500	0.000171	0.000235	-0.005179	0.001283	7071.310726	45622.132496	3969.916577	24212.828993
20.537000	-0.000034	-0.000367	0.000097	0.000621	7075.702001	45627.935993	3985.145495	24245.335381
21.037500	-0.001264	-0.000364	0.001583	0.000688	7063.253838	45621.688811	3988.815196	24242.062610
21.535000	-0.001906	-0.000226	0.000158	0.000512	7058.796158	45652.614722	3985.585996	24250.728541
22.035500	-0.001037	0.000220	-0.001387	0.001022	7062.226340	45646.369334	3980.289302	24225.671800
22.535500	-0.000178	-0.000402	-0.006619	0.000582	7074.703555	45628.407437	3968.037659	24247.287674
23.038500	-0.001231	-0.000721	0.003316	0.000375	7066.573543	45617.406949	3994.126849	24257.438232
23.536500	0.000084	-0.000119	-0.000536	0.001011	7073.089529	45614.048515	3982.508414	24226.203441
24.036500	-0.000883	-0.000098	0.001830	0.000932	7064.567164	45623.985098	3988.825111	24230.095937
24.536500	0.000621	-0.000505	0.003330	0.000633	7081.893028	45613.328063	3993.492504	24244.764032
25.037000	-0.001100	-0.000520	-0.002109	0.000136	7070.115042	45660.544345	3980.709524	24269.173889
25.534000	-0.000398	-0.000145	-0.000331	0.001015	7068.417664	45611.070246	3983.023674	24225.987914
26.037500	-0.000012	0.000442	0.005888	0.001494	7067.533944	45621.775585	3997.917510	24202.515760
26.535000	0.000014	-0.000392	0.001766	0.001128	7071.294570	45575.853831	3988.149522	24220.461622
27.035500	0.000776	0.000307	0.000633	0.001270	7077.253476	45630.382867	3984.853377	24213.460357
27.538500	0.001409	0.000307	0.003075	-0.001347	7108.627942	45888.271267	3997.988362	24342.281394
28.036000	0.001483	0.000187	0.007098	-0.000261	7098.835681	45769.274801	4005.685620	24288.742632
28.538500	-0.003069	-0.000575	-0.003950	0.005118	7003.911570	45168.459969	3963.301600	24025.515151
29.036500	-0.000683	-0.000497	-0.001390	-0.000642	7081.611153	45739.483584	3984.568851	24307.511800
29.536500	-0.000656	-0.000108	-0.001945	-0.000666	7082.111710	45780.160444	3983.199410	24308.704737
30.037500	-0.000029	-0.000381	0.000991	-0.000468	7086.234895	45733.773985	3990.278934	24298.943088
30.534500	-0.001934	-0.000414	-0.004057	0.005222	7013.665193	45173.947020	3962.766579	24020.445360
31.034500	-0.002180	0.000547	-0.001346	0.002769	7034.622233	45507.044060	3975.913578	24140.069909
31.535000	0.001231	-0.000080	0.001783	0.000012	7093.770079	45716.183904	3991.088859	24275.321977
32.041000	0.001235	-0.000095	0.000271	-0.000226	7096.102800	45738.059214	3987.784900	24287.030023
32.535500	-0.001670	-0.000340	-0.002959	0.004964	7018.603025	45206.185295	3966.202620	24032.963835
33.036000	0.001150	0.000307	0.007855	-0.000221	7095.230445	45777.216069	4007.573092	24286.772803
33.536500	0.001750	0.000014	0.000112	0.000284	7096.146922	45698.546382	3986.053022	24261.904903
34.036500	0.003136	0.000200	0.006800	-0.001035	7122.363837	45846.859471	4006.936579	24326.867118
34.537000	0.000054	0.000654	0.000981	0.003910	7045.046527	45405.897850	3978.954941	24084.347112
35.037000	-0.000060	0.000611	0.003281	0.002478	7057.634121	45541.729648	3988.576423	24154.270459
35.537000	-0.001015	0.000552	0.001133	0.001905	7053.977500	45592.127648	3984.505591	24182.339749
36.035000	-0.001538	-0.000641	-0.002274	0.001334	7054.442878	45531.128461	3977.210068	24210.329264
36.540500	-0.001978	-0.000085	0.002566	0.003739	7027.318972	45350.417520	3983.471921	24092.683504
37.036000	-0.001829	0.000122	0.001587	0.001851	7046.713766	45555.222494	3985.815524	24184.968164
37.536000	-0.000925	0.000101	0.001942	0.002026	7053.688559	45536.132733	3986.283824	24176.424815
38.035500	-0.002325	-0.000558	-0.000625	0.001730	7043.142523	45500.462085	3980.428372	24190.912067
38.536500	-0.002089	-0.000240	-0.001901	0.001475	7047.826938	45556.652998	3977.804821	24203.402298
39.036500	-0.000780	-0.000296	0.001121	0.001699	7058.200638	45529.233288	3985.007475	24192.446689
39.537000	-0.000964	0.000224	-0.001308	0.001735	7056.094702	45576.674388	3978.660569	24190.676835
40.037500	-0.000981	-0.000013	0.003994	0.001829	7055.039386	45544.298161	3992.110359	24186.087283
40.534500	-0.000685	0.000296	-0.000734	0.002550	7050.966450	45503.788366	3978.039823	24150.743148
41.038000	0.000116	0.000237	0.000485	0.001700	7066.785011	45581.443917	3983.363578	24192.405720
41.535000	-0.000896	-0.000843	0.000134	0.000938	7064.378424	45550.111288	3984.421811	24229.757017
42.035500	0.000580	-0.000603	-0.004331	0.001404	7074.079625	45528.053860	3971.769415	24206.891047
42.536000	-0.001314	-0.000653	-0.003208	0.001428	7055.678139	45520.726531	3974.577876	24205.705243
43.036500	-0.001569	-0.000236	0.001318	0.001504	7052.519407	45554.213136	3986.019060	24202.013984
43.536500	0.000103	-0.000001	-0.000221	0.001515	7068.429126	45576.181977	3982.018924	24201.438809
44.037000	0.002017	0.000029	0.004081	-0.001241	7113.500554	45850.340624	4000.341656	24337.043910
44.537000	-0.000504	0.000264	0.001864	0.003352	7045.040845	45422.302460	3982.660033	24111.570680
45.034500	0.002551	0.000436	-0.003027	0.000116	7105.522176	45756.761613	3978.403619	24270.198645
45.537500	-0.000097	-0.000483	-0.002706	0.000035	7080.731139	45674.175290	3979.435188	24274.151479
46.035500	-0.001062	-0.000796	0.002795	-0.001220	7083.531808	45766.972233	3996.927632	24336.017887
46.536000	-0.001564	0.000144	-0.001695	0.002722	7040.938609	45472.189134	3975.138288	24142.357753
47.036000	0.001495	-0.000132	0.002910	-0.000456	7100.846209	45757.133924	3995.234899	24298.364582
47.536000	-0.001771	-0.000470	0.003587	0.001909	7046.712827	45491.541544	3990.844751	24182.128706
48.036500	-0.000482	0.000392	0.001358	0.002165	7056.598174	45550.985605	3984.416027	24169.624909
48.537000	-0.000049	0.000323	0.004199	0.003070	7052.080018	45455.644667	3989.424287	24125.360845
49.037000	0.002211	0.000596	0.002359	0.000104	7102.346448	45773.679856	3992.345000	24270.777127
49.537000	0.001089	0.000179	-0.000620	0.000056	7091.960840	45737.207804	3984.751197	24273.117970
50.040000	0.002613	0.000584	0.006435	-0.002652	7133.018869	46044.920897	4010.237749	24406.813817
50.535000	0.000924	0.000167	0.000271	0.002917	7062.862227	45455.293139	3979.679744	24132.832992
51.035500	0.002586	0.000463	-0.002348	0.000738	7099.845589	45698.154753	3978.552156	24239.624486
51.536000	-0.003075	-0.003274	0.004812	-0.007178	7121.704531	46111.269952	4017.929292	24632.090256
52.036000	-0.034866	-0.009272	-0.014911	0.239318	5124.229712	27091.689517	3489.012636	15221.059110
52.536000	-0.061068	-0.018667	-0.024795	0.046491	6164.517801	39768.743479	3816.543558	22106.119830
53.036000	-0.054179	-0.031212	-0.023620	-0.146426	8071.743537	58714.247625	4353.408190	32845.659919
53.536500	-0.030554	-0.064000	-0.005079	-0.221601	9392.934586	64429.060091	4712.173309	38504.326072
54.037000	-0.032656	-0.031166	0.000638	-0.153518	8423.979603	59637.878564	4464.911399	33338.619115
54.537000	-0.037115	-0.027002	-0.010728	-0.145422	8266.569068	59127.146191	4394.744407	32776.505820
55.035000	-0.020531	-0.021064	-0.004599	-0.140841	8416.968149	59302.930241	4400.211432	32463.024377
55.535000	-0.005135	-0.011744	0.000100	-0.122214	8376.079147	58108.640100	4351.719812	31222.007617
56.035500	0.001946	-0.008496	0.001365	-0.120798	8447.975609	58341.689626	4351.203434	31129.814044
56.536000	0.007565	-0.002015	-0.000809	-0.098079	8233.758051	56309.559641	4268.342113	29691.151162
57.036000	0.011369	0.005088	0.000096	-0.062158	7853.532641	52885.192712	4159.541501	27564.619350
57.536500	0.010578	0.007733	0.004406	-0.025513	7444.411389	49126.579511	4066.570499	25569.068604
58.037000	0.005044	0.006250	0.007439	0.004422	7088.001939	45905.484733	3994.325117	24059.369329
58.537000	0.003639	0.006071	0.002852	-0.014197	7257.340465	47767.740385	4031.451207	24986.121140
59.039500	0.010643	0.004648	0.007897	-0.053781	7750.791421	51882.060176	4157.827130	27093.514123
59.534500	0.005718	0.008629	0.009480	0.017241	6972.498862	44885.675454	3966.613822	23444.021930
60.035000	0.011299	0.011132	0.014552	0.031486	6892.054984	43767.694443	3943.566375	22781.207870
60.535500	0.013648	0.012968	0.014076	0.034737	6883.771015	43634.922926	3934.336937	22632.932181
61.035500	0.013885	0.013628	0.018719	0.030662	6923.525402	44080.724298	3956.043638	22818.930753
61.536000	0.012566	0.013037	0.016232	0.022315	6989.175697	44821.561236	3970.885109	23205.452078
62.036500	0.017537	0.017843	0.016271	0.042896	6844.796344	43328.694133	3919.736871	22265.762538
62.538500	0.029193	0.021483	0.021362	0.051892	6869.033512	42833.973440	3910.283775	21868.782233
63.037000	0.031321	0.021922	0.024054	0.029113	7103.319844	45023.003748	3973.494682	22890.090204
63.539500	0.033155	0.021768	0.023155	0.027563	7136.207839	45158.492660	3975.163833	22961.592791
64.037500	0.032758	0.021945	0.022414	0.030052	7108.149223	44934.466930	3966.925702	22846.932626
64.536000	0.032913	0.022334	0.026719	0.035772	7054.563336	44422.566500	3963.338266	22585.984383
65.035000	0.035346	0.022449	0.028206	0.039272	7044.367013	44100.705954	3958.253438	22427.974156
65.536000	0.034018	0.022924	0.026419	0.044327	6983.906433	43669.279856	3941.146429	22202.064550
66.036000	0.035128	0.022638	0.024083	0.047504	6964.509515	43346.032826	3927.554419	22061.373632
66.536000	0.032376	0.023195	0.023732	0.052938	6888.615465	42895.130795	3913.480062	21823.167752
67.036500	0.034829	0.023683	0.026755	0.053146	6909.281488	42920.822892	3920.304048	21814.083949
67.536500	0.033063	0.023010	0.022635	0.054200	6883.330687	42762.376032	3907.792598	21768.250970
68.040000	0.036198	0.023430	0.022625	0.055878	6896.720526	42647.260442	3903.742285	21695.502235
68.537000	0.036414	0.024793	0.029190	0.058754	6872.320607	42509.281221	3912.615208	21571.481037
69.037500	0.037620	0.026420	0.033819	0.058624	6884.552410	42669.564459	3924.171276	21577.058891
69.535000	0.036403	0.025652	0.027908	0.059788	6862.771139	42493.414250	3907.038342	21527.092892
70.035500	0.037682	0.024958	0.033882	0.059247	6879.413190	42479.386695	3922.804314	21550.291191
70.536000	0.034978	0.026114	0.032738	0.061472	6834.497349	42382.316882	3914.623125	21455.007584
71.036000	0.038077	0.026251	0.029599	0.060958	6867.369484	42441.445413	3908.289233	21476.978715
71.536500	0.037409	0.026472	0.027337	0.061658	6854.891726	42397.953945	3901.190928	21447.067983
72.036500	0.037074	0.025338	0.033171	0.060044	6866.560421	42441.548045	3919.133632	21516.109763
72.539500	0.037782	0.026014	0.030570	0.060476	6869.080450	42463.690653	3911.789653	21497.598839
73.037500	0.036565	0.026051	0.032005	0.060738	6855.585025	42443.269980	3914.623951	21486.393410
73.534000	0.036582	0.025513	0.026668	0.059918	6863.215716	42468.842198	3903.751150	21521.504391
74.035000	0.039007	0.026159	0.034589	0.059448	6889.723993	42570.500778	3924.039419	21541.672880
74.535000	0.035796	0.026464	0.030429	0.059444	6860.364058	42598.652878	3913.939877	21541.814771
75.035000	0.036798	0.025961	0.035061	0.057730	6885.216657	42709.339116	3929.400355	21615.552045
75.536000	0.038382	0.026212	0.029543	0.057457	6902.294788	42757.342720	3916.607752	21627.301992
76.036000	0.038350	0.026645	0.034616	0.056485	6910.970912	42886.295014	3931.366270	21669.279089
76.536500	0.038250	0.026131	0.035408	0.055283	6921.156217	42949.463485	3936.275586	21721.256215
77.039500	0.038142	0.025996	0.030685	0.054225	6929.969845	43034.618815	3927.264935	21767.194357
77.537000	0.035461	0.026728	0.029046	0.054391	6903.634300	43086.852479	3922.855180	21759.981293
78.037500	0.037008	0.026066	0.036584	0.052108	6939.094697	43236.874778	3947.076417	21859.359747
78.534500	0.036211	0.026003	0.035815	0.052888	6924.450180	43158.708891	3943.220085	21825.341566
79.035000	0.036917	0.025918	0.032666	0.050688	6951.480951	43355.005535	3940.865362	21921.456781
79.535000	0.038758	0.026619	0.032852	0.050539	6970.078144	43434.047057	3941.692949	21927.949411
80.035500	0.037402	0.025462	0.036087	0.049283	6969.143880	43443.279630	3952.898441	21983.047616
80.536000	0.034386	0.024049	0.030208	0.047792	6954.874225	43450.490485	3941.949451	22048.663726
81.036000	0.037061	0.025380	0.033054	0.048258	6975.559913	43531.288057	3947.875377	22028.155623
81.539000	0.034822	0.024675	0.031701	0.047782	6959.050178	43509.873316	3945.686991	22049.118784
82.036500	0.035974	0.025129	0.035224	0.047673	6970.855685	43562.475079	3954.775483	22053.945974
82.537000	0.035997	0.024216	0.032855	0.047134	6976.124454	43527.493260	3950.186980	22077.705487
83.034500	0.037004	0.023925	0.036034	0.046861	6988.147457	43525.766087	3958.854199	22089.754072
83.534500	0.037354	0.024862	0.031420	0.047760	6982.983336	43529.370361	3945.042284	22050.073756
84.035000	0.035463	0.023438	0.027325	0.047262	6969.915393	43443.081967	3936.125843	22072.082127
84.535500	0.034845	0.024529	0.031810	0.048656	6951.099814	43414.734748	3943.782907	22010.628396
85.036000	0.036292	0.024946	0.034237	0.048941	6961.958310	43427.068820	3949.123479	21998.101465
85.536000	0.032657	0.023254	0.029131	0.048599	6931.268645	43301.507610	3937.281989	22013.141787
86.039000	0.036646	0.024240	0.036301	0.049510	6959.943235	43308.443988	3952.866131	21973.078505
86.536500	0.035917	0.023350	0.033710	0.050196	6946.734034	43162.346857	3944.678711	21942.983019
87.037000	0.035689	0.023245	0.033736	0.050583	6941.013079	43116.929196	3943.782683	21926.052558
87.537500	0.037267	0.023720	0.036461	0.051874	6943.683902	43041.478398	3947.353060	21869.572720
88.034500	0.034682	0.022572	0.035071	0.051854	6919.861469	42937.473836	3943.940620	21870.429150
88.535000	0.036022	0.023774	0.037607	0.054308	6909.572554	42822.531408	3944.144740	21763.577159
89.035000	0.038110	0.023102	0.036407	0.054515	6926.977471	42741.899128	3940.650930	21754.581969
89.535500	0.035224	0.023308	0.032588	0.056206	6884.754787	42606.150441	3927.072898	21681.329234
90.035500	0.036153	0.023003	0.035025	0.056222	6893.140982	42576.828124	3933.017536	21680.612022
90.539000	0.034410	0.022665	0.032280	0.057689	6863.731688	42412.594138	3922.697020	21617.301536
91.036500	0.033812	0.023020	0.035153	0.058896	6847.290235	42335.270468	3926.766424	21565.357314
91.536500	0.034501	0.022758	0.030857	0.059800	6845.335588	42229.775692	3914.113804	21526.543891
92.037000	0.035452	0.022730	0.032103	0.060874	6844.217721	42130.233845	3914.530791	21480.541647
92.537000	0.034988	0.023372	0.031812	0.062926	6821.440277	42003.361113	3908.877668	21392.990563
93.037500	0.033992	0.022133	0.030623	0.063097	6810.911138	41876.808581	3905.610977	21385.703925
93.535000	0.033196	0.023632	0.035754	0.065226	6784.652572	41820.361136	3912.836474	21295.307937
94.035000	0.036032	0.022694	0.040866	0.065243	6809.956171	41735.080451	3925.217271	21294.596110
94.536000	0.033753	0.022682	0.039146	0.066058	6782.199689	41661.323701	3919.037992	21260.104701
95.039000	0.033116	0.022183	0.037609	0.067258	6765.810658	41510.264651	3912.409641	21209.454546
95.536500	0.034658	0.022303	0.033995	0.068266	6770.574621	41431.609722	3901.308808	21167.032471
96.036000	0.034293	0.022046	0.032508	0.069508	6756.269442	41299.033818	3894.810593	21114.873082
96.536500	0.034265	0.022080	0.030229	0.069759	6753.796203	41279.924446	3888.819065	21104.340260
