sample name	sample
index	545
start time	 03-15-2021  11:03:11 AM
880	0.200683
Peak Time (s)	92.535
Peak Height 	0.2007
calc peak height	90,93
Baseline Time (s)	10.037
Baseline Value 	-0.004974
subtract baseline	10,4
Abs	0.151598
Peak Time (s)	92.035
Peak Height 	0.1516
calc peak height	90,93
Baseline Time (s)	8.536
Baseline Value 	0.003262
subtract baseline	10,3
PK_550	0.076015
Peak Time (s)	92.535
Peak Height 	0.07602
calc peak height	90,93
Baseline Time (s)	11.035
Baseline Value 	8.2189E-4
subtract baseline	10,2
PK_880	0.142997
Peak Time (s)	92.535
Peak Height 	0.143
calc peak height	90,93
Baseline Time (s)	10.534
Baseline Value 	0.00227
subtract baseline	10,1


Time (s)	A880-A510	A880-A775	A880-A975	A880	I510	I775	I975	I880	
0.037000	0.000737	0.000204	-0.001245	0.002325	6113.287116	40596.337053	3715.775373	21361.536877
0.537000	-0.002659	-0.001053	-0.005119	0.004571	6069.995924	40292.585036	3701.957587	21265.527817
1.037500	-0.003557	-0.001358	-0.005133	0.005157	6058.704908	40215.636735	3700.612262	21240.559481
1.535000	-0.004394	-0.000832	-0.000437	0.006521	6042.027924	40143.572240	3708.101250	21182.586800
2.035000	0.000159	-0.000748	0.001527	0.000057	6126.367263	40711.165752	3727.304312	21459.026293
2.536000	-0.000348	-0.000857	-0.002480	-0.000131	6123.901583	40718.028284	3718.556258	21467.127338
3.036000	-0.004986	-0.000365	-0.003295	0.004375	6053.797215	40369.061488	3706.497100	21273.902564
3.536000	-0.001039	-0.000346	-0.003090	0.001163	6108.555812	40649.775010	3714.224412	21411.437720
4.036500	-0.000495	-0.000497	-0.001474	0.000409	6118.578416	40702.357456	3719.620585	21443.868518
4.536500	0.000510	-0.000161	0.001990	0.000872	6122.767561	40691.238259	3726.493561	21423.918863
5.037500	-0.004155	-0.000275	-0.001879	0.004483	6059.287236	40367.471828	3709.448228	21269.289878
5.537500	-0.002001	0.000359	0.002505	0.000244	6108.218995	40791.609159	3729.123206	21450.953858
6.034500	0.000434	0.000089	-0.002386	-0.000064	6129.437208	40794.867764	3718.617108	21464.225251
6.538000	-0.001161	-0.000447	0.002331	-0.000423	6119.861504	40779.382221	3730.260106	21479.690547
7.035000	-0.003508	-0.000622	-0.000103	-0.000345	6101.149337	40757.305897	3724.482029	21476.331319
7.535500	-0.000132	-0.000048	-0.000896	0.000357	6121.792188	40746.146601	3721.059897	21446.105733
8.036000	0.000697	-0.000262	0.001831	-0.000298	6133.295514	40784.688583	3728.818608	21474.304940
8.536000	0.000443	0.000905	0.000000	0.000587	6124.462270	40809.341293	3722.581405	21436.177896
9.036500	0.002177	0.000458	0.001557	0.000136	6141.434271	40809.676744	3727.190564	21455.596384
9.537000	-0.002776	-0.000329	-0.002253	-0.000575	6108.559024	40803.070178	3720.087904	21486.255100
10.037000	0.002240	0.000459	0.006496	0.000000	6142.987031	40821.681134	3738.932128	21461.472932
10.534500	0.000000	-0.000732	-0.001345	-0.000656	6130.670393	40774.899127	3722.349621	21489.778294
11.035000	-0.000659	0.000000	0.001824	0.000170	6119.158965	40766.643776	3727.725206	21454.146014
11.535000	-0.000441	-0.000315	-0.000677	-0.000561	6126.508423	40803.063422	3723.662791	21485.677313
12.035000	-0.001902	-0.000896	0.000194	-0.000769	6116.808852	40770.427641	3726.136307	21494.626479
12.535500	-0.001021	0.000010	0.001348	0.000015	6117.558378	40781.086927	3726.989507	21460.840337
13.036500	0.000837	-0.000239	0.006229	-0.002610	6152.401465	40989.526737	3744.399152	21574.268941
13.536500	-0.000647	-0.000185	0.000551	-0.001475	6132.002890	40894.491331	3728.581798	21525.119450
14.036500	-0.000172	0.000536	0.000802	0.000337	6121.635415	40798.976900	3724.994741	21446.974912
14.540500	-0.000419	0.000220	0.001350	0.002226	6105.139514	40606.398606	3721.919862	21365.800294
15.037000	-0.000462	-0.000075	0.004743	-0.001087	6130.425278	40870.211225	3737.383267	21508.374560
15.549000	0.001395	0.000093	0.001769	-0.000621	6141.243752	40844.059749	3729.421555	21488.253387
16.040500	0.001065	0.000533	0.000735	-0.001164	6142.898886	40930.292662	3728.292159	21511.708303
16.538500	0.001390	0.000219	0.002872	-0.000849	6142.974629	40875.090764	3732.494023	21498.088969
17.035500	0.000868	-0.000084	0.002774	-0.001326	6142.627535	40890.307121	3733.371942	21518.689358
17.536000	0.003011	0.000114	0.002408	-0.002416	6167.906085	41003.590033	3735.049355	21565.869677
18.036500	-0.000894	-0.000812	0.001724	-0.001894	6133.341463	40876.300185	3732.257661	21543.273322
18.536500	0.001612	-0.000094	-0.000277	0.000750	6132.267324	40707.780456	3721.577033	21429.194947
19.037000	-0.002623	-0.000094	0.005107	0.000817	6099.014645	40701.893024	3733.810721	21426.284406
19.537500	-0.001579	-0.000326	0.002373	0.000864	6106.693410	40677.567360	3727.392516	21424.281788
20.037500	-0.001335	-0.000531	0.000907	0.000588	6110.706117	40683.761881	3724.658143	21436.151814
20.535500	0.000415	0.000354	0.002632	0.001180	6119.653395	40709.300132	3727.262845	21410.706669
21.035500	-0.000042	-0.000257	-0.002168	0.000592	6120.670172	40707.344552	3717.619880	21436.001498
21.535500	-0.002451	-0.000596	-0.001090	0.001040	6098.629407	40638.621921	3719.055508	21416.719218
22.036000	-0.001922	0.000774	0.000759	0.001421	6099.772175	40725.016462	3722.410782	21400.363237
22.536000	-0.002073	-0.000041	-0.000602	0.000773	6103.584778	40710.301525	3720.779726	21428.177920
23.036500	-0.000230	0.000905	0.002956	0.001488	6112.288473	40730.524351	3727.298081	21397.453957
23.536500	-0.001077	-0.000096	0.003011	0.001220	6107.820318	40666.544058	3728.040459	21408.960790
24.037000	-0.000799	0.000555	-0.001043	0.001121	6110.736158	40732.039267	3718.979028	21413.251069
24.537000	-0.002648	0.000057	0.001279	0.001269	6095.360840	40675.664478	3723.952275	21406.893650
25.035000	-0.001493	-0.000283	0.003035	0.000764	6108.129368	40690.092927	3729.149422	21428.597485
25.537500	-0.001450	-0.000475	-0.000646	0.000990	6106.719251	40653.600807	3720.183183	21418.873412
26.035000	0.000551	0.001356	0.004408	0.002118	6113.447990	40714.876869	3729.190442	21370.412195
26.536000	-0.000194	0.000160	-0.002264	0.001010	6116.264420	40707.242672	3716.449309	21418.019060
27.039000	-0.001706	0.000368	-0.001190	0.001760	6098.822199	40659.945273	3717.188090	21385.790016
27.536000	-0.000439	0.000970	0.000553	0.001450	6110.967834	40739.519655	3721.873661	21399.104059
28.036500	0.000502	-0.000241	0.008500	-0.002260	6147.058930	40958.660206	3748.905751	21559.122623
28.536500	-0.001888	0.000269	0.005183	-0.000916	6118.055229	40885.378784	3738.009952	21500.998487
29.045000	-0.003542	-0.000946	-0.000336	0.003484	6071.560987	40395.901244	3715.207749	21311.952995
29.534500	-0.000357	0.000669	-0.000176	-0.000113	6123.687101	40849.969667	3723.781876	21466.327196
30.034500	-0.000182	0.000189	0.005534	-0.000811	6130.457591	40869.133989	3738.579159	21496.439141
30.535500	0.002233	0.000691	0.004504	-0.000350	6145.659188	40872.708417	3735.117505	21476.565588
31.035500	-0.001298	0.000300	-0.006983	0.003726	6086.858140	40482.896138	3699.676264	21301.604684
31.535500	-0.000456	0.000280	0.000696	0.002959	6099.210154	40547.763492	3718.750549	21334.388868
32.036000	-0.000644	0.000569	0.003453	0.002163	6103.890666	40642.266002	3726.888531	21368.504665
32.544000	0.001163	0.001177	0.003189	-0.000529	6138.717449	40931.071928	3732.489289	21484.289181
33.037000	-0.002902	0.000242	0.002295	0.005175	6063.554100	40352.316428	3717.346853	21239.812697
33.537000	0.000232	-0.000135	0.003236	-0.001219	6136.849068	40876.493545	3734.195397	21514.089877
34.037000	0.000819	0.000474	0.004627	-0.000503	6135.842223	40867.094473	3735.759286	21483.160827
34.535000	0.000174	0.000975	0.004901	0.000105	6126.116663	40857.752474	3734.984287	21456.946221
35.037500	-0.003920	0.000091	0.002589	0.003189	6070.925545	40511.432781	3722.552555	21324.567843
35.535500	-0.003440	-0.000424	-0.001936	0.001419	6088.120971	40620.582881	3716.263659	21400.412477
36.035500	-0.002261	0.001008	0.004026	0.002547	6088.514311	40647.141257	3727.324900	21352.047700
36.536000	0.000409	0.000729	0.003374	0.002211	6111.637467	40652.027205	3726.597395	21366.428016
37.036000	-0.003368	-0.000351	0.001897	0.001045	6091.543939	40659.571260	3725.881525	21416.499598
37.536500	-0.002236	0.000632	0.003516	0.002090	6092.212485	40654.159777	3727.201460	21371.616474
38.036500	-0.002310	0.000353	0.003389	0.002006	6092.288919	40637.173290	3727.102808	21375.227714
38.537000	0.000214	0.000762	0.000427	0.002171	6110.441585	40658.396282	3719.936577	21368.151967
39.037500	-0.002873	0.000515	0.005164	0.001836	6089.272731	40666.091601	3731.585377	21382.528580
39.537500	-0.000098	0.000815	-0.004045	0.002303	6107.020494	40651.602910	3709.479265	21362.511637
40.035500	-0.000514	-0.000097	0.003179	0.002250	6104.220171	40576.681052	3726.058242	21364.763776
40.535500	0.000825	-0.000131	0.000047	0.001932	6117.012019	40601.431230	3719.615851	21378.422306
41.036000	-0.001425	-0.000071	0.000365	0.001276	6104.714503	40663.877711	3721.841127	21406.587250
41.536000	-0.001652	0.001097	-0.000610	0.002199	6095.863226	40685.199892	3717.508300	21366.954035
42.036500	-0.003406	-0.000160	0.001348	0.001785	6085.576633	40611.699895	3722.925663	21384.698148
42.536500	-0.001287	-0.000095	0.001605	0.001857	6101.294993	40611.148780	3723.349415	21381.632419
43.037000	0.000272	0.000416	0.001130	0.002331	6109.660338	40614.367871	3721.177329	21361.309077
43.537000	-0.003540	0.000214	0.003202	0.002121	6081.984490	40615.052800	3726.410160	21370.315999
44.037000	0.000084	0.000879	0.006871	0.002777	6104.769494	40615.789274	3733.356846	21342.197140
44.538000	0.000474	0.001326	0.004029	-0.001345	6139.707397	41015.921012	3736.323828	21519.510587
45.035500	0.003513	0.001113	0.006398	-0.000180	6154.329680	40894.838868	3739.122598	21469.236264
45.535000	-0.002092	-0.000192	0.002012	0.000165	6108.125860	40750.278918	3728.170974	21454.352611
46.036000	-0.000330	0.000561	0.007523	-0.000485	6126.776958	40873.146939	3742.456440	21482.378459
46.536500	0.000284	0.000139	0.001799	-0.000455	6131.312110	40833.534808	3729.109297	21481.095581
47.036500	0.000649	-0.000040	-0.000408	0.001720	6117.283618	40627.792985	3719.060466	21387.499105
47.536500	-0.000148	0.000439	0.003671	0.002254	6107.015553	40623.054750	3727.183128	21364.616019
48.044000	0.000285	-0.000150	-0.000438	-0.000701	6133.227034	40829.771579	3724.529590	21491.697226
48.537000	-0.001252	0.000219	0.001045	0.002962	6093.078120	40542.262946	3719.541918	21334.287105
49.040500	-0.001394	-0.000012	0.000218	0.002176	6098.020102	40590.510924	3719.446950	21367.927657
49.547500	-0.001011	0.000271	0.003176	0.000492	6113.952105	40762.246136	3730.100069	21440.303844
50.035500	0.001379	0.000432	-0.001824	-0.000633	6141.205856	40874.793179	3721.200017	21488.762832
50.536000	0.000051	0.000077	-0.000622	-0.000481	6129.709201	40830.409798	3723.604936	21482.216954
51.036000	-0.002171	0.000202	0.000860	0.002259	6091.416366	40601.999301	3720.724349	21364.387798
51.536500	0.000881	0.001243	0.000093	0.002328	6114.374596	40686.691645	3718.816065	21361.411559
52.036500	0.022900	0.005998	0.007776	0.005822	6260.588188	40796.911217	3728.416873	21212.284051
52.537000	0.000967	-0.013055	0.000809	0.120286	5316.892684	30735.029161	3484.457941	16934.274226
53.037000	-0.015808	-0.023195	0.003371	-0.041972	6334.616477	42460.638868	3833.504441	23360.309222
53.537500	-0.014593	-0.101842	-0.008499	-0.319689	9555.179739	65535.000000	4766.744436	41818.033393
54.035000	0.004232	-0.085859	0.015160	-0.302005	9573.057298	65289.674428	4794.985037	40259.120769
54.535500	-0.018094	-0.038859	0.003913	-0.198182	7855.389608	57623.303612	4313.922351	32282.955845
55.035500	-0.019161	-0.026643	-0.009505	-0.170135	7524.967126	55660.165681	4169.531581	30435.878139
55.535500	-0.012852	-0.024966	-0.007752	-0.203500	7980.831887	60103.886246	4290.919384	32646.884421
56.036000	-0.002286	-0.030240	-0.006436	-0.227046	8407.500155	62567.024900	4382.986766	34312.636397
56.536000	0.002807	-0.022327	-0.000992	-0.211474	8272.850513	61521.947947	4344.844891	33200.904851
57.036000	0.005268	-0.015839	-0.002858	-0.193925	8084.589142	60044.748211	4274.164895	31994.885492
57.537000	0.010945	-0.012501	-0.001023	-0.181585	8003.497866	58869.948267	4237.220323	31175.536056
58.037500	0.011777	-0.009002	0.008277	-0.160503	7764.600144	56644.466765	4196.834306	29828.578244
58.540000	0.015895	-0.005610	0.010786	-0.129862	7468.060497	53368.618573	4104.720189	27983.764560
59.035000	0.021980	-0.001999	0.014738	-0.099793	7215.067532	50378.610178	4024.382510	26295.625318
59.535500	0.022413	-0.000741	0.017983	-0.070848	6931.936598	47438.869303	3949.905914	24777.363867
60.035500	0.023654	0.002767	0.021148	-0.051492	6761.476005	45838.603644	3905.203011	23817.135208
60.536000	0.031980	0.005199	0.026191	-0.026324	6609.237794	43642.390076	3851.906580	22630.843143
61.036500	0.035223	0.007539	0.034988	0.001121	6400.557392	41347.293864	3804.677797	21413.218196
61.536500	0.041084	0.012169	0.040807	0.021783	6278.552854	39949.465554	3768.511151	20545.992188
62.037000	0.048941	0.015081	0.048474	0.034162	6242.105277	39148.042572	3757.286791	20045.853771
62.537500	0.052785	0.019021	0.052466	0.048286	6160.637212	38305.143798	3733.557300	19492.360384
63.037500	0.057160	0.022068	0.057381	0.048740	6191.478116	38517.895754	3743.935654	19474.851654
63.537000	0.056739	0.023631	0.060944	0.053346	6151.985743	38268.358323	3741.499493	19298.401818
64.035000	0.059894	0.024065	0.057942	0.059331	6129.949919	37817.695869	3720.749223	19071.882659
64.535000	0.060233	0.026352	0.066847	0.062708	6106.450518	37729.897411	3733.463606	18945.452728
65.047500	0.064145	0.028274	0.067766	0.064613	6121.951877	37731.185110	3731.180853	18874.534519
65.539000	0.065041	0.029969	0.065135	0.064754	6127.805098	37856.542468	3724.801120	18869.322989
66.039500	0.067634	0.030317	0.074944	0.065025	6145.862652	37862.706080	3746.930747	18859.266886
66.537000	0.072728	0.032897	0.074960	0.067525	6166.147885	37869.155138	3741.120359	18766.771542
67.037000	0.075316	0.034439	0.073114	0.069987	6167.144453	37794.952487	3731.122103	18676.236342
67.537000	0.078151	0.034668	0.079680	0.070013	6189.259380	37811.356895	3746.340504	18675.286847
68.037500	0.080536	0.037680	0.086267	0.072419	6189.090008	37860.247084	3756.188656	18587.284616
68.535000	0.081295	0.037147	0.080564	0.073109	6189.630339	37761.491059	3741.165752	18562.113119
69.035500	0.081575	0.038878	0.088916	0.076674	6163.786951	37614.137010	3752.393485	18432.865925
69.535500	0.083095	0.039324	0.088823	0.076501	6177.083408	37663.860517	3752.582217	18439.111690
70.035500	0.085609	0.040238	0.091704	0.078360	6182.241750	37588.028362	3754.996087	18372.079806
70.536000	0.088717	0.041399	0.089457	0.080338	6191.155084	37522.572356	3745.055221	18301.079715
71.037000	0.085580	0.042816	0.091201	0.083312	6143.200673	37398.213846	3742.178163	18194.931738
71.537000	0.087829	0.043471	0.096621	0.084117	6154.474496	37386.281399	3753.009721	18166.323680
72.037000	0.094330	0.045097	0.096452	0.086274	6188.607090	37344.040166	3747.539323	18089.958168
72.540000	0.093215	0.044747	0.095431	0.087740	6168.289247	37199.791552	3741.718125	18038.254775
73.035000	0.092479	0.044574	0.095932	0.090511	6140.865876	36967.232167	3736.434203	17940.985124
73.535500	0.095770	0.046971	0.104692	0.092979	6147.278007	36961.645213	3751.146657	17854.891537
74.035500	0.096293	0.046737	0.097119	0.094604	6138.693239	36815.606346	3729.709231	17798.465696
74.538500	0.097760	0.048659	0.100216	0.097899	6124.500760	36708.193416	3729.253703	17684.717275
75.036000	0.101599	0.050490	0.104504	0.102966	6115.000107	36456.337853	3727.459081	17511.454813
75.536000	0.101000	0.051439	0.101960	0.104640	6097.478240	36400.155144	3717.801623	17454.654797
76.037000	0.101703	0.052183	0.105783	0.107042	6084.449330	36272.086944	3721.046746	17373.566960
76.537000	0.102917	0.051636	0.105483	0.109253	6076.825803	36060.050314	3715.321566	17299.288116
77.040500	0.106546	0.052412	0.108526	0.114100	6067.532221	35749.526990	3711.229853	17137.787058
77.537500	0.105667	0.052601	0.111484	0.114889	6054.850900	35704.086258	3716.153060	17111.678698
78.035500	0.107748	0.053459	0.116417	0.117823	6048.389856	35547.033316	3720.710079	17014.962501
78.536000	0.109155	0.054522	0.112946	0.120756	6036.853427	35406.228759	3706.182965	16918.934577
79.038500	0.109986	0.055241	0.117182	0.125574	6006.895205	35099.782179	3704.871982	16762.581251
79.536000	0.110844	0.055882	0.116164	0.127340	6000.113648	35016.188658	3698.631474	16705.721044
80.039000	0.110607	0.055714	0.115430	0.129435	5982.753741	34848.554654	3692.329427	16638.535690
80.535500	0.114503	0.057528	0.124622	0.133032	5984.974849	34717.207946	3704.831117	16523.961197
81.037000	0.112575	0.058339	0.124357	0.137480	5937.972736	34450.917764	3694.291590	16383.614279
81.537000	0.114760	0.058869	0.123791	0.139063	5942.376956	34374.189411	3689.522618	16334.001641
82.042500	0.120077	0.060172	0.125437	0.142289	5957.737402	34234.590905	3686.030685	16233.430280
82.534500	0.116981	0.059636	0.127276	0.144133	5921.558063	34062.678922	3686.020236	16176.292728
83.035000	0.120823	0.061288	0.126968	0.148094	5920.696478	33896.850789	3676.652709	16054.391676
83.535000	0.121332	0.062896	0.131643	0.151057	5902.886856	33799.883332	3680.399648	15963.920336
84.035500	0.122646	0.062553	0.127359	0.153314	5896.068588	33614.757393	3666.166907	15895.425364
84.536000	0.124411	0.063535	0.133414	0.157058	5881.800613	33419.220093	3671.169091	15782.540437
85.036000	0.127259	0.064022	0.133255	0.159420	5885.300411	33287.229839	3665.711447	15711.855176
85.536500	0.124705	0.064796	0.132144	0.161904	5849.249584	33167.372331	3657.983395	15637.926076
86.037000	0.127843	0.065868	0.130807	0.164368	5854.046947	33070.119648	3649.882371	15564.992105
86.537500	0.128072	0.065997	0.131473	0.168776	5824.408546	32773.104002	3641.974141	15435.548426
87.035000	0.130056	0.066695	0.135601	0.170162	5828.637316	32725.696959	3647.761600	15395.139884
87.535000	0.134547	0.067927	0.133931	0.173466	5837.036259	32583.127252	3637.290309	15299.278009
88.035500	0.131179	0.068774	0.143947	0.175559	5798.572175	32497.733884	3654.026311	15238.932957
88.535500	0.131523	0.068914	0.137072	0.179181	5775.727040	32260.466566	3631.919906	15135.214441
89.035000	0.134438	0.070713	0.151452	0.181173	5782.138874	32247.344695	3658.066038	15078.505359
89.536000	0.136494	0.071327	0.143724	0.183919	5777.341758	32103.054333	3635.909524	15000.786672
90.036500	0.138606	0.069816	0.143939	0.184350	5789.041778	31972.216278	3635.459625	14988.634191
90.536500	0.141018	0.072832	0.149844	0.190676	5761.864610	31750.574561	3634.579743	14811.636858
91.037000	0.139615	0.073541	0.149789	0.192540	5739.363210	31673.608975	3630.585098	14759.968988
91.540000	0.142851	0.075028	0.151011	0.194075	5751.057845	31670.414677	3629.934900	14717.582826
92.035000	0.142209	0.075018	0.151598	0.195620	5736.021815	31567.143641	3627.946520	14675.068551
92.535000	0.142997	0.076015	0.148035	0.200683	5706.870335	31298.947775	3610.253622	14536.842321
93.035500	0.145567	0.077107	0.153350	0.202492	5712.038360	31251.882465	3617.403086	14487.835081
93.535500	0.149348	0.076733	0.154584	0.203276	5732.484121	31176.071954	3618.324436	14466.664427
94.036000	0.148680	0.077599	0.157443	0.204747	5717.878488	31136.524001	3621.172936	14427.028990
94.536000	0.148682	0.079090	0.160167	0.210102	5681.634177	30885.383287	3615.781497	14283.918356
95.064500	0.146660	0.079251	0.158346	0.211331	5659.840010	30816.337930	3609.569237	14251.314236
95.536500	0.150643	0.079760	0.151764	0.211824	5683.242027	30817.367393	3595.327339	14238.259423
96.037000	0.150861	0.080708	0.157539	0.213762	5671.685884	30753.500662	3603.024063	14187.109239
96.534500	0.151122	0.080546	0.159202	0.218973	5638.681236	30409.575621	3595.906978	14050.682343
97.034500	0.154528	0.081826	0.159538	0.219650	5656.831727	30447.989410	3595.225450	14033.071369
97.535000	0.156878	0.083820	0.160462	0.221466	5660.396250	30459.353694	3593.446235	13985.984657
