sample name	sample
index	760
start time	 03-31-2021  12:20:40 PM


Wavelength (nm)	Absorbance
494.344910	-0.164462
494.563924	-0.164462
494.782919	-0.164462
495.001897	-0.315306
495.220856	-0.087481
495.439797	-0.075504
495.658719	-0.068543
495.877624	-0.045715
496.096510	-0.001449
496.315378	0.028191
496.534227	0.001131
496.753059	-0.041642
496.971872	-0.005668
497.190667	0.033231
497.409444	0.046675
497.628203	0.048667
497.846943	0.050156
498.065665	0.049618
498.284369	0.049292
498.503055	0.050641
498.721723	0.050714
498.940372	0.050847
499.159003	0.051538
499.377616	0.050566
499.596210	0.051507
499.814787	0.051958
500.033345	0.053218
500.251885	0.053063
500.470406	0.052760
500.688910	0.054339
500.907395	0.054891
501.125862	0.054225
501.344311	0.054393
501.562742	0.053523
501.781154	0.053148
501.999548	0.053229
502.217924	0.053428
502.436282	0.053540
502.654621	0.053382
502.872942	0.052118
503.091245	0.053129
503.309530	0.053430
503.527797	0.053592
503.746045	0.053394
503.964275	0.053353
504.182487	0.053379
504.400681	0.053037
504.618856	0.052279
504.837013	0.053123
505.055152	0.052591
505.273273	0.053731
505.491376	0.055071
505.709460	0.054669
505.927526	0.054362
506.145574	0.054746
506.363604	0.055170
506.581615	0.055362
506.799608	0.055648
507.017583	0.055662
507.235540	0.054856
507.453478	0.053962
507.671399	0.054159
507.889301	0.054161
508.107185	0.054248
508.325050	0.053503
508.542898	0.053793
508.760727	0.052751
508.978538	0.052981
509.196330	0.053461
509.414105	0.053105
509.631861	0.053490
509.849599	0.053662
510.067319	0.053951
510.285021	0.054382
510.502704	0.054687
510.720369	0.055896
510.938016	0.055754
511.155645	0.054827
511.373255	0.055303
511.590848	0.055817
511.808422	0.055944
512.025977	0.055982
512.243515	0.056702
512.461034	0.056815
512.678536	0.056436
512.896018	0.056664
513.113483	0.057752
513.330930	0.057196
513.548358	0.056144
513.765768	0.055491
513.983160	0.055333
514.200533	0.054924
514.417889	0.054749
514.635226	0.054628
514.852545	0.055017
515.069845	0.054863
515.287128	0.055928
515.504392	0.057373
515.721638	0.057892
515.938866	0.058336
516.156075	0.058106
516.373267	0.057890
516.590440	0.057784
516.807594	0.057389
517.024731	0.057337
517.241850	0.056945
517.458950	0.057216
517.676032	0.057409
517.893095	0.056844
518.110141	0.057008
518.327168	0.056769
518.544177	0.057239
518.761168	0.057578
518.978141	0.057377
519.195095	0.057797
519.412031	0.057006
519.628949	0.056990
519.845849	0.057221
520.062731	0.057892
520.279594	0.058611
520.496439	0.058968
520.713266	0.059193
520.930074	0.058916
521.146865	0.058505
521.363637	0.058622
521.580391	0.058671
521.797127	0.058692
522.013844	0.058648
522.230543	0.059048
522.447224	0.058827
522.663887	0.058873
522.880532	0.060118
523.097158	0.061080
523.313766	0.061179
523.530356	0.061150
523.746928	0.061455
523.963481	0.060986
524.180017	0.060060
524.396534	0.060580
524.613032	0.060656
524.829513	0.060273
525.045975	0.059842
525.262420	0.060281
525.478845	0.059634
525.695253	0.059739
525.911643	0.059735
526.128014	0.060451
526.344367	0.060036
526.560702	0.060092
526.777018	0.060512
526.993316	0.060643
527.209597	0.060743
527.425858	0.061890
527.642102	0.062616
527.858328	0.063148
528.074535	0.063563
528.290724	0.064039
528.506894	0.064764
528.723047	0.064677
528.939181	0.065206
529.155297	0.065275
529.371395	0.065365
529.587475	0.065001
529.803536	0.065341
530.019579	0.064876
530.235604	0.065261
530.451611	0.065153
530.667600	0.065187
530.883570	0.065017
531.099522	0.064986
531.315456	0.065184
531.531372	0.064691
531.747269	0.064611
531.963148	0.064864
532.179009	0.064554
532.394852	0.064635
532.610676	0.064945
532.826482	0.064855
533.042271	0.065390
533.258040	0.065403
533.473792	0.066621
533.689525	0.066705
533.905240	0.067274
534.120937	0.067404
534.336616	0.067323
534.552277	0.067327
534.767919	0.068032
534.983543	0.067926
535.199149	0.068156
535.414736	0.067984
535.630306	0.068252
535.845857	0.067910
536.061390	0.068261
536.276904	0.068496
536.492401	0.068953
536.707879	0.068692
536.923339	0.068464
537.138781	0.068010
537.354204	0.067513
537.569610	0.067842
537.784997	0.068022
538.000366	0.068132
538.215716	0.068129
538.431049	0.068586
538.646363	0.069156
538.861659	0.069729
539.076937	0.070927
539.292196	0.071421
539.507438	0.071698
539.722661	0.072160
539.937866	0.072453
540.153052	0.073128
540.368221	0.073029
540.583371	0.072912
540.798503	0.073395
541.013617	0.072775
541.228712	0.073152
541.443789	0.073159
541.658848	0.073379
541.873889	0.073667
542.088912	0.073396
542.303916	0.073483
542.518902	0.074084
542.733870	0.073686
542.948820	0.074660
543.163752	0.074848
543.378665	0.075050
543.593560	0.075345
543.808437	0.075444
544.023295	0.075898
544.238136	0.075984
544.452958	0.075860
544.667762	0.076499
544.882548	0.076155
545.097315	0.075855
545.312064	0.075749
545.526795	0.076252
545.741508	0.076617
545.956203	0.076314
546.170879	0.076768
546.385537	0.076471
546.600177	0.076401
546.814799	0.076357
547.029402	0.076877
547.243988	0.077271
547.458555	0.076877
547.673103	0.076657
547.887634	0.076896
548.102146	0.076365
548.316640	0.076930
548.531116	0.077228
548.745574	0.077404
548.960013	0.077517
549.174435	0.077540
549.388838	0.077449
549.603222	0.077290
549.817589	0.077327
550.031937	0.078056
550.246267	0.078186
550.460579	0.078094
550.674873	0.078232
550.889148	0.078480
551.103405	0.078713
551.317644	0.079372
551.531865	0.079359
551.746068	0.079640
551.960252	0.079093
552.174418	0.079343
552.388566	0.079527
552.602696	0.079775
552.816807	0.080081
553.030900	0.079867
553.244975	0.079742
553.459032	0.080135
553.673070	0.080541
553.887091	0.081159
554.101093	0.081106
554.315077	0.081196
554.529042	0.081419
554.742990	0.081308
554.956919	0.081823
555.170830	0.081911
555.384722	0.082144
555.598597	0.082280
555.812453	0.082288
556.026291	0.082274
556.240111	0.082559
556.453913	0.082423
556.667696	0.082567
556.881461	0.082447
557.095208	0.082561
557.308937	0.082851
557.522647	0.082516
557.736339	0.082579
557.950013	0.082754
558.163669	0.082669
558.377307	0.083130
558.590926	0.082791
558.804527	0.083256
559.018110	0.083646
559.231675	0.083949
559.445221	0.084102
559.658749	0.084479
559.872259	0.084933
560.085751	0.085231
560.299225	0.085131
560.512680	0.085830
560.726117	0.085430
560.939536	0.085248
561.152937	0.085046
561.366319	0.085527
561.579683	0.085467
561.793029	0.085158
562.006357	0.084796
562.219667	0.084676
562.432958	0.084588
562.646231	0.085183
562.859486	0.085384
563.072723	0.085286
563.285941	0.085192
563.499141	0.085645
563.712323	0.085926
563.925487	0.086040
564.138632	0.086749
564.351760	0.086944
564.564869	0.087054
564.777960	0.087274
564.991032	0.087491
565.204087	0.087481
565.417123	0.087365
565.630141	0.087574
565.843140	0.088093
566.056122	0.088078
566.269085	0.088171
566.482030	0.088652
566.694957	0.088994
566.907866	0.089561
567.120756	0.090017
567.333628	0.089809
567.546482	0.089806
567.759318	0.090104
567.972135	0.090200
568.184935	0.090455
568.397716	0.090107
568.610478	0.089767
568.823223	0.089692
569.035949	0.089686
569.248657	0.089927
569.461347	0.089921
569.674019	0.089742
569.886672	0.089885
570.099308	0.089843
570.311925	0.090064
570.524523	0.090276
570.737104	0.090479
570.949666	0.090134
571.162210	0.090321
571.374736	0.090664
571.587244	0.090888
571.799733	0.090625
572.012205	0.090854
572.224658	0.090792
572.437092	0.091170
572.649509	0.091280
572.861907	0.091678
573.074287	0.092099
573.286649	0.092176
573.498993	0.092106
573.711318	0.092629
573.923625	0.092745
574.135914	0.093050
574.348185	0.093123
574.560438	0.093108
574.772672	0.093617
574.984888	0.093165
575.197086	0.093398
575.409266	0.093788
575.621427	0.093850
575.833570	0.093798
576.045695	0.093745
576.257802	0.093600
576.469890	0.093688
576.681961	0.093591
576.894013	0.093907
577.106046	0.093929
577.318062	0.093945
577.530059	0.093874
577.742039	0.093881
577.954000	0.093903
578.165942	0.094002
578.377867	0.093938
578.589773	0.094192
578.801661	0.094140
579.013531	0.094275
579.225382	0.094151
579.437216	0.094434
579.649031	0.095044
579.860828	0.095502
580.072606	0.095691
580.284367	0.096194
580.496109	0.096099
580.707833	0.096367
580.919539	0.096384
581.131227	0.096448
581.342896	0.096605
581.554547	0.096316
581.766180	0.095885
581.977795	0.095853
582.189391	0.095703
582.400969	0.095967
582.612529	0.096444
582.824071	0.096772
583.035595	0.097080
583.247100	0.096966
583.458587	0.097334
583.670056	0.097963
583.881506	0.098139
584.092939	0.098218
584.304353	0.098235
584.515749	0.098239
584.727127	0.098048
584.938486	0.098115
585.149828	0.098168
585.361151	0.098302
585.572456	0.098278
585.783742	0.098695
585.995011	0.099169
586.206261	0.099362
586.417493	0.099196
586.628706	0.099573
586.839902	0.099537
587.051079	0.099985
587.262238	0.099934
587.473379	0.100136
587.684502	0.100104
587.895606	0.099978
588.106692	0.100383
588.317760	0.100567
588.528810	0.100484
588.739841	0.100810
588.950855	0.100917
589.161850	0.100760
589.372827	0.101089
589.583785	0.101219
589.794726	0.101460
590.005648	0.101160
590.216552	0.101356
590.427437	0.101519
590.638305	0.101857
590.849154	0.101876
591.059985	0.102381
591.270798	0.102313
591.481592	0.102262
591.692369	0.102276
591.903127	0.102583
592.113867	0.102770
592.324588	0.102603
592.535292	0.102811
592.745977	0.102665
592.956644	0.102885
593.167293	0.102602
593.377923	0.102656
593.588536	0.102617
593.799130	0.102758
594.009706	0.102880
594.220263	0.103454
594.430803	0.103334
594.641324	0.103401
594.851827	0.103251
595.062312	0.103678
595.272778	0.104174
595.483227	0.104002
595.693657	0.104007
595.904069	0.104153
596.114462	0.104079
596.324838	0.104190
596.535195	0.104810
596.745534	0.104827
596.955855	0.104599
597.166157	0.104354
597.376441	0.104604
597.586707	0.104665
597.796955	0.104785
598.007185	0.105059
598.217396	0.104996
598.427589	0.104584
598.637764	0.104929
598.847921	0.105464
599.058060	0.105939
599.268180	0.106150
599.478282	0.106128
599.688366	0.106149
599.898431	0.106006
600.108479	0.106020
600.318508	0.106373
600.528519	0.106466
600.738511	0.106608
600.948486	0.106462
601.158442	0.106809
601.368380	0.107004
601.578300	0.107032
601.788202	0.107094
601.998085	0.107220
602.207950	0.107297
602.417797	0.107528
602.627626	0.107572
602.837436	0.107771
603.047228	0.107726
603.257002	0.107968
603.466758	0.108346
603.676496	0.108484
603.886215	0.108918
604.095916	0.108784
604.305599	0.108817
604.515264	0.108788
604.724910	0.108945
604.934538	0.109107
605.144148	0.108894
605.353740	0.108389
605.563314	0.108468
605.772869	0.108827
605.982406	0.109475
606.191925	0.109128
606.401425	0.109229
606.610908	0.108998
606.820372	0.109213
607.029818	0.109408
607.239246	0.110110
607.448655	0.110211
607.658047	0.109928
607.867420	0.109689
608.076775	0.110120
608.286111	0.110058
608.495430	0.110430
608.704730	0.110395
608.914012	0.110747
609.123275	0.110639
609.332521	0.110899
609.541748	0.110951
609.750957	0.111242
609.960148	0.111438
610.169321	0.111510
610.378475	0.111482
610.587611	0.111480
610.796729	0.111320
611.005829	0.111318
611.214910	0.111290
611.423974	0.111160
611.633019	0.111173
611.842045	0.111025
612.051054	0.111565
612.260044	0.111570
612.469017	0.111854
612.677970	0.112034
612.886906	0.112159
613.095824	0.112302
613.304723	0.112741
613.513604	0.112590
613.722467	0.112651
613.931311	0.112293
614.140138	0.112480
614.348946	0.112446
614.557736	0.112648
614.766507	0.112665
614.975261	0.112664
615.183996	0.112632
615.392713	0.112977
615.601412	0.113196
615.810092	0.113543
616.018754	0.113535
616.227399	0.113581
616.436024	0.113718
616.644632	0.113729
616.853222	0.114030
617.061793	0.114083
617.270346	0.114149
617.478880	0.114146
617.687397	0.114158
617.895895	0.114501
618.104375	0.114782
618.312837	0.114917
618.521281	0.115561
618.729706	0.115524
618.938113	0.115934
619.146502	0.115891
619.354873	0.116190
619.563226	0.116267
619.771560	0.116019
619.979876	0.115961
620.188174	0.115935
620.396453	0.115480
620.604715	0.115491
620.812958	0.115275
621.021183	0.115470
621.229390	0.115550
621.437578	0.115697
621.645748	0.115903
621.853900	0.115807
622.062034	0.115975
622.270150	0.116174
622.478247	0.116412
622.686326	0.116825
622.894387	0.116811
623.102430	0.117016
623.310454	0.116880
623.518461	0.117095
623.726449	0.117248
623.934418	0.116957
624.142370	0.117049
624.350303	0.117093
624.558218	0.116786
624.766115	0.116879
624.973994	0.116813
625.181855	0.117299
625.389697	0.117243
625.597521	0.117433
625.805327	0.117840
626.013114	0.117931
626.220883	0.118022
626.428634	0.118308
626.636367	0.118781
626.844082	0.118810
627.051778	0.118787
627.259457	0.118990
627.467117	0.119298
627.674758	0.119382
627.882382	0.119769
628.089987	0.119708
628.297574	0.120053
628.505143	0.119783
628.712694	0.120118
628.920226	0.120073
629.127740	0.119916
629.335236	0.120009
629.542714	0.120270
629.750174	0.120373
629.957615	0.120468
630.165038	0.120504
630.372443	0.120842
630.579829	0.120815
630.787198	0.121146
630.994548	0.121574
631.201880	0.121668
631.409194	0.121601
631.616489	0.121397
631.823766	0.121653
632.031025	0.121453
632.238266	0.121475
632.445489	0.121494
632.652693	0.121465
632.859879	0.121670
633.067047	0.121542
633.274197	0.121800
633.481329	0.122061
633.688442	0.122388
633.895537	0.122433
634.102614	0.122301
634.309672	0.122421
634.516713	0.122393
634.723735	0.122257
634.930739	0.122572
635.137724	0.122557
635.344692	0.122723
635.551641	0.122584
635.758572	0.122697
635.965485	0.123125
636.172379	0.123089
636.379256	0.123390
636.586114	0.123552
636.792954	0.123408
636.999775	0.123448
637.206579	0.123385
637.413364	0.123419
637.620131	0.123577
637.826880	0.123573
638.033610	0.123701
638.240323	0.123845
638.447017	0.123780
638.653692	0.124102
638.860350	0.124333
639.066990	0.124728
639.273611	0.124982
639.480214	0.125106
639.686798	0.125415
639.893365	0.125685
640.099913	0.125586
640.306443	0.126050
640.512955	0.125945
640.719449	0.125744
640.925924	0.125663
641.132381	0.125755
641.338820	0.126117
641.545241	0.125958
641.751644	0.125997
641.958028	0.126099
642.164394	0.125984
642.370742	0.126377
642.577071	0.126672
642.783383	0.126730
642.989676	0.126998
643.195951	0.127138
643.402207	0.127399
643.608446	0.127615
643.814666	0.127878
644.020868	0.127890
644.227052	0.128141
644.433218	0.128310
644.639365	0.128277
644.845494	0.128417
645.051605	0.128159
645.257698	0.128367
645.463772	0.128530
645.669828	0.128462
645.875866	0.128653
646.081886	0.128455
646.287888	0.128422
646.493871	0.128773
646.699836	0.128699
646.905783	0.128959
647.111712	0.128977
647.317622	0.129093
647.523514	0.129552
647.729388	0.129922
647.935244	0.130200
648.141082	0.130409
648.346901	0.130523
648.552702	0.130563
648.758485	0.130869
648.964250	0.130780
649.169996	0.130738
649.375724	0.130695
649.581434	0.130527
649.787126	0.130598
649.992800	0.130786
650.198455	0.130948
650.404092	0.131076
650.609711	0.131091
650.815311	0.131304
651.020894	0.131470
651.226458	0.131576
651.432004	0.131865
651.637532	0.131857
651.843041	0.131895
652.048532	0.132014
652.254006	0.132311
652.459460	0.132412
652.664897	0.132592
652.870315	0.132728
653.075716	0.132914
653.281097	0.133163
653.486461	0.133151
653.691807	0.133553
653.897134	0.133579
654.102443	0.133687
654.307734	0.133873
654.513006	0.133911
654.718261	0.133935
654.923497	0.133866
655.128715	0.133727
655.333915	0.134004
655.539096	0.133841
655.744259	0.133854
655.949404	0.133893
656.154531	0.133791
656.359640	0.134073
656.564730	0.134287
656.769802	0.134627
656.974856	0.134894
657.179892	0.135245
657.384909	0.135231
657.589908	0.135526
657.794889	0.135839
657.999852	0.135964
658.204797	0.136089
658.409723	0.136467
658.614631	0.136635
658.819521	0.136536
659.024393	0.136563
659.229246	0.136944
659.434081	0.137204
659.638898	0.137082
659.843697	0.137308
660.048478	0.137440
660.253240	0.137431
660.457984	0.137594
660.662710	0.137990
660.867417	0.138092
661.072107	0.138187
661.276778	0.138151
661.481431	0.138418
661.686066	0.138479
661.890682	0.138643
662.095281	0.138720
662.299861	0.138644
662.504422	0.138729
662.708966	0.138717
662.913491	0.138886
663.117999	0.138962
663.322488	0.138969
663.526958	0.139292
663.731411	0.139479
663.935845	0.139732
664.140261	0.140076
664.344659	0.140293
664.549038	0.140639
664.753400	0.140810
664.957743	0.141139
665.162068	0.141410
665.366375	0.141627
665.570663	0.141724
665.774933	0.141856
665.979185	0.141999
666.183419	0.142087
666.387635	0.142110
666.591832	0.142282
666.796011	0.142227
667.000172	0.142361
667.204315	0.142477
667.408439	0.142482
667.612545	0.142390
667.816634	0.142518
668.020703	0.142725
668.224755	0.142662
668.428788	0.142675
668.632803	0.142936
668.836800	0.143115
669.040779	0.143232
669.244739	0.143341
669.448681	0.143720
669.652605	0.143735
669.856511	0.143878
670.060399	0.144046
670.264268	0.144124
670.468119	0.144213
670.671952	0.144134
670.875767	0.144087
671.079563	0.144401
671.283341	0.144219
671.487101	0.144193
671.690843	0.144134
671.894567	0.144303
672.098272	0.144488
672.301959	0.144622
672.505628	0.144671
672.709278	0.144714
672.912911	0.144671
673.116525	0.144692
673.320121	0.145007
673.523699	0.145093
673.727258	0.145329
673.930799	0.145248
674.134322	0.145203
674.337827	0.145545
674.541314	0.145748
674.744782	0.145890
674.948232	0.146233
675.151664	0.146232
675.355078	0.146375
675.558474	0.146471
675.761851	0.146818
675.965210	0.147223
676.168551	0.147289
676.371873	0.147546
676.575178	0.147650
676.778464	0.147828
676.981732	0.147958
677.184981	0.148186
677.388213	0.148439
677.591426	0.148623
677.794621	0.148840
677.997798	0.148912
678.200956	0.148988
678.404097	0.149168
678.607219	0.149371
678.810323	0.149478
679.013408	0.149632
679.216476	0.149840
679.419525	0.149809
679.622556	0.149770
679.825569	0.149970
680.028563	0.149927
680.231540	0.150020
680.434498	0.149968
680.637438	0.150199
680.840359	0.150176
681.043263	0.150194
681.246148	0.150370
681.449015	0.150339
681.651864	0.150444
681.854694	0.150795
682.057506	0.150846
682.260301	0.151103
682.463076	0.151360
682.665834	0.151585
682.868573	0.151625
683.071295	0.151907
683.273998	0.152171
683.476682	0.152207
683.679349	0.152101
683.881997	0.152233
684.084627	0.152269
684.287239	0.152143
684.489833	0.152332
684.692408	0.152583
684.894965	0.152538
685.097504	0.152540
685.300025	0.152875
685.502527	0.153239
685.705012	0.153427
685.907478	0.153541
686.109925	0.153635
686.312355	0.153865
686.514766	0.153982
686.717159	0.154238
686.919534	0.154487
687.121891	0.154524
687.324230	0.154621
687.526550	0.154572
687.728852	0.154738
687.931136	0.154965
688.133401	0.154960
688.335649	0.155053
688.537878	0.155117
688.740089	0.155411
688.942281	0.155459
689.144456	0.155557
689.346612	0.156009
689.548750	0.156247
689.750870	0.156478
689.952971	0.156594
690.155055	0.156635
690.357120	0.156784
690.559167	0.156779
690.761195	0.157146
690.963206	0.157236
691.165198	0.157302
691.367172	0.157251
691.569128	0.157367
691.771065	0.157574
691.972984	0.157712
692.174885	0.158001
692.376768	0.157909
692.578633	0.157872
692.780479	0.158176
692.982308	0.158071
693.184118	0.158332
693.385909	0.158195
