sample name	sample
index	221
start time	 02-22-2021  10:30:16 AM


Wavelength (nm)	Absorbance
494.344910	-0.095636
494.563924	-0.095636
494.782919	-0.095636
495.001897	0.032536
495.220856	-0.060178
495.439797	-0.042846
495.658719	-0.024181
495.877624	-0.020408
496.096510	-0.000021
496.315378	-0.006749
496.534227	0.033731
496.753059	0.051371
496.971872	0.029929
497.190667	0.051406
497.409444	0.058379
497.628203	0.061697
497.846943	0.063599
498.065665	0.062426
498.284369	0.063207
498.503055	0.063460
498.721723	0.064085
498.940372	0.065406
499.159003	0.064990
499.377616	0.065511
499.596210	0.065450
499.814787	0.065288
500.033345	0.067401
500.251885	0.067501
500.470406	0.067358
500.688910	0.068276
500.907395	0.068037
501.125862	0.069067
501.344311	0.068579
501.562742	0.068873
501.781154	0.069349
501.999548	0.067963
502.217924	0.068667
502.436282	0.068612
502.654621	0.068448
502.872942	0.069027
503.091245	0.068607
503.309530	0.069264
503.527797	0.069146
503.746045	0.069303
503.964275	0.069316
504.182487	0.068562
504.400681	0.068638
504.618856	0.068230
504.837013	0.067272
505.055152	0.067746
505.273273	0.067616
505.491376	0.067408
505.709460	0.066528
505.927526	0.067044
506.145574	0.067279
506.363604	0.066818
506.581615	0.065932
506.799608	0.066234
507.017583	0.066169
507.235540	0.065654
507.453478	0.066255
507.671399	0.066626
507.889301	0.065968
508.107185	0.066238
508.325050	0.066323
508.542898	0.067355
508.760727	0.067934
508.978538	0.067997
509.196330	0.068384
509.414105	0.068096
509.631861	0.068753
509.849599	0.068922
510.067319	0.069025
510.285021	0.069232
510.502704	0.068140
510.720369	0.068710
510.938016	0.068840
511.155645	0.068730
511.373255	0.068794
511.590848	0.068547
511.808422	0.068692
512.025977	0.069259
512.243515	0.069886
512.461034	0.071098
512.678536	0.070369
512.896018	0.070400
513.113483	0.071050
513.330930	0.072098
513.548358	0.071583
513.765768	0.071797
513.983160	0.071781
514.200533	0.072719
514.417889	0.073058
514.635226	0.073260
514.852545	0.073569
515.069845	0.073338
515.287128	0.073069
515.504392	0.073719
515.721638	0.073431
515.938866	0.073064
516.156075	0.071847
516.373267	0.071636
516.590440	0.071729
516.807594	0.071424
517.024731	0.071761
517.241850	0.071000
517.458950	0.071605
517.676032	0.072355
517.893095	0.072722
518.110141	0.073552
518.327168	0.073600
518.544177	0.073887
518.761168	0.074424
518.978141	0.074620
519.195095	0.075438
519.412031	0.074966
519.628949	0.075320
519.845849	0.075205
520.062731	0.075016
520.279594	0.075176
520.496439	0.074807
520.713266	0.075319
520.930074	0.075700
521.146865	0.075284
521.363637	0.075286
521.580391	0.075086
521.797127	0.075112
522.013844	0.075291
522.230543	0.075113
522.447224	0.075268
522.663887	0.075201
522.880532	0.074935
523.097158	0.075343
523.313766	0.075533
523.530356	0.075836
523.746928	0.076450
523.963481	0.076819
524.180017	0.077359
524.396534	0.077677
524.613032	0.078094
524.829513	0.078666
525.045975	0.078671
525.262420	0.078921
525.478845	0.078506
525.695253	0.078507
525.911643	0.078452
526.128014	0.078296
526.344367	0.078643
526.560702	0.078347
526.777018	0.077961
526.993316	0.078330
527.209597	0.079252
527.425858	0.079275
527.642102	0.079408
527.858328	0.079424
528.074535	0.079659
528.290724	0.079793
528.506894	0.080260
528.723047	0.081353
528.939181	0.081767
529.155297	0.081233
529.371395	0.081680
529.587475	0.081397
529.803536	0.081657
530.019579	0.081252
530.235604	0.081752
530.451611	0.081982
530.667600	0.081518
530.883570	0.080966
531.099522	0.081628
531.315456	0.082183
531.531372	0.083038
531.747269	0.083120
531.963148	0.083793
532.179009	0.083896
532.394852	0.083895
532.610676	0.083803
532.826482	0.084457
533.042271	0.084463
533.258040	0.083863
533.473792	0.083765
533.689525	0.083954
533.905240	0.084203
534.120937	0.083845
534.336616	0.084025
534.552277	0.084424
534.767919	0.084544
534.983543	0.084319
535.199149	0.085135
535.414736	0.085098
535.630306	0.085319
535.845857	0.085143
536.061390	0.085203
536.276904	0.084733
536.492401	0.084656
536.707879	0.084948
536.923339	0.085715
537.138781	0.085804
537.354204	0.085979
537.569610	0.086408
537.784997	0.086747
538.000366	0.086974
538.215716	0.087465
538.431049	0.087730
538.646363	0.087453
538.861659	0.087202
539.076937	0.086797
539.292196	0.086892
539.507438	0.086732
539.722661	0.086932
539.937866	0.087112
540.153052	0.087641
540.368221	0.087635
540.583371	0.087676
540.798503	0.087810
541.013617	0.088473
541.228712	0.089024
541.443789	0.089234
541.658848	0.089637
541.873889	0.089432
542.088912	0.089378
542.303916	0.089760
542.518902	0.090284
542.733870	0.090303
542.948820	0.090519
543.163752	0.090380
543.378665	0.090741
543.593560	0.090707
543.808437	0.091261
544.023295	0.091198
544.238136	0.091367
544.452958	0.091798
544.667762	0.091816
544.882548	0.091377
545.097315	0.091771
545.312064	0.091925
545.526795	0.091835
545.741508	0.091559
545.956203	0.091947
546.170879	0.091519
546.385537	0.091485
546.600177	0.091911
546.814799	0.092766
547.029402	0.092462
547.243988	0.092523
547.458555	0.092989
547.673103	0.093545
547.887634	0.093295
548.102146	0.093526
548.316640	0.093326
548.531116	0.093209
548.745574	0.092820
548.960013	0.093303
549.174435	0.093752
549.388838	0.093838
549.603222	0.094029
549.817589	0.094510
550.031937	0.094739
550.246267	0.094885
550.460579	0.095099
550.674873	0.095257
550.889148	0.095327
551.103405	0.094746
551.317644	0.094581
551.531865	0.094672
551.746068	0.094503
551.960252	0.094683
552.174418	0.095018
552.388566	0.095041
552.602696	0.095566
552.816807	0.095792
553.030900	0.096263
553.244975	0.096458
553.459032	0.096330
553.673070	0.096706
553.887091	0.096790
554.101093	0.096409
554.315077	0.096582
554.529042	0.096347
554.742990	0.096503
554.956919	0.096451
555.170830	0.096654
555.384722	0.096858
555.598597	0.096631
555.812453	0.096517
556.026291	0.096919
556.240111	0.097330
556.453913	0.097682
556.667696	0.097902
556.881461	0.097829
557.095208	0.098050
557.308937	0.098109
557.522647	0.098754
557.736339	0.099235
557.950013	0.099368
558.163669	0.098600
558.377307	0.098431
558.590926	0.098334
558.804527	0.098494
559.018110	0.098212
559.231675	0.098506
559.445221	0.098276
559.658749	0.098144
559.872259	0.098195
560.085751	0.098711
560.299225	0.098615
560.512680	0.098456
560.726117	0.098781
560.939536	0.099535
561.152937	0.099541
561.366319	0.099501
561.579683	0.099549
561.793029	0.099528
562.006357	0.099749
562.219667	0.100054
562.432958	0.100297
562.646231	0.100030
562.859486	0.099449
563.072723	0.099790
563.285941	0.099739
563.499141	0.099994
563.712323	0.099819
563.925487	0.099689
564.138632	0.099631
564.351760	0.099968
564.564869	0.100301
564.777960	0.100450
564.991032	0.100068
565.204087	0.100261
565.417123	0.100380
565.630141	0.100584
565.843140	0.100685
566.056122	0.101111
566.269085	0.100924
566.482030	0.100795
566.694957	0.101169
566.907866	0.101512
567.120756	0.101275
567.333628	0.101332
567.546482	0.101640
567.759318	0.101842
567.972135	0.101817
568.184935	0.101800
568.397716	0.102096
568.610478	0.101667
568.823223	0.101883
569.035949	0.102332
569.248657	0.102440
569.461347	0.102399
569.674019	0.102401
569.886672	0.102571
570.099308	0.102600
570.311925	0.102660
570.524523	0.103276
570.737104	0.103458
570.949666	0.103502
571.162210	0.103424
571.374736	0.103683
571.587244	0.103727
571.799733	0.103756
572.012205	0.103693
572.224658	0.103768
572.437092	0.103645
572.649509	0.103585
572.861907	0.103870
573.074287	0.104077
573.286649	0.104274
573.498993	0.104551
573.711318	0.104593
573.923625	0.105060
574.135914	0.105081
574.348185	0.105415
574.560438	0.105279
574.772672	0.104833
574.984888	0.104880
575.197086	0.104836
575.409266	0.104848
575.621427	0.104935
575.833570	0.104572
576.045695	0.104733
576.257802	0.104845
576.469890	0.105220
576.681961	0.105852
576.894013	0.106100
577.106046	0.106392
577.318062	0.106539
577.530059	0.106639
577.742039	0.106998
577.954000	0.107006
578.165942	0.106839
578.377867	0.106733
578.589773	0.106444
578.801661	0.106449
579.013531	0.106231
579.225382	0.106261
579.437216	0.106380
579.649031	0.106364
579.860828	0.106625
580.072606	0.106440
580.284367	0.106531
580.496109	0.106836
580.707833	0.106888
580.919539	0.107175
581.131227	0.107369
581.342896	0.107483
581.554547	0.107740
581.766180	0.107840
581.977795	0.108320
582.189391	0.108376
582.400969	0.108459
582.612529	0.108495
582.824071	0.108604
583.035595	0.108817
583.247100	0.108917
583.458587	0.108977
583.670056	0.108845
583.881506	0.109166
584.092939	0.109582
584.304353	0.109622
584.515749	0.109918
584.727127	0.109915
584.938486	0.109877
585.149828	0.109696
585.361151	0.109735
585.572456	0.109692
585.783742	0.109510
585.995011	0.109465
586.206261	0.109711
586.417493	0.109641
586.628706	0.109754
586.839902	0.109852
587.051079	0.110065
587.262238	0.110384
587.473379	0.110791
587.684502	0.110687
587.895606	0.110654
588.106692	0.110656
588.317760	0.110988
588.528810	0.111081
588.739841	0.110889
588.950855	0.111013
589.161850	0.110800
589.372827	0.110738
589.583785	0.111137
589.794726	0.110912
590.005648	0.111216
590.216552	0.110840
590.427437	0.111000
590.638305	0.111204
590.849154	0.111446
591.059985	0.111503
591.270798	0.111422
591.481592	0.111427
591.692369	0.111861
591.903127	0.111785
592.113867	0.112185
592.324588	0.112130
592.535292	0.112175
592.745977	0.112430
592.956644	0.112855
593.167293	0.113259
593.377923	0.113300
593.588536	0.113600
593.799130	0.113563
594.009706	0.113595
594.220263	0.113890
594.430803	0.114225
594.641324	0.113952
594.851827	0.113715
595.062312	0.113822
595.272778	0.113880
595.483227	0.113889
595.693657	0.114094
595.904069	0.114319
596.114462	0.114558
596.324838	0.114641
596.535195	0.114610
596.745534	0.114717
596.955855	0.114894
597.166157	0.114996
597.376441	0.114666
597.586707	0.114750
597.796955	0.114710
598.007185	0.114329
598.217396	0.114438
598.427589	0.114781
598.637764	0.114719
598.847921	0.114564
599.058060	0.114747
599.268180	0.114959
599.478282	0.114853
599.688366	0.115162
599.898431	0.115380
600.108479	0.115249
600.318508	0.115298
600.528519	0.115755
600.738511	0.115818
600.948486	0.115506
601.158442	0.115689
601.368380	0.115794
601.578300	0.115711
601.788202	0.115778
601.998085	0.115887
602.207950	0.115981
602.417797	0.116104
602.627626	0.116270
602.837436	0.116698
603.047228	0.117024
603.257002	0.117111
603.466758	0.116908
603.676496	0.116961
603.886215	0.117321
604.095916	0.117222
604.305599	0.117049
604.515264	0.117113
604.724910	0.116983
604.934538	0.116832
605.144148	0.117238
605.353740	0.117555
605.563314	0.117865
605.772869	0.117691
605.982406	0.117810
606.191925	0.117946
606.401425	0.117981
606.610908	0.118029
606.820372	0.118163
607.029818	0.118027
607.239246	0.117773
607.448655	0.117602
607.658047	0.117580
607.867420	0.117385
608.076775	0.117446
608.286111	0.117283
608.495430	0.117407
608.704730	0.117424
608.914012	0.117561
609.123275	0.117785
609.332521	0.118021
609.541748	0.118189
609.750957	0.118423
609.960148	0.118523
610.169321	0.118704
610.378475	0.119017
610.587611	0.118956
610.796729	0.118548
611.005829	0.118743
611.214910	0.118570
611.423974	0.118519
611.633019	0.118741
611.842045	0.118616
612.051054	0.118733
612.260044	0.118577
612.469017	0.118680
612.677970	0.118921
612.886906	0.118940
613.095824	0.119160
613.304723	0.119470
613.513604	0.119322
613.722467	0.119469
613.931311	0.119800
614.140138	0.120007
614.348946	0.120369
614.557736	0.120481
614.766507	0.120538
614.975261	0.120487
615.183996	0.120461
615.392713	0.120593
615.601412	0.120804
615.810092	0.120541
616.018754	0.120628
616.227399	0.120501
616.436024	0.120609
616.644632	0.120761
616.853222	0.120760
617.061793	0.120768
617.270346	0.121028
617.478880	0.121058
617.687397	0.121184
617.895895	0.120952
618.104375	0.121015
618.312837	0.121309
618.521281	0.121153
618.729706	0.121180
618.938113	0.120958
619.146502	0.120863
619.354873	0.120891
619.563226	0.120918
619.771560	0.121089
619.979876	0.121209
620.188174	0.121068
620.396453	0.121425
620.604715	0.121527
620.812958	0.121968
621.021183	0.122130
621.229390	0.122113
621.437578	0.121990
621.645748	0.121958
621.853900	0.121705
622.062034	0.121792
622.270150	0.121730
622.478247	0.121738
622.686326	0.121527
622.894387	0.121577
623.102430	0.121626
623.310454	0.121884
623.518461	0.122031
623.726449	0.122191
623.934418	0.122347
624.142370	0.122360
624.350303	0.122474
624.558218	0.122765
624.766115	0.122712
624.973994	0.122930
625.181855	0.123040
625.389697	0.123085
625.597521	0.123072
625.805327	0.123039
626.013114	0.123139
626.220883	0.123190
626.428634	0.123245
626.636367	0.123230
626.844082	0.123372
627.051778	0.123588
627.259457	0.123887
627.467117	0.123938
627.674758	0.124143
627.882382	0.124258
628.089987	0.124448
628.297574	0.124365
628.505143	0.124787
628.712694	0.124579
628.920226	0.124468
629.127740	0.124482
629.335236	0.124729
629.542714	0.124813
629.750174	0.124870
629.957615	0.124950
630.165038	0.125254
630.372443	0.125179
630.579829	0.125472
630.787198	0.125436
630.994548	0.125380
631.201880	0.125552
631.409194	0.125633
631.616489	0.125658
631.823766	0.125826
632.031025	0.125808
632.238266	0.125845
632.445489	0.125906
632.652693	0.125957
632.859879	0.126026
633.067047	0.126014
633.274197	0.126058
633.481329	0.126124
633.688442	0.126094
633.895537	0.126079
634.102614	0.126499
634.309672	0.126543
634.516713	0.126842
634.723735	0.126999
634.930739	0.127042
635.137724	0.127071
635.344692	0.127220
635.551641	0.127421
635.758572	0.127571
635.965485	0.127444
636.172379	0.127344
636.379256	0.127364
636.586114	0.127352
636.792954	0.127438
636.999775	0.127407
637.206579	0.127585
637.413364	0.127400
637.620131	0.127349
637.826880	0.127260
638.033610	0.127343
638.240323	0.127411
638.447017	0.127587
638.653692	0.127672
638.860350	0.127794
639.066990	0.127677
639.273611	0.128052
639.480214	0.128189
639.686798	0.128460
639.893365	0.128625
640.099913	0.128882
640.306443	0.128991
640.512955	0.129030
640.719449	0.129376
640.925924	0.129346
641.132381	0.129472
641.338820	0.129728
641.545241	0.129526
641.751644	0.129601
641.958028	0.129684
642.164394	0.129681
642.370742	0.129940
642.577071	0.129768
642.783383	0.130026
642.989676	0.129952
643.195951	0.130023
643.402207	0.130223
643.608446	0.130417
643.814666	0.130268
644.020868	0.130231
644.227052	0.130081
644.433218	0.130281
644.639365	0.130452
644.845494	0.130490
645.051605	0.130518
645.257698	0.130521
645.463772	0.130540
645.669828	0.130629
645.875866	0.130993
646.081886	0.131179
646.287888	0.131180
646.493871	0.131043
646.699836	0.131138
646.905783	0.131220
647.111712	0.131313
647.317622	0.131439
647.523514	0.131645
647.729388	0.131593
647.935244	0.131448
648.141082	0.131634
648.346901	0.131727
648.552702	0.131723
648.758485	0.131738
648.964250	0.131932
649.169996	0.132109
649.375724	0.132222
649.581434	0.132392
649.787126	0.132721
649.992800	0.132593
650.198455	0.132841
650.404092	0.133173
650.609711	0.133245
650.815311	0.133259
651.020894	0.133139
651.226458	0.133121
651.432004	0.133009
651.637532	0.132974
651.843041	0.133243
652.048532	0.133272
652.254006	0.133250
652.459460	0.133390
652.664897	0.133396
652.870315	0.133439
653.075716	0.133673
653.281097	0.133774
653.486461	0.133910
653.691807	0.133890
653.897134	0.133829
654.102443	0.133943
654.307734	0.134092
654.513006	0.134517
654.718261	0.134669
654.923497	0.134599
655.128715	0.134840
655.333915	0.135052
655.539096	0.135086
655.744259	0.135085
655.949404	0.135209
656.154531	0.135239
656.359640	0.135154
656.564730	0.135251
656.769802	0.135322
656.974856	0.135148
657.179892	0.135125
657.384909	0.135296
657.589908	0.135663
657.794889	0.135658
657.999852	0.135716
658.204797	0.135787
658.409723	0.135980
658.614631	0.136108
658.819521	0.136331
659.024393	0.136350
659.229246	0.136484
659.434081	0.136602
659.638898	0.136749
659.843697	0.136890
660.048478	0.136909
660.253240	0.136835
660.457984	0.136991
660.662710	0.137222
660.867417	0.137443
661.072107	0.137328
661.276778	0.137198
661.481431	0.137106
661.686066	0.137068
661.890682	0.137355
662.095281	0.137565
662.299861	0.137453
662.504422	0.137511
662.708966	0.137402
662.913491	0.137689
663.117999	0.137913
663.322488	0.138069
663.526958	0.138183
663.731411	0.138140
663.935845	0.138149
664.140261	0.138400
664.344659	0.138454
664.549038	0.138875
664.753400	0.139024
664.957743	0.139084
665.162068	0.139364
665.366375	0.139463
665.570663	0.139427
665.774933	0.139546
665.979185	0.139577
666.183419	0.139559
666.387635	0.139545
666.591832	0.139560
666.796011	0.139703
667.000172	0.139721
667.204315	0.139694
667.408439	0.139769
667.612545	0.139873
667.816634	0.139954
668.020703	0.140182
668.224755	0.140047
668.428788	0.140226
668.632803	0.140270
668.836800	0.140343
669.040779	0.140479
669.244739	0.140650
669.448681	0.140651
669.652605	0.140619
669.856511	0.140824
670.060399	0.141017
670.264268	0.140852
670.468119	0.140981
670.671952	0.140946
670.875767	0.141110
671.079563	0.141277
671.283341	0.141654
671.487101	0.141864
671.690843	0.141830
671.894567	0.142050
672.098272	0.142177
672.301959	0.142201
672.505628	0.142211
672.709278	0.142243
672.912911	0.142188
673.116525	0.141935
673.320121	0.141889
673.523699	0.142024
673.727258	0.142111
673.930799	0.142190
674.134322	0.142284
674.337827	0.142461
674.541314	0.142662
674.744782	0.142723
674.948232	0.142987
675.151664	0.143231
675.355078	0.143124
675.558474	0.143099
675.761851	0.143318
675.965210	0.143476
676.168551	0.143621
676.371873	0.143723
676.575178	0.143915
676.778464	0.144002
676.981732	0.144246
677.184981	0.144473
677.388213	0.144612
677.591426	0.144817
677.794621	0.144706
677.997798	0.144759
678.200956	0.144861
678.404097	0.144878
678.607219	0.144995
678.810323	0.144832
679.013408	0.144875
679.216476	0.145063
679.419525	0.144882
679.622556	0.145099
679.825569	0.145263
680.028563	0.145269
680.231540	0.145550
680.434498	0.145617
680.637438	0.145790
680.840359	0.146008
681.043263	0.145882
681.246148	0.146160
681.449015	0.146308
681.651864	0.146291
681.854694	0.146419
682.057506	0.146293
682.260301	0.146359
682.463076	0.146575
682.665834	0.146586
682.868573	0.146825
683.071295	0.146846
683.273998	0.147022
683.476682	0.147265
683.679349	0.147366
683.881997	0.147538
684.084627	0.147690
684.287239	0.147670
684.489833	0.147657
684.692408	0.147745
684.894965	0.147676
685.097504	0.147673
685.300025	0.147560
685.502527	0.147649
685.705012	0.147564
685.907478	0.147289
686.109925	0.147328
686.312355	0.147428
686.514766	0.147714
686.717159	0.148134
686.919534	0.148312
687.121891	0.148376
687.324230	0.148572
687.526550	0.148889
687.728852	0.149282
687.931136	0.149300
688.133401	0.149347
688.335649	0.149272
688.537878	0.149098
688.740089	0.149247
688.942281	0.149595
689.144456	0.149632
689.346612	0.149588
689.548750	0.149500
689.750870	0.149688
689.952971	0.149695
690.155055	0.149679
690.357120	0.149763
690.559167	0.149614
690.761195	0.149264
690.963206	0.149214
691.165198	0.149288
691.367172	0.149541
691.569128	0.149513
691.771065	0.149740
691.972984	0.149846
692.174885	0.150176
692.376768	0.150265
692.578633	0.150824
692.780479	0.150768
692.982308	0.151102
693.184118	0.151007
693.385909	0.151209
