sample name	sample
index	368
start time	 03-04-2021  11:47:02 AM


Wavelength (nm)	Absorbance
494.344910	-0.144476
494.563924	-0.144476
494.782919	-0.144476
495.001897	-0.085283
495.220856	-0.069676
495.439797	-0.050153
495.658719	-0.054980
495.877624	-0.018871
496.096510	-0.016417
496.315378	0.010406
496.534227	-0.051059
496.753059	-0.035968
496.971872	-0.081323
497.190667	0.050641
497.409444	0.061441
497.628203	0.066793
497.846943	0.066252
498.065665	0.068503
498.284369	0.067827
498.503055	0.068815
498.721723	0.069539
498.940372	0.070744
499.159003	0.070408
499.377616	0.071374
499.596210	0.071123
499.814787	0.071923
500.033345	0.071324
500.251885	0.071244
500.470406	0.072333
500.688910	0.072603
500.907395	0.072154
501.125862	0.071845
501.344311	0.070946
501.562742	0.070552
501.781154	0.071442
501.999548	0.071923
502.217924	0.072773
502.436282	0.072382
502.654621	0.071675
502.872942	0.071150
503.091245	0.071351
503.309530	0.071855
503.527797	0.071448
503.746045	0.070219
503.964275	0.070412
504.182487	0.069633
504.400681	0.069466
504.618856	0.069048
504.837013	0.069549
505.055152	0.069727
505.273273	0.069807
505.491376	0.069856
505.709460	0.069890
505.927526	0.069724
506.145574	0.070823
506.363604	0.070687
506.581615	0.071631
506.799608	0.071982
507.017583	0.071476
507.235540	0.071568
507.453478	0.072138
507.671399	0.072038
507.889301	0.071726
508.107185	0.071323
508.325050	0.071685
508.542898	0.071680
508.760727	0.071883
508.978538	0.072883
509.196330	0.073017
509.414105	0.074348
509.631861	0.075351
509.849599	0.075612
510.067319	0.075458
510.285021	0.075473
510.502704	0.075233
510.720369	0.075249
510.938016	0.074702
511.155645	0.074239
511.373255	0.072757
511.590848	0.072540
511.808422	0.073405
512.025977	0.074120
512.243515	0.074168
512.461034	0.074763
512.678536	0.074755
512.896018	0.075313
513.113483	0.076277
513.330930	0.077328
513.548358	0.077606
513.765768	0.076876
513.983160	0.077757
514.200533	0.077903
514.417889	0.077906
514.635226	0.077948
514.852545	0.077764
515.069845	0.077355
515.287128	0.077564
515.504392	0.077313
515.721638	0.077243
515.938866	0.075983
516.156075	0.077126
516.373267	0.078290
516.590440	0.079274
516.807594	0.079567
517.024731	0.079771
517.241850	0.079140
517.458950	0.079782
517.676032	0.080358
517.893095	0.081237
518.110141	0.080647
518.327168	0.080131
518.544177	0.079955
518.761168	0.080691
518.978141	0.080745
519.195095	0.081536
519.412031	0.081174
519.628949	0.081005
519.845849	0.081103
520.062731	0.081299
520.279594	0.081201
520.496439	0.080978
520.713266	0.080809
520.930074	0.081797
521.146865	0.081819
521.363637	0.082809
521.580391	0.083312
521.797127	0.083275
522.013844	0.083335
522.230543	0.083923
522.447224	0.083977
522.663887	0.083737
522.880532	0.083472
523.097158	0.084021
523.313766	0.084016
523.530356	0.084061
523.746928	0.085267
523.963481	0.085365
524.180017	0.085411
524.396534	0.085798
524.613032	0.086561
524.829513	0.086779
525.045975	0.086464
525.262420	0.086257
525.478845	0.086434
525.695253	0.085508
525.911643	0.085902
526.128014	0.086147
526.344367	0.086364
526.560702	0.086146
526.777018	0.086396
526.993316	0.086851
527.209597	0.087370
527.425858	0.087731
527.642102	0.088749
527.858328	0.088913
528.074535	0.088951
528.290724	0.089104
528.506894	0.089406
528.723047	0.089670
528.939181	0.090303
529.155297	0.090979
529.371395	0.091209
529.587475	0.091159
529.803536	0.092147
530.019579	0.092549
530.235604	0.093086
530.451611	0.093737
530.667600	0.093564
530.883570	0.093517
531.099522	0.092950
531.315456	0.093176
531.531372	0.092960
531.747269	0.092792
531.963148	0.092888
532.179009	0.093064
532.394852	0.093128
532.610676	0.093978
532.826482	0.094794
533.042271	0.095409
533.258040	0.096311
533.473792	0.096947
533.689525	0.097127
533.905240	0.097242
534.120937	0.097740
534.336616	0.097864
534.552277	0.097794
534.767919	0.097743
534.983543	0.098160
535.199149	0.098192
535.414736	0.098505
535.630306	0.098871
535.845857	0.099341
536.061390	0.099557
536.276904	0.100165
536.492401	0.100651
536.707879	0.101077
536.923339	0.101045
537.138781	0.101294
537.354204	0.100980
537.569610	0.101156
537.784997	0.101725
538.000366	0.101817
538.215716	0.101893
538.431049	0.101984
538.646363	0.101912
538.861659	0.101967
539.076937	0.102192
539.292196	0.103171
539.507438	0.103401
539.722661	0.103404
539.937866	0.103954
540.153052	0.104105
540.368221	0.104492
540.583371	0.104403
540.798503	0.105458
541.013617	0.105575
541.228712	0.105728
541.443789	0.106159
541.658848	0.106461
541.873889	0.106208
542.088912	0.106738
542.303916	0.106927
542.518902	0.107627
542.733870	0.107313
542.948820	0.107577
543.163752	0.107686
543.378665	0.108219
543.593560	0.108755
543.808437	0.108922
544.023295	0.108685
544.238136	0.108934
544.452958	0.108903
544.667762	0.109126
544.882548	0.108880
545.097315	0.109324
545.312064	0.108764
545.526795	0.109047
545.741508	0.109534
545.956203	0.110263
546.170879	0.110943
546.385537	0.111726
546.600177	0.111870
546.814799	0.112480
547.029402	0.112480
547.243988	0.112849
547.458555	0.112753
547.673103	0.112855
547.887634	0.112695
548.102146	0.112192
548.316640	0.111625
548.531116	0.111539
548.745574	0.111334
548.960013	0.111605
549.174435	0.111886
549.388838	0.112325
549.603222	0.112578
549.817589	0.112922
550.031937	0.113489
550.246267	0.113818
550.460579	0.114235
550.674873	0.114640
550.889148	0.114873
551.103405	0.115478
551.317644	0.115356
551.531865	0.115692
551.746068	0.115868
551.960252	0.115745
552.174418	0.115973
552.388566	0.116605
552.602696	0.116894
552.816807	0.116539
553.030900	0.116457
553.244975	0.116262
553.459032	0.116223
553.673070	0.116300
553.887091	0.116483
554.101093	0.116549
554.315077	0.115953
554.529042	0.116308
554.742990	0.116825
554.956919	0.116811
555.170830	0.116985
555.384722	0.117074
555.598597	0.117384
555.812453	0.117607
556.026291	0.117798
556.240111	0.118630
556.453913	0.118745
556.667696	0.118882
556.881461	0.118947
557.095208	0.119437
557.308937	0.119346
557.522647	0.119384
557.736339	0.119506
557.950013	0.119687
558.163669	0.119428
558.377307	0.119182
558.590926	0.119215
558.804527	0.119864
559.018110	0.119869
559.231675	0.120260
559.445221	0.120407
559.658749	0.120563
559.872259	0.120865
560.085751	0.120955
560.299225	0.121473
560.512680	0.121873
560.726117	0.121481
560.939536	0.121603
561.152937	0.122015
561.366319	0.122156
561.579683	0.122318
561.793029	0.122510
562.006357	0.122915
562.219667	0.123230
562.432958	0.123556
562.646231	0.124000
562.859486	0.124500
563.072723	0.124296
563.285941	0.124359
563.499141	0.124590
563.712323	0.124429
563.925487	0.124590
564.138632	0.124598
564.351760	0.124408
564.564869	0.124231
564.777960	0.124154
564.991032	0.124627
565.204087	0.124731
565.417123	0.124686
565.630141	0.125198
565.843140	0.125319
566.056122	0.125222
566.269085	0.125355
566.482030	0.125904
566.694957	0.125973
566.907866	0.125901
567.120756	0.125976
567.333628	0.126294
567.546482	0.126209
567.759318	0.126349
567.972135	0.126448
568.184935	0.126289
568.397716	0.126132
568.610478	0.126227
568.823223	0.126039
569.035949	0.126183
569.248657	0.126230
569.461347	0.126322
569.674019	0.126607
569.886672	0.126718
570.099308	0.126866
570.311925	0.127000
570.524523	0.127338
570.737104	0.127657
570.949666	0.128162
571.162210	0.127937
571.374736	0.128281
571.587244	0.128265
571.799733	0.128096
572.012205	0.128551
572.224658	0.128684
572.437092	0.128695
572.649509	0.128406
572.861907	0.127802
573.074287	0.128037
573.286649	0.127835
573.498993	0.127446
573.711318	0.127794
573.923625	0.127618
574.135914	0.127607
574.348185	0.127439
574.560438	0.128106
574.772672	0.128524
574.984888	0.128700
575.197086	0.128900
575.409266	0.129159
575.621427	0.129334
575.833570	0.129722
576.045695	0.129994
576.257802	0.130356
576.469890	0.130517
576.681961	0.130946
576.894013	0.131195
577.106046	0.131430
577.318062	0.131771
577.530059	0.131904
577.742039	0.131892
577.954000	0.131882
578.165942	0.132133
578.377867	0.132323
578.589773	0.132036
578.801661	0.132380
579.013531	0.132372
579.225382	0.132486
579.437216	0.132811
579.649031	0.133029
579.860828	0.133222
580.072606	0.133183
580.284367	0.132908
580.496109	0.133185
580.707833	0.133287
580.919539	0.133572
581.131227	0.133592
581.342896	0.133615
581.554547	0.133466
581.766180	0.133500
581.977795	0.133431
582.189391	0.133369
582.400969	0.133686
582.612529	0.133530
582.824071	0.133362
583.035595	0.133676
583.247100	0.133848
583.458587	0.134115
583.670056	0.134310
583.881506	0.134382
584.092939	0.135189
584.304353	0.135406
584.515749	0.135456
584.727127	0.135817
584.938486	0.136091
585.149828	0.135928
585.361151	0.136208
585.572456	0.136426
585.783742	0.136824
585.995011	0.136901
586.206261	0.136713
586.417493	0.136935
586.628706	0.136906
586.839902	0.136512
587.051079	0.136775
587.262238	0.136833
587.473379	0.136613
587.684502	0.136668
587.895606	0.136824
588.106692	0.137122
588.317760	0.137008
588.528810	0.137073
588.739841	0.137445
588.950855	0.137603
589.161850	0.137348
589.372827	0.137760
589.583785	0.138081
589.794726	0.137819
590.005648	0.137995
590.216552	0.138304
590.427437	0.138757
590.638305	0.138709
590.849154	0.139146
591.059985	0.139540
591.270798	0.139739
591.481592	0.139741
591.692369	0.140351
591.903127	0.140295
592.113867	0.140565
592.324588	0.140462
592.535292	0.140829
592.745977	0.140683
592.956644	0.140896
593.167293	0.140918
593.377923	0.140992
593.588536	0.141074
593.799130	0.141045
594.009706	0.140846
594.220263	0.141212
594.430803	0.141423
594.641324	0.141676
594.851827	0.141837
595.062312	0.141773
595.272778	0.141815
595.483227	0.141455
595.693657	0.141934
595.904069	0.142204
596.114462	0.142125
596.324838	0.142274
596.535195	0.142634
596.745534	0.142818
596.955855	0.142909
597.166157	0.143342
597.376441	0.143798
597.586707	0.143959
597.796955	0.144229
598.007185	0.144438
598.217396	0.144556
598.427589	0.144380
598.637764	0.144494
598.847921	0.144843
599.058060	0.144801
599.268180	0.144738
599.478282	0.144690
599.688366	0.145017
599.898431	0.144887
600.108479	0.144951
600.318508	0.144599
600.528519	0.144701
600.738511	0.144869
600.948486	0.145253
601.158442	0.145631
601.368380	0.145778
601.578300	0.145553
601.788202	0.145494
601.998085	0.145602
602.207950	0.146264
602.417797	0.146470
602.627626	0.146572
602.837436	0.146305
603.047228	0.146271
603.257002	0.146397
603.466758	0.146409
603.676496	0.147008
603.886215	0.146824
604.095916	0.146869
604.305599	0.146872
604.515264	0.147111
604.724910	0.147304
604.934538	0.147533
605.144148	0.147451
605.353740	0.147683
605.563314	0.147601
605.772869	0.148170
605.982406	0.148008
606.191925	0.148090
606.401425	0.148319
606.610908	0.148240
606.820372	0.148439
607.029818	0.148745
607.239246	0.148756
607.448655	0.149010
607.658047	0.148825
607.867420	0.149224
608.076775	0.149491
608.286111	0.149198
608.495430	0.149462
608.704730	0.149388
608.914012	0.149634
609.123275	0.149635
609.332521	0.149575
609.541748	0.149888
609.750957	0.149992
609.960148	0.149725
610.169321	0.150064
610.378475	0.150404
610.587611	0.150672
610.796729	0.150541
611.005829	0.150960
611.214910	0.151127
611.423974	0.151245
611.633019	0.151151
611.842045	0.151482
612.051054	0.151449
612.260044	0.151317
612.469017	0.151234
612.677970	0.151413
612.886906	0.151412
613.095824	0.151735
613.304723	0.151797
613.513604	0.152226
613.722467	0.152434
613.931311	0.152808
614.140138	0.152930
614.348946	0.153105
614.557736	0.153190
614.766507	0.153191
614.975261	0.153082
615.183996	0.152961
615.392713	0.152710
615.601412	0.152503
615.810092	0.152335
616.018754	0.152422
616.227399	0.152311
616.436024	0.152462
616.644632	0.152404
616.853222	0.152445
617.061793	0.152660
617.270346	0.152865
617.478880	0.153211
617.687397	0.153413
617.895895	0.153588
618.104375	0.153780
618.312837	0.153984
618.521281	0.154325
618.729706	0.154469
618.938113	0.154704
619.146502	0.154744
619.354873	0.154720
619.563226	0.154588
619.771560	0.154783
619.979876	0.154953
620.188174	0.154795
620.396453	0.154823
620.604715	0.155035
620.812958	0.155284
621.021183	0.155469
621.229390	0.155425
621.437578	0.155654
621.645748	0.155656
621.853900	0.155653
622.062034	0.155680
622.270150	0.155876
622.478247	0.155905
622.686326	0.155758
622.894387	0.155925
623.102430	0.156341
623.310454	0.156441
623.518461	0.156515
623.726449	0.156816
623.934418	0.157067
624.142370	0.157151
624.350303	0.157244
624.558218	0.157347
624.766115	0.157627
624.973994	0.157730
625.181855	0.157833
625.389697	0.157894
625.597521	0.157908
625.805327	0.158115
626.013114	0.158074
626.220883	0.158237
626.428634	0.158402
626.636367	0.158249
626.844082	0.158130
627.051778	0.158281
627.259457	0.158500
627.467117	0.158531
627.674758	0.158375
627.882382	0.158678
628.089987	0.158252
628.297574	0.158277
628.505143	0.158284
628.712694	0.158322
628.920226	0.158376
629.127740	0.158341
629.335236	0.158518
629.542714	0.158802
629.750174	0.158582
629.957615	0.159138
630.165038	0.159019
630.372443	0.159118
630.579829	0.159335
630.787198	0.159385
630.994548	0.159576
631.201880	0.159672
631.409194	0.159921
631.616489	0.160230
631.823766	0.160293
632.031025	0.160829
632.238266	0.161141
632.445489	0.161376
632.652693	0.161608
632.859879	0.161831
633.067047	0.161825
633.274197	0.161892
633.481329	0.162118
633.688442	0.162357
633.895537	0.162139
634.102614	0.162045
634.309672	0.162131
634.516713	0.162135
634.723735	0.162022
634.930739	0.162202
635.137724	0.162289
635.344692	0.162559
635.551641	0.162734
635.758572	0.162988
635.965485	0.163361
636.172379	0.163298
636.379256	0.163598
636.586114	0.163778
636.792954	0.164122
636.999775	0.164089
637.206579	0.164066
637.413364	0.164042
637.620131	0.164234
637.826880	0.164067
638.033610	0.164373
638.240323	0.164285
638.447017	0.164278
638.653692	0.164330
638.860350	0.164719
639.066990	0.164971
639.273611	0.165309
639.480214	0.165395
639.686798	0.165723
639.893365	0.165928
640.099913	0.166329
640.306443	0.166896
640.512955	0.167041
640.719449	0.167246
640.925924	0.167365
641.132381	0.167434
641.338820	0.167467
641.545241	0.167527
641.751644	0.167801
641.958028	0.167885
642.164394	0.167841
642.370742	0.167959
642.577071	0.167761
642.783383	0.167639
642.989676	0.167786
643.195951	0.168069
643.402207	0.168310
643.608446	0.168142
643.814666	0.168287
644.020868	0.168643
644.227052	0.168621
644.433218	0.168858
644.639365	0.169075
644.845494	0.169088
645.051605	0.169116
645.257698	0.169343
645.463772	0.169395
645.669828	0.169355
645.875866	0.169175
646.081886	0.169215
646.287888	0.169275
646.493871	0.169581
646.699836	0.169833
646.905783	0.170086
647.111712	0.170031
647.317622	0.170062
647.523514	0.170280
647.729388	0.170545
647.935244	0.170823
648.141082	0.171070
648.346901	0.171338
648.552702	0.171308
648.758485	0.171359
648.964250	0.171591
649.169996	0.172171
649.375724	0.172253
649.581434	0.172244
649.787126	0.172344
649.992800	0.172384
650.198455	0.172297
650.404092	0.172402
650.609711	0.172590
650.815311	0.172698
651.020894	0.172689
651.226458	0.172731
651.432004	0.172782
651.637532	0.172879
651.843041	0.172924
652.048532	0.172849
652.254006	0.172990
652.459460	0.172984
652.664897	0.173386
652.870315	0.173483
653.075716	0.173855
653.281097	0.174292
653.486461	0.174577
653.691807	0.174908
653.897134	0.175548
654.102443	0.175864
654.307734	0.175945
654.513006	0.175955
654.718261	0.176332
654.923497	0.176565
655.128715	0.176768
655.333915	0.176954
655.539096	0.177260
655.744259	0.177300
655.949404	0.177613
656.154531	0.178120
656.359640	0.178108
656.564730	0.178178
656.769802	0.178324
656.974856	0.178282
657.179892	0.178412
657.384909	0.178378
657.589908	0.178325
657.794889	0.178309
657.999852	0.178474
658.204797	0.178807
658.409723	0.179004
658.614631	0.179114
658.819521	0.179279
659.024393	0.179614
659.229246	0.179694
659.434081	0.179945
659.638898	0.180204
659.843697	0.180384
660.048478	0.180424
660.253240	0.180503
660.457984	0.180670
660.662710	0.180881
660.867417	0.180895
661.072107	0.181371
661.276778	0.181509
661.481431	0.181585
661.686066	0.181747
661.890682	0.182034
662.095281	0.182078
662.299861	0.182250
662.504422	0.182300
662.708966	0.182492
662.913491	0.182536
663.117999	0.182552
663.322488	0.182753
663.526958	0.182854
663.731411	0.183035
663.935845	0.183198
664.140261	0.183437
664.344659	0.183701
664.549038	0.183853
664.753400	0.183988
664.957743	0.184315
665.162068	0.184525
665.366375	0.184763
665.570663	0.185105
665.774933	0.185281
665.979185	0.185265
666.183419	0.185414
666.387635	0.185573
666.591832	0.185892
666.796011	0.185963
667.000172	0.185863
667.204315	0.185886
667.408439	0.185717
667.612545	0.186028
667.816634	0.186352
668.020703	0.186513
668.224755	0.186441
668.428788	0.186421
668.632803	0.186627
668.836800	0.187089
669.040779	0.187335
669.244739	0.187421
669.448681	0.187599
669.652605	0.187854
669.856511	0.188271
670.060399	0.188688
670.264268	0.188900
670.468119	0.189044
670.671952	0.189135
670.875767	0.189160
671.079563	0.189603
671.283341	0.189738
671.487101	0.189986
671.690843	0.190009
671.894567	0.190009
672.098272	0.190181
672.301959	0.190524
672.505628	0.190670
672.709278	0.190985
672.912911	0.191265
673.116525	0.191421
673.320121	0.191381
673.523699	0.191495
673.727258	0.191793
673.930799	0.192058
674.134322	0.192177
674.337827	0.192148
674.541314	0.192330
674.744782	0.192145
674.948232	0.192302
675.151664	0.192476
675.355078	0.192623
675.558474	0.192945
675.761851	0.193050
675.965210	0.193178
676.168551	0.193505
676.371873	0.193611
676.575178	0.193858
676.778464	0.193958
676.981732	0.194098
677.184981	0.194284
677.388213	0.194262
677.591426	0.194487
677.794621	0.194853
677.997798	0.195137
678.200956	0.195436
678.404097	0.195719
678.607219	0.195840
678.810323	0.196073
679.013408	0.196206
679.216476	0.196344
679.419525	0.196545
679.622556	0.196563
679.825569	0.196602
680.028563	0.196655
680.231540	0.196682
680.434498	0.197092
680.637438	0.197152
680.840359	0.197436
681.043263	0.197590
681.246148	0.197731
681.449015	0.197657
681.651864	0.197929
681.854694	0.198122
682.057506	0.198412
682.260301	0.198390
682.463076	0.198518
682.665834	0.198505
682.868573	0.198945
683.071295	0.198905
683.273998	0.199235
683.476682	0.199214
683.679349	0.199202
683.881997	0.199268
684.084627	0.199351
684.287239	0.199410
684.489833	0.199431
684.692408	0.199526
684.894965	0.199584
685.097504	0.199798
685.300025	0.200112
685.502527	0.200182
685.705012	0.200176
685.907478	0.200510
686.109925	0.200725
686.312355	0.200778
686.514766	0.200626
686.717159	0.200842
686.919534	0.200894
687.121891	0.200811
687.324230	0.201119
687.526550	0.201309
687.728852	0.201185
687.931136	0.201234
688.133401	0.201494
688.335649	0.201650
688.537878	0.201705
688.740089	0.201834
688.942281	0.202179
689.144456	0.202339
689.346612	0.202623
689.548750	0.202839
689.750870	0.203098
689.952971	0.203272
690.155055	0.203608
690.357120	0.203979
690.559167	0.204180
690.761195	0.204374
690.963206	0.204465
691.165198	0.204602
691.367172	0.204724
691.569128	0.204644
691.771065	0.205072
691.972984	0.205025
692.174885	0.205141
692.376768	0.205303
692.578633	0.205391
692.780479	0.205492
692.982308	0.205563
693.184118	0.205717
693.385909	0.206009
