sample name	sample
index	1115
start time	 04-22-2021  01:18:49 PM


Wavelength (nm)	Absorbance
494.344910	-0.233982
494.563924	-0.233982
494.782919	-0.233982
495.001897	-0.708515
495.220856	-0.228810
495.439797	-0.200676
495.658719	-0.121446
495.877624	-0.067399
496.096510	-0.029288
496.315378	0.001008
496.534227	0.023171
496.753059	0.063172
496.971872	0.144899
497.190667	0.150604
497.409444	0.140072
497.628203	0.136269
497.846943	0.137164
498.065665	0.139450
498.284369	0.139828
498.503055	0.139843
498.721723	0.140404
498.940372	0.140921
499.159003	0.140669
499.377616	0.141847
499.596210	0.142569
499.814787	0.142831
500.033345	0.143515
500.251885	0.143362
500.470406	0.144756
500.688910	0.144501
500.907395	0.144621
501.125862	0.145045
501.344311	0.144416
501.562742	0.143951
501.781154	0.144238
501.999548	0.142691
502.217924	0.143692
502.436282	0.143580
502.654621	0.143350
502.872942	0.142572
503.091245	0.142011
503.309530	0.144337
503.527797	0.145571
503.746045	0.144348
503.964275	0.145711
504.182487	0.144720
504.400681	0.143539
504.618856	0.143417
504.837013	0.143614
505.055152	0.144362
505.273273	0.143704
505.491376	0.143842
505.709460	0.144072
505.927526	0.145028
506.145574	0.145922
506.363604	0.146951
506.581615	0.147827
506.799608	0.147712
507.017583	0.147359
507.235540	0.146917
507.453478	0.146850
507.671399	0.148462
507.889301	0.148234
508.107185	0.148537
508.325050	0.149430
508.542898	0.150245
508.760727	0.152247
508.978538	0.152441
509.196330	0.152861
509.414105	0.153891
509.631861	0.154296
509.849599	0.153507
510.067319	0.152583
510.285021	0.152249
510.502704	0.151764
510.720369	0.151463
510.938016	0.151345
511.155645	0.152035
511.373255	0.150730
511.590848	0.150422
511.808422	0.150987
512.025977	0.152414
512.243515	0.152353
512.461034	0.152568
512.678536	0.152313
512.896018	0.152536
513.113483	0.151864
513.330930	0.152567
513.548358	0.153314
513.765768	0.153875
513.983160	0.154405
514.200533	0.155067
514.417889	0.155085
514.635226	0.156003
514.852545	0.157136
515.069845	0.158223
515.287128	0.158684
515.504392	0.158361
515.721638	0.157987
515.938866	0.158063
516.156075	0.157735
516.373267	0.158072
516.590440	0.157394
516.807594	0.157408
517.024731	0.157281
517.241850	0.157278
517.458950	0.157910
517.676032	0.158690
517.893095	0.158118
518.110141	0.159237
518.327168	0.159749
518.544177	0.160395
518.761168	0.160601
518.978141	0.161721
519.195095	0.163086
519.412031	0.163192
519.628949	0.163514
519.845849	0.163987
520.062731	0.164197
520.279594	0.164624
520.496439	0.164628
520.713266	0.164146
520.930074	0.164136
521.146865	0.163587
521.363637	0.163591
521.580391	0.164049
521.797127	0.163990
522.013844	0.163951
522.230543	0.164491
522.447224	0.165069
522.663887	0.166176
522.880532	0.166571
523.097158	0.167705
523.313766	0.168036
523.530356	0.168112
523.746928	0.169248
523.963481	0.169641
524.180017	0.170228
524.396534	0.170879
524.613032	0.171088
524.829513	0.171050
525.045975	0.170462
525.262420	0.170726
525.478845	0.171113
525.695253	0.171465
525.911643	0.171984
526.128014	0.171600
526.344367	0.172086
526.560702	0.172023
526.777018	0.171950
526.993316	0.172385
527.209597	0.172354
527.425858	0.173191
527.642102	0.173100
527.858328	0.173274
528.074535	0.173526
528.290724	0.173387
528.506894	0.174167
528.723047	0.174359
528.939181	0.174622
529.155297	0.175504
529.371395	0.175633
529.587475	0.176775
529.803536	0.177514
530.019579	0.178165
530.235604	0.178689
530.451611	0.178945
530.667600	0.179664
530.883570	0.180048
531.099522	0.180152
531.315456	0.180006
531.531372	0.179876
531.747269	0.180567
531.963148	0.180982
532.179009	0.181864
532.394852	0.182170
532.610676	0.182663
532.826482	0.183200
533.042271	0.183836
533.258040	0.184318
533.473792	0.184843
533.689525	0.185315
533.905240	0.186147
534.120937	0.186129
534.336616	0.186384
534.552277	0.187430
534.767919	0.187778
534.983543	0.188107
535.199149	0.187941
535.414736	0.187743
535.630306	0.187046
535.845857	0.186921
536.061390	0.187105
536.276904	0.187496
536.492401	0.187031
536.707879	0.187561
536.923339	0.188001
537.138781	0.188663
537.354204	0.189240
537.569610	0.189493
537.784997	0.189582
538.000366	0.190082
538.215716	0.190978
538.431049	0.191530
538.646363	0.191600
538.861659	0.192030
539.076937	0.192708
539.292196	0.193410
539.507438	0.194203
539.722661	0.194715
539.937866	0.194814
540.153052	0.195173
540.368221	0.195676
540.583371	0.196017
540.798503	0.196295
541.013617	0.196341
541.228712	0.196430
541.443789	0.196764
541.658848	0.197490
541.873889	0.197386
542.088912	0.197423
542.303916	0.197144
542.518902	0.197597
542.733870	0.197652
542.948820	0.197811
543.163752	0.197236
543.378665	0.197344
543.593560	0.197696
543.808437	0.198397
544.023295	0.198713
544.238136	0.198955
544.452958	0.199062
544.667762	0.199232
544.882548	0.199826
545.097315	0.200976
545.312064	0.201089
545.526795	0.200958
545.741508	0.200656
545.956203	0.200823
546.170879	0.201570
546.385537	0.201719
546.600177	0.202622
546.814799	0.202675
547.029402	0.203109
547.243988	0.203477
547.458555	0.203681
547.673103	0.204473
547.887634	0.205123
548.102146	0.205245
548.316640	0.205701
548.531116	0.205922
548.745574	0.206782
548.960013	0.206599
549.174435	0.207054
549.388838	0.207187
549.603222	0.207608
549.817589	0.207330
550.031937	0.207498
550.246267	0.208247
550.460579	0.207861
550.674873	0.207711
550.889148	0.208151
551.103405	0.208530
551.317644	0.208818
551.531865	0.208883
551.746068	0.208940
551.960252	0.208967
552.174418	0.208332
552.388566	0.209106
552.602696	0.209369
552.816807	0.209497
553.030900	0.209200
553.244975	0.209219
553.459032	0.209726
553.673070	0.209727
553.887091	0.210331
554.101093	0.210787
554.315077	0.210797
554.529042	0.210861
554.742990	0.210862
554.956919	0.211598
555.170830	0.211951
555.384722	0.212155
555.598597	0.212949
555.812453	0.212838
556.026291	0.213080
556.240111	0.213365
556.453913	0.213689
556.667696	0.214037
556.881461	0.213971
557.095208	0.214358
557.308937	0.214078
557.522647	0.213562
557.736339	0.213826
557.950013	0.214047
558.163669	0.214095
558.377307	0.213829
558.590926	0.214162
558.804527	0.214169
559.018110	0.213924
559.231675	0.213939
559.445221	0.214597
559.658749	0.214587
559.872259	0.214528
560.085751	0.214812
560.299225	0.214954
560.512680	0.215028
560.726117	0.215386
560.939536	0.215724
561.152937	0.215754
561.366319	0.215488
561.579683	0.215512
561.793029	0.215147
562.006357	0.214581
562.219667	0.214631
562.432958	0.214595
562.646231	0.214482
562.859486	0.214716
563.072723	0.215256
563.285941	0.215540
563.499141	0.215651
563.712323	0.216270
563.925487	0.216420
564.138632	0.216840
564.351760	0.217243
564.564869	0.217521
564.777960	0.217391
564.991032	0.217365
565.204087	0.218129
565.417123	0.218514
565.630141	0.218764
565.843140	0.219290
566.056122	0.219543
566.269085	0.219316
566.482030	0.219466
566.694957	0.219940
566.907866	0.220143
567.120756	0.219857
567.333628	0.220269
567.546482	0.220749
567.759318	0.221036
567.972135	0.220947
568.184935	0.221133
568.397716	0.221315
568.610478	0.221410
568.823223	0.221512
569.035949	0.221321
569.248657	0.221151
569.461347	0.220727
569.674019	0.220485
569.886672	0.220587
570.099308	0.220960
570.311925	0.220841
570.524523	0.220982
570.737104	0.221114
570.949666	0.221061
571.162210	0.221192
571.374736	0.221629
571.587244	0.221958
571.799733	0.221872
572.012205	0.221588
572.224658	0.221515
572.437092	0.221192
572.649509	0.221196
572.861907	0.221540
573.074287	0.221437
573.286649	0.221076
573.498993	0.220827
573.711318	0.221104
573.923625	0.221260
574.135914	0.221541
574.348185	0.221878
574.560438	0.221826
574.772672	0.222291
574.984888	0.222240
575.197086	0.222443
575.409266	0.222732
575.621427	0.222883
575.833570	0.222900
576.045695	0.222924
576.257802	0.223210
576.469890	0.223605
576.681961	0.223377
576.894013	0.223834
577.106046	0.224349
577.318062	0.224221
577.530059	0.224527
577.742039	0.225014
577.954000	0.225261
578.165942	0.225175
578.377867	0.225353
578.589773	0.225675
578.801661	0.225638
579.013531	0.225722
579.225382	0.226100
579.437216	0.226212
579.649031	0.226090
579.860828	0.226362
580.072606	0.226428
580.284367	0.226379
580.496109	0.226548
580.707833	0.227115
580.919539	0.226854
581.131227	0.226878
581.342896	0.226873
581.554547	0.227357
581.766180	0.227238
581.977795	0.227625
582.189391	0.227546
582.400969	0.227579
582.612529	0.227352
582.824071	0.227268
583.035595	0.227761
583.247100	0.227666
583.458587	0.227603
583.670056	0.227842
583.881506	0.227719
584.092939	0.228299
584.304353	0.228282
584.515749	0.228695
584.727127	0.229254
584.938486	0.229290
585.149828	0.229689
585.361151	0.229848
585.572456	0.230112
585.783742	0.230296
585.995011	0.230110
586.206261	0.230688
586.417493	0.230734
586.628706	0.230666
586.839902	0.230929
587.051079	0.231118
587.262238	0.231506
587.473379	0.231459
587.684502	0.231652
587.895606	0.231892
588.106692	0.231671
588.317760	0.231890
588.528810	0.232009
588.739841	0.232043
588.950855	0.231812
589.161850	0.231593
589.372827	0.231908
589.583785	0.232015
589.794726	0.232128
590.005648	0.232335
590.216552	0.232068
590.427437	0.232371
590.638305	0.232295
590.849154	0.232671
591.059985	0.232669
591.270798	0.232937
591.481592	0.233348
591.692369	0.233584
591.903127	0.233799
592.113867	0.234231
592.324588	0.234356
592.535292	0.234937
592.745977	0.234821
592.956644	0.235507
593.167293	0.235857
593.377923	0.235632
593.588536	0.235737
593.799130	0.235621
594.009706	0.235489
594.220263	0.235518
594.430803	0.235290
594.641324	0.235525
594.851827	0.235675
595.062312	0.235400
595.272778	0.235442
595.483227	0.235463
595.693657	0.235876
595.904069	0.236178
596.114462	0.236073
596.324838	0.236317
596.535195	0.236791
596.745534	0.236902
596.955855	0.237464
597.166157	0.237960
597.376441	0.238252
597.586707	0.238278
597.796955	0.238502
598.007185	0.238728
598.217396	0.238606
598.427589	0.238645
598.637764	0.238308
598.847921	0.238179
599.058060	0.238191
599.268180	0.238301
599.478282	0.238821
599.688366	0.238829
599.898431	0.239355
600.108479	0.239657
600.318508	0.239749
600.528519	0.240333
600.738511	0.240161
600.948486	0.240085
601.158442	0.240438
601.368380	0.240493
601.578300	0.240820
601.788202	0.240967
601.998085	0.241084
602.207950	0.241276
602.417797	0.241149
602.627626	0.241258
602.837436	0.241422
603.047228	0.241305
603.257002	0.241296
603.466758	0.241193
603.676496	0.241309
603.886215	0.241657
604.095916	0.241818
604.305599	0.241817
604.515264	0.242169
604.724910	0.242651
604.934538	0.242966
605.144148	0.243173
605.353740	0.243442
605.563314	0.243816
605.772869	0.243851
605.982406	0.244232
606.191925	0.244998
606.401425	0.245484
606.610908	0.245766
606.820372	0.246216
607.029818	0.246150
607.239246	0.246459
607.448655	0.246552
607.658047	0.246768
607.867420	0.246661
608.076775	0.246502
608.286111	0.246534
608.495430	0.246181
608.704730	0.246196
608.914012	0.246138
609.123275	0.246151
609.332521	0.245966
609.541748	0.246513
609.750957	0.246764
609.960148	0.246625
610.169321	0.246630
610.378475	0.246953
610.587611	0.246741
610.796729	0.247262
611.005829	0.247321
611.214910	0.247574
611.423974	0.247406
611.633019	0.247419
611.842045	0.247585
612.051054	0.247667
612.260044	0.247799
612.469017	0.248050
612.677970	0.247997
612.886906	0.247985
613.095824	0.248330
613.304723	0.248221
613.513604	0.248389
613.722467	0.248399
613.931311	0.248460
614.140138	0.248963
614.348946	0.248804
614.557736	0.248965
614.766507	0.249206
614.975261	0.249330
615.183996	0.249498
615.392713	0.249548
615.601412	0.249789
615.810092	0.250113
616.018754	0.249975
616.227399	0.250503
616.436024	0.250634
616.644632	0.251086
616.853222	0.251240
617.061793	0.251527
617.270346	0.251998
617.478880	0.252220
617.687397	0.252318
617.895895	0.252456
618.104375	0.252112
618.312837	0.252072
618.521281	0.251967
618.729706	0.251694
618.938113	0.251835
619.146502	0.251670
619.354873	0.252131
619.563226	0.252345
619.771560	0.252613
619.979876	0.252957
620.188174	0.253298
620.396453	0.253389
620.604715	0.253582
620.812958	0.253536
621.021183	0.253856
621.229390	0.253801
621.437578	0.253922
621.645748	0.253810
621.853900	0.253985
622.062034	0.254172
622.270150	0.254340
622.478247	0.254818
622.686326	0.255252
622.894387	0.255354
623.102430	0.255516
623.310454	0.255521
623.518461	0.255779
623.726449	0.256087
623.934418	0.256326
624.142370	0.256595
624.350303	0.256510
624.558218	0.256617
624.766115	0.256446
624.973994	0.256538
625.181855	0.256892
625.389697	0.257186
625.597521	0.257367
625.805327	0.257573
626.013114	0.257453
626.220883	0.257388
626.428634	0.257250
626.636367	0.257784
626.844082	0.257723
627.051778	0.257628
627.259457	0.257523
627.467117	0.257381
627.674758	0.257043
627.882382	0.257144
628.089987	0.257331
628.297574	0.257708
628.505143	0.257500
628.712694	0.257846
628.920226	0.258234
629.127740	0.258410
629.335236	0.258551
629.542714	0.258885
629.750174	0.259171
629.957615	0.259742
630.165038	0.259935
630.372443	0.260224
630.579829	0.260100
630.787198	0.260016
630.994548	0.260194
631.201880	0.260443
631.409194	0.260564
631.616489	0.261014
631.823766	0.260921
632.031025	0.261013
632.238266	0.260976
632.445489	0.261211
632.652693	0.261359
632.859879	0.261381
633.067047	0.261606
633.274197	0.261858
633.481329	0.261597
633.688442	0.261703
633.895537	0.261509
634.102614	0.261959
634.309672	0.262095
634.516713	0.262443
634.723735	0.262666
634.930739	0.262657
635.137724	0.262523
635.344692	0.262419
635.551641	0.262330
635.758572	0.262732
635.965485	0.262592
636.172379	0.262839
636.379256	0.262684
636.586114	0.262903
636.792954	0.263289
636.999775	0.263722
637.206579	0.264146
637.413364	0.264439
637.620131	0.264566
637.826880	0.265119
638.033610	0.265139
638.240323	0.265153
638.447017	0.265067
638.653692	0.265036
638.860350	0.265297
639.066990	0.265370
639.273611	0.265747
639.480214	0.265804
639.686798	0.265740
639.893365	0.266024
640.099913	0.266564
640.306443	0.266695
640.512955	0.266922
640.719449	0.266960
640.925924	0.267352
641.132381	0.267640
641.338820	0.267675
641.545241	0.267800
641.751644	0.268065
641.958028	0.267944
642.164394	0.268341
642.370742	0.268499
642.577071	0.268690
642.783383	0.268830
642.989676	0.268709
643.195951	0.269111
643.402207	0.269367
643.608446	0.269463
643.814666	0.269838
644.020868	0.270285
644.227052	0.270592
644.433218	0.270680
644.639365	0.270863
644.845494	0.270943
645.051605	0.271087
645.257698	0.271332
645.463772	0.271567
645.669828	0.271532
645.875866	0.271472
646.081886	0.271762
646.287888	0.272007
646.493871	0.272327
646.699836	0.272697
646.905783	0.273126
647.111712	0.272970
647.317622	0.273039
647.523514	0.273464
647.729388	0.273494
647.935244	0.273511
648.141082	0.274010
648.346901	0.274124
648.552702	0.274366
648.758485	0.274265
648.964250	0.274738
649.169996	0.275001
649.375724	0.275151
649.581434	0.275580
649.787126	0.275822
649.992800	0.275590
650.198455	0.275498
650.404092	0.275749
650.609711	0.276179
650.815311	0.276246
651.020894	0.276436
651.226458	0.276462
651.432004	0.276825
651.637532	0.276823
651.843041	0.276938
652.048532	0.277375
652.254006	0.277408
652.459460	0.277635
652.664897	0.277811
652.870315	0.278000
653.075716	0.278413
653.281097	0.278264
653.486461	0.278699
653.691807	0.279068
653.897134	0.279438
654.102443	0.279734
654.307734	0.279687
654.513006	0.280229
654.718261	0.280478
654.923497	0.280677
655.128715	0.281108
655.333915	0.281451
655.539096	0.281739
655.744259	0.281782
655.949404	0.281952
656.154531	0.282413
656.359640	0.282229
656.564730	0.282582
656.769802	0.282922
656.974856	0.283182
657.179892	0.283149
657.384909	0.283343
657.589908	0.283660
657.794889	0.284064
657.999852	0.284296
658.204797	0.284601
658.409723	0.284564
658.614631	0.284526
658.819521	0.284801
659.024393	0.285040
659.229246	0.285277
659.434081	0.285385
659.638898	0.285557
659.843697	0.285465
660.048478	0.285846
660.253240	0.286043
660.457984	0.286332
660.662710	0.286199
660.867417	0.286504
661.072107	0.286700
661.276778	0.286872
661.481431	0.286717
661.686066	0.287208
661.890682	0.287220
662.095281	0.287459
662.299861	0.287452
662.504422	0.287792
662.708966	0.287936
662.913491	0.288077
663.117999	0.288318
663.322488	0.288928
663.526958	0.288675
663.731411	0.288458
663.935845	0.288572
664.140261	0.288687
664.344659	0.288772
664.549038	0.288775
664.753400	0.288815
664.957743	0.288749
665.162068	0.288895
665.366375	0.289432
665.570663	0.290070
665.774933	0.290199
665.979185	0.290708
666.183419	0.290980
666.387635	0.291233
666.591832	0.291679
666.796011	0.292097
667.000172	0.292199
667.204315	0.292264
667.408439	0.292486
667.612545	0.292775
667.816634	0.292721
668.020703	0.292609
668.224755	0.292738
668.428788	0.292855
668.632803	0.293351
668.836800	0.293615
669.040779	0.294003
669.244739	0.294495
669.448681	0.294835
669.652605	0.295204
669.856511	0.295755
670.060399	0.296232
670.264268	0.296451
670.468119	0.296369
670.671952	0.296525
670.875767	0.296591
671.079563	0.296770
671.283341	0.296984
671.487101	0.297492
671.690843	0.297881
671.894567	0.298088
672.098272	0.298465
672.301959	0.298916
672.505628	0.299123
672.709278	0.299539
672.912911	0.299617
673.116525	0.299809
673.320121	0.300003
673.523699	0.300402
673.727258	0.300479
673.930799	0.300522
674.134322	0.300549
674.337827	0.301079
674.541314	0.301187
674.744782	0.301361
674.948232	0.301521
675.151664	0.301854
675.355078	0.301650
675.558474	0.301926
675.761851	0.302330
675.965210	0.302391
676.168551	0.302222
676.371873	0.302298
676.575178	0.302784
676.778464	0.302942
676.981732	0.302830
677.184981	0.303039
677.388213	0.303245
677.591426	0.303049
677.794621	0.303571
677.997798	0.303689
678.200956	0.304098
678.404097	0.304200
678.607219	0.304391
678.810323	0.304448
679.013408	0.304668
679.216476	0.304908
679.419525	0.305066
679.622556	0.305058
679.825569	0.305321
680.028563	0.305381
680.231540	0.305382
680.434498	0.305720
680.637438	0.305901
680.840359	0.306114
681.043263	0.306328
681.246148	0.306607
681.449015	0.306649
681.651864	0.306675
681.854694	0.306879
682.057506	0.307202
682.260301	0.307226
682.463076	0.307520
682.665834	0.307706
682.868573	0.308132
683.071295	0.308700
683.273998	0.309200
683.476682	0.309503
683.679349	0.309651
683.881997	0.309972
684.084627	0.310339
684.287239	0.310513
684.489833	0.310639
684.692408	0.310539
684.894965	0.310446
685.097504	0.310435
685.300025	0.310965
685.502527	0.311400
685.705012	0.311294
685.907478	0.311521
686.109925	0.311757
686.312355	0.311945
686.514766	0.312198
686.717159	0.312430
686.919534	0.312742
687.121891	0.312857
687.324230	0.312907
687.526550	0.313201
687.728852	0.313186
687.931136	0.313265
688.133401	0.313356
688.335649	0.313414
688.537878	0.313717
688.740089	0.314006
688.942281	0.314026
689.144456	0.314266
689.346612	0.314392
689.548750	0.314740
689.750870	0.315044
689.952971	0.315295
690.155055	0.315571
690.357120	0.315694
690.559167	0.315820
690.761195	0.315758
690.963206	0.315807
691.165198	0.315811
691.367172	0.315956
691.569128	0.315858
691.771065	0.316106
691.972984	0.316188
692.174885	0.316365
692.376768	0.316275
692.578633	0.316367
692.780479	0.316385
692.982308	0.316501
693.184118	0.316278
693.385909	0.316453
