sample name	sample
index	889
start time	 04-08-2021  02:43:34 PM


Wavelength (nm)	Absorbance
494.344910	0.035591
494.563924	0.035591
494.782919	0.035591
495.001897	0.020834
495.220856	0.008218
495.439797	0.005668
495.658719	0.006638
495.877624	0.001534
496.096510	0.000609
496.315378	0.002380
496.534227	-0.002449
496.753059	0.010539
496.971872	0.009313
497.190667	0.052075
497.409444	0.076284
497.628203	0.087186
497.846943	0.095108
498.065665	0.099089
498.284369	0.103029
498.503055	0.106567
498.721723	0.108406
498.940372	0.109932
499.159003	0.110065
499.377616	0.111156
499.596210	0.111097
499.814787	0.110512
500.033345	0.111227
500.251885	0.109360
500.470406	0.108863
500.688910	0.108263
500.907395	0.108620
501.125862	0.110252
501.344311	0.110705
501.562742	0.111279
501.781154	0.112355
501.999548	0.112700
502.217924	0.114136
502.436282	0.115442
502.654621	0.115723
502.872942	0.115362
503.091245	0.115420
503.309530	0.115670
503.527797	0.116468
503.746045	0.116520
503.964275	0.116553
504.182487	0.117187
504.400681	0.116932
504.618856	0.116703
504.837013	0.117273
505.055152	0.116679
505.273273	0.116420
505.491376	0.115330
505.709460	0.115176
505.927526	0.115201
506.145574	0.115847
506.363604	0.115683
506.581615	0.116303
506.799608	0.115947
507.017583	0.116389
507.235540	0.116466
507.453478	0.117259
507.671399	0.117605
507.889301	0.118034
508.107185	0.117160
508.325050	0.117710
508.542898	0.118085
508.760727	0.118495
508.978538	0.118281
509.196330	0.118644
509.414105	0.119472
509.631861	0.120288
509.849599	0.119988
510.067319	0.120700
510.285021	0.121100
510.502704	0.121740
510.720369	0.121435
510.938016	0.121973
511.155645	0.121960
511.373255	0.121490
511.590848	0.121580
511.808422	0.121532
512.025977	0.121953
512.243515	0.122260
512.461034	0.121937
512.678536	0.122292
512.896018	0.123702
513.113483	0.124089
513.330930	0.124420
513.548358	0.124259
513.765768	0.125536
513.983160	0.125323
514.200533	0.125392
514.417889	0.125600
514.635226	0.125849
514.852545	0.124412
515.069845	0.124606
515.287128	0.124972
515.504392	0.124605
515.721638	0.124620
515.938866	0.124504
516.156075	0.125163
516.373267	0.125422
516.590440	0.126662
516.807594	0.127487
517.024731	0.127749
517.241850	0.127814
517.458950	0.128262
517.676032	0.127920
517.893095	0.128825
518.110141	0.128539
518.327168	0.129124
518.544177	0.128716
518.761168	0.129159
518.978141	0.129775
519.195095	0.130420
519.412031	0.131061
519.628949	0.131431
519.845849	0.131808
520.062731	0.132003
520.279594	0.132191
520.496439	0.132854
520.713266	0.133055
520.930074	0.133225
521.146865	0.133331
521.363637	0.133362
521.580391	0.133978
521.797127	0.133397
522.013844	0.133183
522.230543	0.133208
522.447224	0.132807
522.663887	0.133116
522.880532	0.132829
523.097158	0.133400
523.313766	0.133574
523.530356	0.132925
523.746928	0.134158
523.963481	0.135241
524.180017	0.135678
524.396534	0.136192
524.613032	0.136707
524.829513	0.137321
525.045975	0.137421
525.262420	0.137934
525.478845	0.138296
525.695253	0.138453
525.911643	0.138957
526.128014	0.139054
526.344367	0.139105
526.560702	0.139210
526.777018	0.139302
526.993316	0.139351
527.209597	0.139283
527.425858	0.140526
527.642102	0.141119
527.858328	0.140672
528.074535	0.141182
528.290724	0.141562
528.506894	0.141591
528.723047	0.142259
528.939181	0.142456
529.155297	0.143131
529.371395	0.142971
529.587475	0.142369
529.803536	0.142655
530.019579	0.142896
530.235604	0.143731
530.451611	0.143505
530.667600	0.143364
530.883570	0.144197
531.099522	0.144176
531.315456	0.144483
531.531372	0.144888
531.747269	0.145415
531.963148	0.145219
532.179009	0.145657
532.394852	0.146278
532.610676	0.147068
532.826482	0.147091
533.042271	0.148098
533.258040	0.148309
533.473792	0.149046
533.689525	0.149154
533.905240	0.149594
534.120937	0.149361
534.336616	0.150110
534.552277	0.150351
534.767919	0.150656
534.983543	0.151022
535.199149	0.151871
535.414736	0.152379
535.630306	0.152691
535.845857	0.153639
536.061390	0.153477
536.276904	0.153949
536.492401	0.153757
536.707879	0.154000
536.923339	0.154259
537.138781	0.154513
537.354204	0.154443
537.569610	0.154838
537.784997	0.155049
538.000366	0.155875
538.215716	0.156010
538.431049	0.156909
538.646363	0.156952
538.861659	0.156637
539.076937	0.156728
539.292196	0.157322
539.507438	0.157282
539.722661	0.157302
539.937866	0.157746
540.153052	0.158040
540.368221	0.158403
540.583371	0.159223
540.798503	0.160006
541.013617	0.160376
541.228712	0.160463
541.443789	0.160871
541.658848	0.161490
541.873889	0.161659
542.088912	0.161533
542.303916	0.162126
542.518902	0.161933
542.733870	0.162553
542.948820	0.162704
543.163752	0.163429
543.378665	0.163956
543.593560	0.164099
543.808437	0.164621
544.023295	0.165561
544.238136	0.165151
544.452958	0.165447
544.667762	0.165591
544.882548	0.165987
545.097315	0.165770
545.312064	0.166049
545.526795	0.166657
545.741508	0.166941
545.956203	0.166663
546.170879	0.167084
546.385537	0.167292
546.600177	0.167189
546.814799	0.167243
547.029402	0.167913
547.243988	0.167541
547.458555	0.167582
547.673103	0.167340
547.887634	0.168162
548.102146	0.168129
548.316640	0.168883
548.531116	0.169208
548.745574	0.169457
548.960013	0.169242
549.174435	0.170275
549.388838	0.170223
549.603222	0.170355
549.817589	0.170337
550.031937	0.170710
550.246267	0.170865
550.460579	0.171410
550.674873	0.171819
550.889148	0.172398
551.103405	0.172730
551.317644	0.173051
551.531865	0.173593
551.746068	0.173688
551.960252	0.173885
552.174418	0.173507
552.388566	0.173357
552.602696	0.173457
552.816807	0.173359
553.030900	0.173329
553.244975	0.173707
553.459032	0.174370
553.673070	0.174428
553.887091	0.174473
554.101093	0.174872
554.315077	0.174881
554.529042	0.175280
554.742990	0.175486
554.956919	0.175701
555.170830	0.175786
555.384722	0.176075
555.598597	0.176428
555.812453	0.177057
556.026291	0.177254
556.240111	0.177644
556.453913	0.177784
556.667696	0.178096
556.881461	0.178425
557.095208	0.178541
557.308937	0.178546
557.522647	0.178737
557.736339	0.178789
557.950013	0.179270
558.163669	0.179468
558.377307	0.179835
558.590926	0.180252
558.804527	0.180322
559.018110	0.180466
559.231675	0.180626
559.445221	0.180928
559.658749	0.181037
559.872259	0.181082
560.085751	0.181307
560.299225	0.181461
560.512680	0.181273
560.726117	0.181553
560.939536	0.181756
561.152937	0.181597
561.366319	0.181883
561.579683	0.181912
561.793029	0.182085
562.006357	0.182068
562.219667	0.182112
562.432958	0.182498
562.646231	0.182250
562.859486	0.182769
563.072723	0.183553
563.285941	0.183817
563.499141	0.183992
563.712323	0.183468
563.925487	0.183751
564.138632	0.183715
564.351760	0.183656
564.564869	0.184118
564.777960	0.184097
564.991032	0.183910
565.204087	0.183922
565.417123	0.184553
565.630141	0.185884
565.843140	0.185991
566.056122	0.186106
566.269085	0.186616
566.482030	0.186467
566.694957	0.186600
566.907866	0.186949
567.120756	0.186967
567.333628	0.186934
567.546482	0.186621
567.759318	0.186827
567.972135	0.187696
568.184935	0.187349
568.397716	0.188062
568.610478	0.188192
568.823223	0.187897
569.035949	0.187765
569.248657	0.187877
569.461347	0.188028
569.674019	0.188242
569.886672	0.187819
570.099308	0.188089
570.311925	0.188062
570.524523	0.188285
570.737104	0.188837
570.949666	0.189281
571.162210	0.189612
571.374736	0.189877
571.587244	0.190316
571.799733	0.190414
572.012205	0.190562
572.224658	0.190899
572.437092	0.190994
572.649509	0.191041
572.861907	0.191182
573.074287	0.191162
573.286649	0.191149
573.498993	0.191315
573.711318	0.191477
573.923625	0.191768
574.135914	0.191521
574.348185	0.191713
574.560438	0.191637
574.772672	0.191685
574.984888	0.191726
575.197086	0.191919
575.409266	0.192024
575.621427	0.192197
575.833570	0.192462
576.045695	0.192879
576.257802	0.192786
576.469890	0.193276
576.681961	0.193449
576.894013	0.193390
577.106046	0.193993
577.318062	0.193928
577.530059	0.194333
577.742039	0.194682
577.954000	0.194560
578.165942	0.194647
578.377867	0.194386
578.589773	0.194561
578.801661	0.194862
579.013531	0.194527
579.225382	0.194617
579.437216	0.194630
579.649031	0.194742
579.860828	0.195150
580.072606	0.195577
580.284367	0.195476
580.496109	0.195520
580.707833	0.195930
580.919539	0.196048
581.131227	0.196111
581.342896	0.196109
581.554547	0.195908
581.766180	0.195924
581.977795	0.196334
582.189391	0.197410
582.400969	0.197664
582.612529	0.197647
582.824071	0.197691
583.035595	0.198095
583.247100	0.198461
583.458587	0.198598
583.670056	0.198631
583.881506	0.198712
584.092939	0.198389
584.304353	0.198839
584.515749	0.199251
584.727127	0.199715
584.938486	0.199683
585.149828	0.199714
585.361151	0.199933
585.572456	0.200397
585.783742	0.200553
585.995011	0.200935
586.206261	0.200963
586.417493	0.200836
586.628706	0.201014
586.839902	0.201267
587.051079	0.201551
587.262238	0.201758
587.473379	0.202108
587.684502	0.202547
587.895606	0.202176
588.106692	0.202339
588.317760	0.202550
588.528810	0.202622
588.739841	0.202883
588.950855	0.202878
589.161850	0.203020
589.372827	0.202903
589.583785	0.202491
589.794726	0.202525
590.005648	0.202690
590.216552	0.203021
590.427437	0.203683
590.638305	0.203827
590.849154	0.203833
591.059985	0.203879
591.270798	0.204042
591.481592	0.204014
591.692369	0.204564
591.903127	0.204574
592.113867	0.204659
592.324588	0.204179
592.535292	0.204240
592.745977	0.204638
592.956644	0.204566
593.167293	0.204882
593.377923	0.205067
593.588536	0.205106
593.799130	0.205001
594.009706	0.205146
594.220263	0.205259
594.430803	0.205699
594.641324	0.205578
594.851827	0.206241
595.062312	0.206123
595.272778	0.206626
595.483227	0.206953
595.693657	0.207065
595.904069	0.206949
596.114462	0.207383
596.324838	0.207071
596.535195	0.207292
596.745534	0.207427
596.955855	0.207832
597.166157	0.208135
597.376441	0.208353
597.586707	0.208803
597.796955	0.209090
598.007185	0.209031
598.217396	0.209366
598.427589	0.209492
598.637764	0.210024
598.847921	0.209775
599.058060	0.209956
599.268180	0.210424
599.478282	0.210756
599.688366	0.211003
599.898431	0.211130
600.108479	0.211181
600.318508	0.211131
600.528519	0.210882
600.738511	0.211124
600.948486	0.211001
601.158442	0.210619
601.368380	0.210704
601.578300	0.210807
601.788202	0.210981
601.998085	0.211253
602.207950	0.212046
602.417797	0.212164
602.627626	0.212378
602.837436	0.212418
603.047228	0.212635
603.257002	0.212748
603.466758	0.212963
603.676496	0.213427
603.886215	0.213663
604.095916	0.213613
604.305599	0.213666
604.515264	0.213935
604.724910	0.214410
604.934538	0.214610
605.144148	0.214603
605.353740	0.214889
605.563314	0.214898
605.772869	0.214649
605.982406	0.214478
606.191925	0.214837
606.401425	0.214960
606.610908	0.214760
606.820372	0.214844
607.029818	0.215065
607.239246	0.215302
607.448655	0.215285
607.658047	0.215645
607.867420	0.216160
608.076775	0.216118
608.286111	0.216265
608.495430	0.216504
608.704730	0.216780
608.914012	0.216852
609.123275	0.216776
609.332521	0.216766
609.541748	0.216695
609.750957	0.216702
609.960148	0.217053
610.169321	0.217200
610.378475	0.217227
610.587611	0.217182
610.796729	0.217236
611.005829	0.217298
611.214910	0.217572
611.423974	0.218107
611.633019	0.218040
611.842045	0.217812
612.051054	0.218306
612.260044	0.218581
612.469017	0.218850
612.677970	0.219174
612.886906	0.219296
613.095824	0.219583
613.304723	0.219322
613.513604	0.219658
613.722467	0.220001
613.931311	0.219895
614.140138	0.219940
614.348946	0.219998
614.557736	0.220273
614.766507	0.220348
614.975261	0.220545
615.183996	0.220881
615.392713	0.221007
615.601412	0.221216
615.810092	0.221195
616.018754	0.221424
616.227399	0.221754
616.436024	0.221743
616.644632	0.222203
616.853222	0.222500
617.061793	0.222648
617.270346	0.222677
617.478880	0.222901
617.687397	0.222939
617.895895	0.223021
618.104375	0.223186
618.312837	0.223240
618.521281	0.223131
618.729706	0.222967
618.938113	0.223340
619.146502	0.223607
619.354873	0.223769
619.563226	0.223879
619.771560	0.224046
619.979876	0.224116
620.188174	0.224262
620.396453	0.224273
620.604715	0.224300
620.812958	0.223981
621.021183	0.224134
621.229390	0.224284
621.437578	0.224581
621.645748	0.224671
621.853900	0.224706
622.062034	0.224689
622.270150	0.225167
622.478247	0.225341
622.686326	0.225822
622.894387	0.226113
623.102430	0.225957
623.310454	0.225612
623.518461	0.225722
623.726449	0.225612
623.934418	0.225950
624.142370	0.225742
624.350303	0.226138
624.558218	0.226199
624.766115	0.226394
624.973994	0.226838
625.181855	0.227421
625.389697	0.227785
625.597521	0.228039
625.805327	0.228249
626.013114	0.228556
626.220883	0.228697
626.428634	0.228751
626.636367	0.228797
626.844082	0.228741
627.051778	0.229067
627.259457	0.229206
627.467117	0.229305
627.674758	0.229079
627.882382	0.229559
628.089987	0.229417
628.297574	0.229500
628.505143	0.229473
628.712694	0.229649
628.920226	0.229392
629.127740	0.229276
629.335236	0.229423
629.542714	0.229898
629.750174	0.229578
629.957615	0.229789
630.165038	0.230026
630.372443	0.230084
630.579829	0.230103
630.787198	0.230619
630.994548	0.230875
631.201880	0.230907
631.409194	0.231015
631.616489	0.231328
631.823766	0.231623
632.031025	0.231906
632.238266	0.232426
632.445489	0.232693
632.652693	0.232958
632.859879	0.233131
633.067047	0.233701
633.274197	0.233822
633.481329	0.234117
633.688442	0.234239
633.895537	0.234193
634.102614	0.234026
634.309672	0.233969
634.516713	0.233740
634.723735	0.233951
634.930739	0.234091
635.137724	0.234226
635.344692	0.233949
635.551641	0.234146
635.758572	0.234446
635.965485	0.234927
636.172379	0.235332
636.379256	0.235471
636.586114	0.235576
636.792954	0.235389
636.999775	0.235588
637.206579	0.236067
637.413364	0.235990
637.620131	0.236014
637.826880	0.236234
638.033610	0.236342
638.240323	0.236477
638.447017	0.236792
638.653692	0.237239
638.860350	0.237391
639.066990	0.237346
639.273611	0.237636
639.480214	0.237867
639.686798	0.237777
639.893365	0.237850
640.099913	0.238199
640.306443	0.238172
640.512955	0.238157
640.719449	0.238342
640.925924	0.238626
641.132381	0.238789
641.338820	0.238965
641.545241	0.239021
641.751644	0.239215
641.958028	0.239379
642.164394	0.239342
642.370742	0.239504
642.577071	0.239604
642.783383	0.239850
642.989676	0.240113
643.195951	0.240361
643.402207	0.240501
643.608446	0.240913
643.814666	0.240982
644.020868	0.241529
644.227052	0.241742
644.433218	0.242003
644.639365	0.241904
644.845494	0.242088
645.051605	0.242293
645.257698	0.242559
645.463772	0.242354
645.669828	0.242451
645.875866	0.242390
646.081886	0.242682
646.287888	0.242396
646.493871	0.242675
646.699836	0.242490
646.905783	0.242854
647.111712	0.243008
647.317622	0.243244
647.523514	0.243744
647.729388	0.243945
647.935244	0.244024
648.141082	0.244458
648.346901	0.244526
648.552702	0.244861
648.758485	0.244659
648.964250	0.244726
649.169996	0.244889
649.375724	0.244695
649.581434	0.244969
649.787126	0.245288
649.992800	0.245451
650.198455	0.245835
650.404092	0.246181
650.609711	0.246344
650.815311	0.246615
651.020894	0.246950
651.226458	0.246998
651.432004	0.246929
651.637532	0.247165
651.843041	0.247443
652.048532	0.247576
652.254006	0.247734
652.459460	0.247820
652.664897	0.247858
652.870315	0.247958
653.075716	0.248060
653.281097	0.248112
653.486461	0.247888
653.691807	0.248190
653.897134	0.248403
654.102443	0.248230
654.307734	0.248446
654.513006	0.248896
654.718261	0.248934
654.923497	0.249421
655.128715	0.250057
655.333915	0.250445
655.539096	0.250508
655.744259	0.250618
655.949404	0.251328
656.154531	0.251527
656.359640	0.251672
656.564730	0.251903
656.769802	0.252100
656.974856	0.251975
657.179892	0.252069
657.384909	0.252301
657.589908	0.252544
657.794889	0.252328
657.999852	0.252609
658.204797	0.252512
658.409723	0.252637
658.614631	0.252693
658.819521	0.252904
659.024393	0.253070
659.229246	0.253185
659.434081	0.253297
659.638898	0.253759
659.843697	0.253936
660.048478	0.254430
660.253240	0.254705
660.457984	0.254977
660.662710	0.255350
660.867417	0.255847
661.072107	0.256081
661.276778	0.256472
661.481431	0.256352
661.686066	0.256298
661.890682	0.256221
662.095281	0.256678
662.299861	0.257176
662.504422	0.257292
662.708966	0.257565
662.913491	0.257821
663.117999	0.257850
663.322488	0.258540
663.526958	0.259054
663.731411	0.259374
663.935845	0.259512
664.140261	0.259455
664.344659	0.259603
664.549038	0.259586
664.753400	0.259692
664.957743	0.259867
665.162068	0.259701
665.366375	0.259751
665.570663	0.259992
665.774933	0.259994
665.979185	0.260164
666.183419	0.260446
666.387635	0.260638
666.591832	0.261047
666.796011	0.261382
667.000172	0.261465
667.204315	0.261954
667.408439	0.262051
667.612545	0.262457
667.816634	0.262791
668.020703	0.263070
668.224755	0.263446
668.428788	0.263680
668.632803	0.263863
668.836800	0.264251
669.040779	0.264377
669.244739	0.264636
669.448681	0.264836
669.652605	0.264821
669.856511	0.265247
670.060399	0.265364
670.264268	0.265509
670.468119	0.265539
670.671952	0.265820
670.875767	0.265887
671.079563	0.266099
671.283341	0.266266
671.487101	0.266550
671.690843	0.266620
671.894567	0.266641
672.098272	0.266583
672.301959	0.266971
672.505628	0.267068
672.709278	0.267388
672.912911	0.267703
673.116525	0.267698
673.320121	0.268172
673.523699	0.268166
673.727258	0.268472
673.930799	0.268828
674.134322	0.268884
674.337827	0.269289
674.541314	0.269342
674.744782	0.269312
674.948232	0.269517
675.151664	0.269689
675.355078	0.269894
675.558474	0.269980
675.761851	0.270467
675.965210	0.270736
676.168551	0.270777
676.371873	0.271008
676.575178	0.271311
676.778464	0.271715
676.981732	0.271787
677.184981	0.272104
677.388213	0.272271
677.591426	0.272166
677.794621	0.272324
677.997798	0.272312
678.200956	0.272678
678.404097	0.272759
678.607219	0.272843
678.810323	0.272808
679.013408	0.272831
679.216476	0.273283
679.419525	0.273716
679.622556	0.273917
679.825569	0.274271
680.028563	0.274287
680.231540	0.274587
680.434498	0.274996
680.637438	0.275476
680.840359	0.275649
681.043263	0.275623
681.246148	0.275953
681.449015	0.276054
681.651864	0.276259
681.854694	0.276329
682.057506	0.276667
682.260301	0.276744
682.463076	0.276746
682.665834	0.277222
682.868573	0.277341
683.071295	0.276975
683.273998	0.277133
683.476682	0.277100
683.679349	0.277441
683.881997	0.277500
684.084627	0.277595
684.287239	0.277857
684.489833	0.277790
684.692408	0.278081
684.894965	0.278363
685.097504	0.278929
685.300025	0.279569
685.502527	0.279599
685.705012	0.279779
685.907478	0.280088
686.109925	0.280504
686.312355	0.281166
686.514766	0.281494
686.717159	0.281780
686.919534	0.282138
687.121891	0.282218
687.324230	0.282539
687.526550	0.282868
687.728852	0.283106
687.931136	0.283060
688.133401	0.282955
688.335649	0.283193
688.537878	0.283439
688.740089	0.283329
688.942281	0.283485
689.144456	0.283737
689.346612	0.283693
689.548750	0.283763
689.750870	0.283998
689.952971	0.284029
690.155055	0.284134
690.357120	0.284285
690.559167	0.284542
690.761195	0.284658
690.963206	0.284531
691.165198	0.284822
691.367172	0.284906
691.569128	0.284903
691.771065	0.285130
691.972984	0.285213
692.174885	0.285382
692.376768	0.285354
692.578633	0.285498
692.780479	0.285734
692.982308	0.285966
693.184118	0.286161
693.385909	0.286480
