sample name	sample
index	849
start time	 04-08-2021  10:40:39 AM
880	0.401191
Peak Time (s)	102.536
Peak Height 	0.4012
calc peak height	100,103
Baseline Time (s)	8.54
Baseline Value 	-0.004219
subtract baseline	10,4
Abs	0.322076
Peak Time (s)	102.536
Peak Height 	0.3221
calc peak height	100,103
Baseline Time (s)	10.035
Baseline Value 	0.001218
subtract baseline	10,3
PK_550	0.176301
Peak Time (s)	102.035
Peak Height 	0.1763
calc peak height	100,103
Baseline Time (s)	9.037
Baseline Value 	2.5727E-4
subtract baseline	10,2
PK_880	0.309847
Peak Time (s)	102.536
Peak Height 	0.3098
calc peak height	100,103
Baseline Time (s)	10.035
Baseline Value 	0.002035
subtract baseline	10,1


Time (s)	A880-A510	A880-A775	A880-A975	A880	I510	I775	I975	I880	
0.035000	-0.006745	-0.000102	-0.004535	0.007725	6733.095000	41904.677909	3797.490842	22306.918637
0.535500	-0.002612	0.000275	-0.006590	0.005475	6792.835698	42142.475778	3797.996100	22408.836527
1.038500	-0.001496	0.000000	0.003440	0.004367	6813.862453	42218.181645	3827.312011	22459.248923
1.536000	0.000742	0.000402	-0.003173	0.000783	6869.404569	42582.420443	3819.266209	22623.126829
2.038000	-0.002655	-0.000009	-0.002346	0.006513	6782.661460	42022.626419	3806.360168	22361.775234
2.536500	0.000390	-0.000308	-0.003674	0.000127	6872.326338	42577.376034	3819.674864	22653.238383
3.036500	0.003106	0.000053	-0.002257	-0.001181	6911.184356	42730.823877	3826.917333	22713.483590
3.537000	-0.002461	-0.000444	0.003667	0.000310	6843.275255	42548.143878	3838.792115	22644.850911
4.034000	-0.001369	-0.000369	0.002850	0.000728	6849.705222	42516.709973	3835.471114	22625.645299
4.537500	-0.001641	0.000091	0.003667	0.000542	6848.890575	42575.929015	3838.167616	22634.189342
5.035500	0.000999	-0.000007	-0.001591	0.000329	6876.242798	42586.488380	3824.669525	22643.980649
5.535500	0.000452	-0.000192	0.000355	0.000193	6872.282710	42581.930229	3830.218814	22650.209474
6.035500	0.000576	0.000969	-0.002302	0.001152	6864.272810	42600.486088	3820.594853	22606.174562
6.539000	-0.000796	0.000444	0.000902	0.000700	6855.454636	42593.776653	3830.326779	22626.910824
7.036500	-0.000654	-0.000121	0.004205	0.000120	6862.364803	42595.191592	3840.750818	22653.557598
7.539000	-0.000491	0.000452	0.002188	0.000086	6864.267375	42651.007923	3835.417235	22655.145042
8.037000	-0.000431	0.000007	0.004367	-0.000142	6867.030147	42631.030552	3841.896670	22665.634398
8.540000	0.001058	-0.000111	0.002304	0.000000	6879.975261	42607.141892	3835.959624	22659.083738
9.037500	-0.000395	0.000000	-0.002139	-0.000374	6869.596521	42651.734711	3825.083051	22676.313174
9.538500	0.000447	0.000573	0.003065	0.000274	6871.453587	42644.717820	3837.266854	22646.467111
10.035000	0.000000	0.001073	0.000000	0.000634	6863.710937	42657.676379	3828.093619	22629.935159
10.536000	-0.001568	-0.000382	-0.001033	-0.000230	6856.966930	42603.291394	3827.642223	22669.651456
11.038500	0.000044	-0.000148	0.001626	-0.000230	6872.435086	42624.897720	3834.757947	22669.683489
11.537500	-0.000608	0.000396	-0.002047	0.000063	6863.356036	42647.902597	3824.163957	22656.182675
12.036500	-0.000491	0.000772	0.002144	-0.000076	6865.818405	42695.315681	3835.734674	22662.591199
12.536500	0.001066	0.000024	0.004586	-0.000255	6882.508086	42642.982701	3842.793903	22670.837023
13.037000	0.001151	0.000091	0.001721	-0.002225	6902.354967	42830.715073	3840.377038	22761.694385
13.537500	-0.004134	-0.000105	0.001210	0.003158	6800.341583	42318.743360	3824.595971	22514.383224
14.035000	-0.000513	-0.000041	-0.003953	-0.000842	6872.954221	42690.906818	3821.504791	22697.827857
14.535000	-0.001550	0.000758	-0.000803	0.001981	6836.024219	42505.103658	3822.373466	22568.181734
15.035500	-0.002109	0.000167	-0.001249	-0.001073	6859.859548	42731.336448	3829.314971	22708.477091
15.550500	-0.002696	0.000072	-0.004329	0.002832	6817.039911	42364.573834	3810.811769	22529.263661
16.039000	0.000906	0.000809	0.001356	-0.001177	6889.855815	42800.187034	3836.573983	22713.305785
16.536000	0.000962	0.001412	0.002310	-0.000518	6884.040341	42794.994657	3837.368433	22682.927539
17.036500	-0.000969	0.000731	0.000436	-0.001411	6874.050100	42814.551908	3834.733160	22724.087945
17.537000	-0.001646	-0.000103	0.000096	0.001223	6842.325229	42495.651155	3826.777816	22602.900645
18.037500	-0.001547	0.000089	0.000593	0.000205	6852.999135	42606.658654	3830.823637	22649.646725
18.534000	-0.002007	0.000631	0.001505	0.001008	6840.934382	42582.698143	3831.114997	22612.764807
19.035000	-0.001942	0.000431	0.005221	0.000703	6844.471780	42592.356568	3841.920184	22626.789539
19.535500	-0.001920	0.000494	-0.000870	0.002026	6832.068677	42476.838197	3822.074893	22566.125936
20.035500	-0.002441	0.000795	0.002978	0.000797	6838.814117	42617.194070	3835.628362	22622.477331
20.536000	-0.000721	0.000905	0.000580	0.000896	6854.296996	42618.081478	3828.941415	22617.903147
21.036000	-0.002535	0.001030	0.004786	0.001284	6833.280914	42594.000794	3839.181369	22600.128055
21.536500	-0.001165	0.000245	-0.001365	0.001428	6844.970509	42508.788774	3822.349126	22593.522198
22.036500	-0.000873	0.000745	-0.002118	0.000850	6853.281949	42607.687037	3821.886317	22620.044318
22.537500	-0.000738	0.000256	0.003315	0.000803	6855.030415	42567.185537	3836.517332	22622.204859
23.037500	-0.000271	0.000116	0.000147	0.000235	6864.940466	42606.387015	3829.550885	22648.268400
23.535000	-0.000721	-0.000342	-0.003098	-0.000036	6863.225202	42589.223684	3821.636046	22660.747382
24.035000	0.000545	0.000911	0.003097	0.001333	6862.239108	42578.558629	3834.508881	22597.876970
24.535500	-0.001481	0.000107	-0.001218	0.000323	6852.505643	42597.487659	3825.676152	22644.213352
25.038500	-0.001054	0.000394	-0.001660	0.000844	6851.608188	42576.023296	3823.116465	22620.300125
25.536000	-0.002699	0.000385	0.000423	0.000356	6840.554134	42620.012595	3829.966598	22642.709770
26.036000	-0.000120	-0.000438	-0.002387	0.000099	6867.689701	42567.985733	3823.163337	22654.519665
26.536500	-0.002118	0.000200	0.002258	0.000825	6841.631732	42560.006891	3833.622768	22621.198571
27.037000	-0.001352	0.000159	-0.000644	0.000492	6852.121740	42586.738961	3826.756625	22636.479112
27.536000	-0.000137	0.000338	-0.002214	-0.000628	6874.525903	42706.177265	3825.558943	22688.008550
28.034500	0.002164	0.000901	0.005994	-0.002595	6915.763334	42939.769189	3852.961595	22778.786710
28.538000	0.000238	-0.000452	-0.004063	-0.002319	6894.431037	42789.217546	3825.136776	22766.016971
29.049000	-0.000860	0.000157	0.004764	-0.001968	6880.461390	42813.073028	3847.912314	22749.823488
29.535000	-0.002217	0.001383	0.000777	0.003600	6814.294975	42414.155544	3822.269030	22494.183184
30.035500	-0.000492	0.000020	0.003951	-0.001941	6883.733119	42797.875494	3845.634967	22748.540129
30.536000	0.000171	0.000839	0.001265	-0.000977	6880.840699	42784.443696	3835.790119	22704.052534
31.058000	0.000597	0.000632	0.003528	-0.000766	6882.905330	42745.962469	3841.315155	22694.326560
31.536500	-0.002196	0.000607	0.001015	0.003980	6810.902146	42308.685396	3821.893753	22476.885796
32.034500	-0.000772	0.000850	0.000334	0.001558	6847.478976	42552.314483	3826.522742	22587.557269
32.551000	-0.000276	0.000394	0.004035	-0.001345	6880.074522	42777.321373	3844.249224	22721.022154
33.035000	0.001393	0.000597	0.005006	-0.001136	6894.159735	42776.848518	3846.311382	22711.381048
33.535000	-0.003214	-0.000127	-0.001466	0.004224	6798.961062	42219.593196	3814.684781	22465.752504
34.036000	-0.001197	0.000340	0.004148	-0.000898	6866.925006	42731.198844	3843.345983	22700.421650
34.535500	0.000975	0.000270	0.005548	-0.001538	6894.000937	42783.748513	3848.870932	22729.929694
35.036000	-0.000214	0.000014	0.000894	0.000876	6859.343971	42538.209914	3829.835635	22618.830537
35.537000	-0.002193	0.000302	-0.003751	0.001803	6831.591194	42479.685361	3815.042036	22576.320020
36.131000	-0.000511	0.000398	-0.001003	0.000978	6855.522721	42564.090795	3824.506407	22614.149296
36.536000	-0.001487	-0.000359	-0.001386	0.000551	6850.267984	42533.744580	3824.622032	22633.747398
37.051000	-0.000047	0.000757	0.002662	0.001208	6857.761912	42575.865330	3833.678076	22603.586634
37.535000	-0.002164	0.000190	-0.002813	0.001819	6831.714221	42467.988902	3817.477302	22575.602534
38.046000	-0.002596	0.000620	-0.000334	0.000869	6836.643752	42594.431040	3826.577740	22619.150684
38.538000	-0.001142	-0.000320	0.001811	0.000725	6851.904343	42521.489921	3832.692932	22625.779699
39.037000	-0.000094	0.000686	-0.000825	0.001426	6855.224294	42549.398783	3823.787991	22593.618005
39.536000	-0.000742	-0.000599	0.004493	0.001229	6850.915333	42449.801125	3838.541104	22602.651459
40.036000	-0.000028	0.000041	-0.003966	0.001445	6855.668031	42488.580743	3815.420325	22592.729664
40.536500	-0.001973	-0.000262	-0.000958	0.000578	6845.370915	42540.221269	3825.690422	22632.525279
41.036500	0.000263	0.001243	0.000628	0.001452	6858.388411	42598.071074	3827.586243	22592.401245
41.537000	-0.001654	0.000540	0.003073	0.002031	6834.558221	42480.635813	3832.574518	22565.908454
42.037500	0.000534	0.001460	0.000062	0.002207	6853.760025	42548.778454	3824.069659	22557.836104
42.537000	-0.001783	0.000051	0.001644	0.001150	6841.720618	42516.461553	3831.105151	22606.241399
43.036000	-0.000404	0.000027	0.001337	0.001095	6855.424052	42519.332520	3830.432712	22608.772807
43.538000	-0.000422	0.000048	0.000901	0.001419	6852.150841	42491.590250	3828.403088	22593.930964
44.035500	-0.000820	0.000322	0.001946	0.001518	6847.398242	42507.581972	3830.930465	22589.369601
44.536000	-0.001946	-0.000166	-0.000407	0.001159	6840.077441	42495.783944	3825.609879	22605.848549
45.036500	0.001049	0.000052	0.000481	-0.002105	6900.201450	42815.914936	3836.716805	22756.129048
45.536500	-0.004675	-0.000143	-0.004729	0.005777	6770.598980	42077.105759	3802.053799	22395.128635
46.058000	0.001928	0.000183	0.004660	-0.001449	6902.357931	42767.529793	3846.223023	22725.841523
46.537000	0.001247	0.000266	-0.000342	-0.001473	6896.004054	42777.353710	3832.811793	22726.947077
47.040000	0.001074	0.000604	0.006931	-0.000900	6888.810579	42755.722884	3850.900177	22700.536741
47.537500	-0.002532	0.000310	-0.003045	0.005146	6796.694054	42175.528842	3808.107141	22423.794478
48.040500	0.001871	0.001382	0.002524	-0.000653	6894.109586	42804.640576	3838.305034	22689.129350
48.535000	0.000455	0.000819	0.006523	-0.000744	6881.330040	42761.192888	3849.363952	22693.336883
49.038500	-0.001395	0.000166	0.001019	0.002237	6835.060309	42427.588404	3826.538441	22556.480913
49.536000	-0.003908	0.000280	-0.000014	0.004646	6788.437802	42218.204991	3817.403903	22446.539529
50.039000	0.001334	0.000623	0.002603	-0.001376	6895.908004	42801.384040	3840.464794	22722.458899
50.536500	-0.001654	0.000669	0.002994	-0.001388	6867.242949	42806.783383	3841.552343	22723.033080
51.040000	0.000693	0.001137	0.002383	-0.000890	6885.029794	42803.970167	3838.564686	22700.064743
51.537000	-0.000642	0.001481	0.001004	0.004792	6817.928077	42314.364104	3819.710840	22439.916014
52.040000	0.000440	0.001156	-0.005927	-0.002490	6898.037162	42953.689956	3820.641520	22773.928450
52.540000	0.001237	-0.000890	0.006074	-0.021588	7094.901681	44564.835527	3906.094752	23677.060884
53.041000	-0.057526	-0.018565	0.033300	0.222806	4885.870938	25606.593558	3419.505224	14643.046221
53.535500	-0.054351	-0.019208	0.002078	0.013799	6263.977559	39697.521752	3798.891836	22034.413960
54.035500	-0.046476	-0.021033	-0.005447	-0.108740	7512.848468	51545.791251	4141.328541	28342.089512
54.536000	-0.021593	-0.032405	0.002885	-0.197930	8959.078178	61127.035741	4511.869409	34191.273156
55.036000	-0.016873	-0.021093	0.002402	-0.159183	8487.270249	57551.569314	4352.746579	31502.075650
55.536500	-0.015586	-0.026370	0.001097	-0.184177	8848.404185	60098.199736	4447.110847	33209.197661
56.042500	-0.009117	-0.020052	0.007925	-0.165558	8678.732151	58495.884838	4399.495718	31928.207208
56.537000	-0.001882	-0.014458	0.011403	-0.150656	8574.071956	57313.129344	4354.584924	30941.785603
57.035000	0.015097	-0.004178	0.022335	-0.131800	8548.732140	56245.813742	4324.117688	29741.225364
57.538000	0.034258	0.005745	0.033203	-0.115171	8582.947049	55425.628596	4302.314297	28724.825916
58.035500	0.051174	0.017241	0.048367	-0.078307	8318.759660	52435.168166	4222.734317	26605.681840
58.535500	0.065402	0.023294	0.059104	-0.065061	8331.497011	51618.584858	4213.788045	25887.144832
59.036000	0.084264	0.036091	0.079195	-0.015146	7942.770926	47613.160026	4111.301512	23367.985263
59.536000	0.094020	0.045234	0.099605	0.031041	7520.780551	43942.678848	4028.216000	21281.275866
60.036500	0.108463	0.053097	0.112869	0.065803	7300.364851	41467.006808	3962.597832	19850.805987
60.537000	0.122999	0.061605	0.131669	0.080431	7299.378757	40924.790725	3975.077351	19282.234386
61.034500	0.132923	0.069823	0.146032	0.101887	7178.815612	39777.869521	3953.926482	18482.188859
61.537500	0.134036	0.076219	0.153836	0.129726	6911.403927	37992.655299	3896.020221	17501.330367
62.040500	0.148545	0.082280	0.159165	0.132029	7031.498779	38299.189459	3904.595864	17422.971471
62.535000	0.154801	0.085819	0.163034	0.142800	6986.668317	37711.635146	3885.122924	17061.925941
63.035500	0.162604	0.088922	0.170089	0.149178	7000.778234	37448.841699	3887.021517	16852.359202
63.535500	0.166128	0.090741	0.174235	0.159380	6935.119243	36784.824521	3870.159442	16523.405879
64.036500	0.171243	0.094664	0.177689	0.168093	6900.168396	36411.247240	3855.708448	16248.553342
64.536000	0.170690	0.095034	0.178982	0.176281	6816.437276	35810.189699	3837.024622	15995.231655
65.039500	0.176514	0.097243	0.185602	0.186041	6779.292150	35239.862164	3828.615558	15699.441351
65.540000	0.178658	0.099992	0.190302	0.198930	6679.553877	34489.390239	3806.965128	15318.871476
66.037000	0.181802	0.100787	0.193130	0.204091	6661.113951	34171.614146	3800.871798	15169.633628
66.540500	0.187353	0.103110	0.199955	0.213609	6625.083282	33654.895334	3793.877637	14898.995001
67.034000	0.188305	0.104815	0.198175	0.221351	6564.161524	33227.857903	3769.494040	14683.187553
67.535500	0.186650	0.105557	0.195181	0.235725	6424.087130	32285.160714	3726.373650	14292.578537
68.035500	0.191793	0.107136	0.206732	0.236152	6464.759624	32363.696276	3753.792155	14281.171543
68.535500	0.193760	0.108810	0.210672	0.243416	6419.102410	31984.565988	3745.522988	14088.809929
69.036000	0.197100	0.111903	0.217234	0.250287	6388.971901	31731.101026	3744.760090	13909.814882
69.536500	0.196043	0.111560	0.211415	0.261634	6285.055254	30960.689449	3703.087809	13620.347918
70.037000	0.200198	0.113626	0.218722	0.261173	6323.379265	31125.433663	3721.740753	13631.946227
70.537000	0.204723	0.115507	0.222675	0.266603	6315.827875	30894.254206	3718.168793	13495.924126
71.040000	0.206322	0.116237	0.225548	0.271432	6289.024136	30629.593546	3713.455129	13376.381063
71.535000	0.202826	0.116308	0.225528	0.280283	6188.380700	30071.077901	3692.348586	13160.704707
72.035500	0.213302	0.120131	0.233916	0.280317	6273.313187	30310.691109	3712.213414	13159.872915
72.541000	0.214308	0.120650	0.237642	0.283600	6254.619647	30135.664901	3713.277362	13080.993147
73.036000	0.219504	0.122560	0.243125	0.287536	6264.947397	30008.033557	3717.001079	12987.190921
73.536000	0.218347	0.122987	0.238999	0.297269	6176.634335	29429.608052	3684.105858	12758.892339
74.036500	0.224088	0.125792	0.242279	0.295425	6237.913711	29717.038242	3696.144050	12801.746978
74.536500	0.224323	0.126799	0.242737	0.298740	6212.893518	29573.959809	3689.414361	12724.817609
75.036500	0.229121	0.128534	0.244929	0.301702	6227.789227	29498.214337	3687.607414	12656.576696
75.537000	0.228791	0.129908	0.248836	0.310534	6154.107638	29042.306332	3676.127982	12455.845536
76.034500	0.235636	0.132479	0.253153	0.308409	6226.222634	29328.417146	3691.168547	12503.757631
76.535000	0.237256	0.133597	0.251055	0.311409	6215.035918	29213.403398	3679.247943	12436.185019
77.035000	0.239119	0.134495	0.257774	0.313108	6216.360904	29164.538899	3690.985823	12398.097530
77.535500	0.238120	0.134618	0.250978	0.320368	6150.090286	28733.556744	3658.455603	12237.081407
78.036000	0.244203	0.136454	0.262304	0.318212	6216.197758	28973.754228	3689.637124	12284.615654
78.535500	0.244710	0.137474	0.264701	0.319759	6207.784733	28941.956911	3691.635195	12250.484489
79.036500	0.247339	0.139042	0.266965	0.322247	6208.933480	28886.483996	3691.110399	12195.850430
79.536500	0.248119	0.140294	0.267929	0.330094	6152.261541	28492.118694	3675.045700	12025.535750
80.036500	0.253469	0.142851	0.267796	0.327448	6216.443169	28802.686770	3680.879602	12082.610705
80.537000	0.254350	0.143318	0.270586	0.329246	6209.017672	28722.893978	3683.191945	12043.787109
81.035000	0.258605	0.145182	0.273165	0.331877	6222.176674	28677.029135	3683.072791	11987.271176
81.537500	0.253893	0.144807	0.274857	0.338074	6134.759387	28287.174045	3672.611329	11855.467941
82.038000	0.260314	0.147217	0.277733	0.336020	6202.481280	28551.353446	3684.064993	11898.946269
82.535500	0.258659	0.146090	0.270998	0.335664	6192.019237	28505.557139	3669.272064	11906.514918
83.036000	0.262646	0.148881	0.280473	0.339574	6192.631161	28439.158536	3682.164661	11823.852689
83.536000	0.261997	0.149040	0.275392	0.343345	6157.248533	28226.111961	3661.732881	11744.836956
84.036500	0.268092	0.151142	0.280094	0.342692	6211.413290	28388.479375	3674.042000	11758.471993
84.536500	0.267209	0.149088	0.279343	0.342439	6206.319526	28282.240654	3672.890674	11763.757883
85.040000	0.269538	0.152663	0.287042	0.346605	6191.520311	28247.534503	3681.089661	11677.100616
85.534500	0.270497	0.152001	0.280730	0.350433	6168.514204	27984.894957	3657.741386	11598.173533
86.038000	0.274481	0.154629	0.288971	0.350342	6201.227194	28143.591685	3676.884337	11600.041239
86.535500	0.275671	0.154229	0.290675	0.350684	6208.077034	28100.206711	3680.047798	11593.024150
87.035000	0.276036	0.156184	0.293477	0.353466	6188.601309	28051.941740	3680.095583	11536.147911
87.535500	0.275801	0.156979	0.294965	0.355790	6168.098333	27962.949975	3678.152734	11488.920331
88.036500	0.282972	0.158766	0.294407	0.358291	6205.603992	27921.430952	3671.071489	11438.349561
88.536000	0.280626	0.158310	0.300943	0.358667	6183.691492	27873.194380	3685.381157	11430.784646
89.036000	0.282754	0.158364	0.297381	0.359884	6191.008094	27805.952864	3674.263266	11406.310985
89.539500	0.281814	0.158569	0.293374	0.364910	6143.356853	27529.030586	3653.580250	11305.961772
90.034500	0.287381	0.159762	0.300960	0.362969	6203.434467	27708.660136	3675.406484	11344.576273
90.537500	0.287533	0.163323	0.299979	0.366191	6178.748424	27728.239689	3665.719194	11280.576338
91.035000	0.290256	0.163521	0.303695	0.367374	6191.106713	27671.562793	3671.545349	11257.185250
91.535500	0.287015	0.163470	0.304564	0.372735	6122.608169	27362.589486	3661.235127	11152.026292
92.035500	0.291930	0.165211	0.302341	0.370846	6176.677814	27569.388567	3660.473056	11188.929779
92.535500	0.292908	0.165061	0.308220	0.371740	6177.354068	27509.751364	3671.912295	11171.444842
93.036000	0.292665	0.167903	0.306825	0.375128	6148.384657	27478.603289	3660.934678	11105.502421
93.536000	0.293960	0.167508	0.306715	0.378741	6130.019733	27251.122279	3652.470840	11035.728658
94.036000	0.295729	0.165490	0.311280	0.374853	6175.006277	27356.999034	3671.789148	11110.825850
94.537000	0.295076	0.168205	0.304214	0.377990	6144.796418	27333.021787	3648.516837	11050.178492
95.037000	0.299574	0.170004	0.308233	0.380343	6161.863283	27301.678831	3652.282177	11004.986318
95.536500	0.300530	0.169882	0.309032	0.384012	6140.304300	27088.094673	3645.809886	10935.000550
96.035000	0.299806	0.170795	0.313160	0.382190	6149.006462	27241.994827	3659.275753	10969.673497
96.535500	0.301677	0.171993	0.317995	0.385356	6138.741708	27131.172650	3663.087002	10909.509052
97.036000	0.302422	0.171762	0.315403	0.385227	6145.669267	27125.379188	3657.468204	10911.941852
97.536000	0.300492	0.171489	0.309979	0.389920	6093.501650	26847.947983	3634.719415	10823.530708
