sample name	sample
index	1243
start time	 04-29-2021  11:45:37 AM


Wavelength (nm)	Absorbance
494.344910	0.115397
494.563924	0.115397
494.782919	0.115397
495.001897	0.000972
495.220856	0.032184
495.439797	0.006142
495.658719	0.004705
495.877624	-0.019902
496.096510	-0.038369
496.315378	-0.021518
496.534227	-0.037751
496.753059	-0.031972
496.971872	-0.005847
497.190667	0.095642
497.409444	0.128063
497.628203	0.144729
497.846943	0.152835
498.065665	0.155325
498.284369	0.157690
498.503055	0.159273
498.721723	0.160799
498.940372	0.160271
499.159003	0.160082
499.377616	0.161362
499.596210	0.159871
499.814787	0.159121
500.033345	0.160985
500.251885	0.159919
500.470406	0.159955
500.688910	0.159600
500.907395	0.160358
501.125862	0.162386
501.344311	0.162503
501.562742	0.162973
501.781154	0.163921
501.999548	0.163466
502.217924	0.164770
502.436282	0.164783
502.654621	0.163705
502.872942	0.163863
503.091245	0.163136
503.309530	0.164317
503.527797	0.164877
503.746045	0.164242
503.964275	0.163545
504.182487	0.162107
504.400681	0.161760
504.618856	0.163565
504.837013	0.163453
505.055152	0.163895
505.273273	0.161949
505.491376	0.160816
505.709460	0.161348
505.927526	0.162201
506.145574	0.162454
506.363604	0.163185
506.581615	0.162273
506.799608	0.162922
507.017583	0.162605
507.235540	0.162996
507.453478	0.164091
507.671399	0.163539
507.889301	0.163656
508.107185	0.163817
508.325050	0.162634
508.542898	0.162709
508.760727	0.162538
508.978538	0.163432
509.196330	0.164200
509.414105	0.164186
509.631861	0.164853
509.849599	0.164879
510.067319	0.165609
510.285021	0.166855
510.502704	0.167528
510.720369	0.166408
510.938016	0.166407
511.155645	0.167110
511.373255	0.167425
511.590848	0.166571
511.808422	0.167355
512.025977	0.167650
512.243515	0.167847
512.461034	0.168852
512.678536	0.169931
512.896018	0.169657
513.113483	0.168858
513.330930	0.168373
513.548358	0.169237
513.765768	0.168806
513.983160	0.169763
514.200533	0.169579
514.417889	0.168459
514.635226	0.168607
514.852545	0.169737
515.069845	0.170595
515.287128	0.171432
515.504392	0.171985
515.721638	0.172117
515.938866	0.171691
516.156075	0.172519
516.373267	0.172432
516.590440	0.173201
516.807594	0.172730
517.024731	0.172500
517.241850	0.172393
517.458950	0.172248
517.676032	0.172324
517.893095	0.172566
518.110141	0.172707
518.327168	0.173803
518.544177	0.173016
518.761168	0.173001
518.978141	0.173923
519.195095	0.174274
519.412031	0.174708
519.628949	0.174657
519.845849	0.174579
520.062731	0.174425
520.279594	0.175160
520.496439	0.176505
520.713266	0.176703
520.930074	0.176293
521.146865	0.176789
521.363637	0.177693
521.580391	0.178867
521.797127	0.178806
522.013844	0.179082
522.230543	0.178580
522.447224	0.178403
522.663887	0.179000
522.880532	0.179773
523.097158	0.179897
523.313766	0.180277
523.530356	0.180802
523.746928	0.182103
523.963481	0.182827
524.180017	0.183155
524.396534	0.183142
524.613032	0.183287
524.829513	0.183596
525.045975	0.183133
525.262420	0.182476
525.478845	0.181849
525.695253	0.181502
525.911643	0.180982
526.128014	0.181159
526.344367	0.181805
526.560702	0.181884
526.777018	0.181778
526.993316	0.182061
527.209597	0.182120
527.425858	0.182688
527.642102	0.182718
527.858328	0.184051
528.074535	0.184277
528.290724	0.184001
528.506894	0.184606
528.723047	0.185407
528.939181	0.186304
529.155297	0.186669
529.371395	0.186502
529.587475	0.187504
529.803536	0.186926
530.019579	0.188101
530.235604	0.188985
530.451611	0.189026
530.667600	0.188967
530.883570	0.189279
531.099522	0.189460
531.315456	0.191035
531.531372	0.191030
531.747269	0.192252
531.963148	0.191245
532.179009	0.191528
532.394852	0.191460
532.610676	0.191871
532.826482	0.192899
533.042271	0.193409
533.258040	0.193491
533.473792	0.193949
533.689525	0.192996
533.905240	0.193881
534.120937	0.194134
534.336616	0.195453
534.552277	0.195745
534.767919	0.195784
534.983543	0.196427
535.199149	0.196582
535.414736	0.196595
535.630306	0.197624
535.845857	0.197855
536.061390	0.198162
536.276904	0.197711
536.492401	0.198539
536.707879	0.197906
536.923339	0.198079
537.138781	0.198610
537.354204	0.199259
537.569610	0.199243
537.784997	0.199427
538.000366	0.199922
538.215716	0.200369
538.431049	0.199751
538.646363	0.200418
538.861659	0.200777
539.076937	0.200594
539.292196	0.201368
539.507438	0.202206
539.722661	0.203131
539.937866	0.203561
540.153052	0.204218
540.368221	0.204673
540.583371	0.204767
540.798503	0.205231
541.013617	0.205295
541.228712	0.205168
541.443789	0.204939
541.658848	0.204651
541.873889	0.204616
542.088912	0.204096
542.303916	0.204708
542.518902	0.204877
542.733870	0.204621
542.948820	0.204316
543.163752	0.204430
543.378665	0.205027
543.593560	0.205421
543.808437	0.205802
544.023295	0.206911
544.238136	0.207095
544.452958	0.207136
544.667762	0.207370
544.882548	0.208003
545.097315	0.208322
545.312064	0.208629
545.526795	0.208909
545.741508	0.208830
545.956203	0.208541
546.170879	0.209000
546.385537	0.209083
546.600177	0.209961
546.814799	0.210370
547.029402	0.210488
547.243988	0.210750
547.458555	0.211062
547.673103	0.211685
547.887634	0.212116
548.102146	0.212298
548.316640	0.213061
548.531116	0.212906
548.745574	0.213389
548.960013	0.213436
549.174435	0.213321
549.388838	0.213758
549.603222	0.213832
549.817589	0.214061
550.031937	0.214377
550.246267	0.214376
550.460579	0.214743
550.674873	0.215050
550.889148	0.215394
551.103405	0.216047
551.317644	0.215842
551.531865	0.215976
551.746068	0.216153
551.960252	0.216260
552.174418	0.216907
552.388566	0.216785
552.602696	0.216631
552.816807	0.216532
553.030900	0.216268
553.244975	0.216726
553.459032	0.216918
553.673070	0.217460
553.887091	0.217939
554.101093	0.217794
554.315077	0.218500
554.529042	0.218969
554.742990	0.219676
554.956919	0.220130
555.170830	0.220178
555.384722	0.220285
555.598597	0.220336
555.812453	0.220206
556.026291	0.220134
556.240111	0.219715
556.453913	0.219192
556.667696	0.219327
556.881461	0.219187
557.095208	0.219290
557.308937	0.219276
557.522647	0.219368
557.736339	0.219833
557.950013	0.220673
558.163669	0.220906
558.377307	0.221873
558.590926	0.221991
558.804527	0.222307
559.018110	0.222872
559.231675	0.223467
559.445221	0.223619
559.658749	0.223103
559.872259	0.223219
560.085751	0.223290
560.299225	0.223268
560.512680	0.223330
560.726117	0.223478
560.939536	0.222994
561.152937	0.223137
561.366319	0.223630
561.579683	0.223887
561.793029	0.223850
562.006357	0.224661
562.219667	0.224620
562.432958	0.224644
562.646231	0.224594
562.859486	0.224856
563.072723	0.225133
563.285941	0.224516
563.499141	0.224753
563.712323	0.224842
563.925487	0.224721
564.138632	0.224654
564.351760	0.225140
564.564869	0.225233
564.777960	0.225892
564.991032	0.225769
565.204087	0.226450
565.417123	0.226957
565.630141	0.227235
565.843140	0.227007
566.056122	0.227329
566.269085	0.227257
566.482030	0.227426
566.694957	0.227136
566.907866	0.227156
567.120756	0.226792
567.333628	0.226834
567.546482	0.227090
567.759318	0.227103
567.972135	0.227538
568.184935	0.227559
568.397716	0.227771
568.610478	0.227799
568.823223	0.227941
569.035949	0.228576
569.248657	0.228413
569.461347	0.228206
569.674019	0.228654
569.886672	0.228489
570.099308	0.228708
570.311925	0.229122
570.524523	0.229505
570.737104	0.229725
570.949666	0.229370
571.162210	0.228960
571.374736	0.229014
571.587244	0.228664
571.799733	0.228770
572.012205	0.228944
572.224658	0.228765
572.437092	0.228342
572.649509	0.228281
572.861907	0.228651
573.074287	0.228905
573.286649	0.229165
573.498993	0.229827
573.711318	0.229887
573.923625	0.229809
574.135914	0.229761
574.348185	0.230040
574.560438	0.230086
574.772672	0.230136
574.984888	0.230478
575.197086	0.230547
575.409266	0.230502
575.621427	0.230081
575.833570	0.230478
576.045695	0.231108
576.257802	0.231373
576.469890	0.231841
576.681961	0.231916
576.894013	0.232335
577.106046	0.232700
577.318062	0.232985
577.530059	0.233615
577.742039	0.233416
577.954000	0.233632
578.165942	0.233942
578.377867	0.234006
578.589773	0.233953
578.801661	0.233863
579.013531	0.234264
579.225382	0.234245
579.437216	0.234331
579.649031	0.234472
579.860828	0.234272
580.072606	0.234071
580.284367	0.234246
580.496109	0.234341
580.707833	0.234836
580.919539	0.234565
581.131227	0.234792
581.342896	0.235068
581.554547	0.234908
581.766180	0.234982
581.977795	0.235708
582.189391	0.235713
582.400969	0.235952
582.612529	0.236102
582.824071	0.236176
583.035595	0.236105
583.247100	0.236609
583.458587	0.237306
583.670056	0.237512
583.881506	0.237224
584.092939	0.237308
584.304353	0.237930
584.515749	0.238285
584.727127	0.238639
584.938486	0.239430
585.149828	0.239253
585.361151	0.238807
585.572456	0.239001
585.783742	0.239121
585.995011	0.239325
586.206261	0.239013
586.417493	0.238829
586.628706	0.238777
586.839902	0.238471
587.051079	0.238797
587.262238	0.239428
587.473379	0.239955
587.684502	0.240452
587.895606	0.240609
588.106692	0.241445
588.317760	0.241729
588.528810	0.242016
588.739841	0.242206
588.950855	0.242101
589.161850	0.242114
589.372827	0.241750
589.583785	0.242112
589.794726	0.242056
590.005648	0.241778
590.216552	0.242171
590.427437	0.242333
590.638305	0.242471
590.849154	0.242607
591.059985	0.242753
591.270798	0.243293
591.481592	0.242929
591.692369	0.243645
591.903127	0.243734
592.113867	0.243131
592.324588	0.243102
592.535292	0.243199
592.745977	0.243404
592.956644	0.243497
593.167293	0.242950
593.377923	0.243392
593.588536	0.243376
593.799130	0.243583
594.009706	0.244182
594.220263	0.243971
594.430803	0.244474
594.641324	0.244566
594.851827	0.245144
595.062312	0.245513
595.272778	0.245273
595.483227	0.245175
595.693657	0.244989
595.904069	0.244962
596.114462	0.245578
596.324838	0.245161
596.535195	0.245596
596.745534	0.245369
596.955855	0.245770
597.166157	0.246246
597.376441	0.246663
597.586707	0.246885
597.796955	0.247006
598.007185	0.246959
598.217396	0.247367
598.427589	0.247641
598.637764	0.247992
598.847921	0.248146
599.058060	0.248158
599.268180	0.248062
599.478282	0.248332
599.688366	0.248529
599.898431	0.248942
600.108479	0.249172
600.318508	0.248916
600.528519	0.249123
600.738511	0.249086
600.948486	0.249256
601.158442	0.248954
601.368380	0.248868
601.578300	0.248930
601.788202	0.248744
601.998085	0.248708
602.207950	0.248707
602.417797	0.248606
602.627626	0.248683
602.837436	0.248782
603.047228	0.249175
603.257002	0.249468
603.466758	0.249752
603.676496	0.250112
603.886215	0.250225
604.095916	0.250257
604.305599	0.250620
604.515264	0.251151
604.724910	0.251121
604.934538	0.251255
605.144148	0.251646
605.353740	0.251610
605.563314	0.251749
605.772869	0.251782
605.982406	0.252369
606.191925	0.252421
606.401425	0.252460
606.610908	0.252709
606.820372	0.252938
607.029818	0.252809
607.239246	0.252907
607.448655	0.252832
607.658047	0.252972
607.867420	0.253037
608.076775	0.253146
608.286111	0.253219
608.495430	0.253522
608.704730	0.253802
608.914012	0.254046
609.123275	0.254169
609.332521	0.254369
609.541748	0.254712
609.750957	0.254813
609.960148	0.254922
610.169321	0.255036
610.378475	0.255350
610.587611	0.255545
610.796729	0.255420
611.005829	0.255773
611.214910	0.256059
611.423974	0.256361
611.633019	0.256631
611.842045	0.257033
612.051054	0.257017
612.260044	0.257126
612.469017	0.257411
612.677970	0.257858
612.886906	0.258004
613.095824	0.258119
613.304723	0.258303
613.513604	0.258023
613.722467	0.258191
613.931311	0.258504
614.140138	0.258280
614.348946	0.258137
614.557736	0.258045
614.766507	0.257828
614.975261	0.258053
615.183996	0.257855
615.392713	0.258226
615.601412	0.258073
615.810092	0.258027
616.018754	0.258412
616.227399	0.258454
616.436024	0.258806
616.644632	0.259262
616.853222	0.259132
617.061793	0.259460
617.270346	0.259283
617.478880	0.259464
617.687397	0.260027
617.895895	0.259848
618.104375	0.259841
618.312837	0.259982
618.521281	0.260151
618.729706	0.260481
618.938113	0.260362
619.146502	0.260893
619.354873	0.261046
619.563226	0.261129
619.771560	0.261607
619.979876	0.261945
620.188174	0.262170
620.396453	0.262189
620.604715	0.262277
620.812958	0.262441
621.021183	0.262379
621.229390	0.262355
621.437578	0.262076
621.645748	0.261900
621.853900	0.261914
622.062034	0.261843
622.270150	0.262086
622.478247	0.262140
622.686326	0.262536
622.894387	0.263098
623.102430	0.263283
623.310454	0.263836
623.518461	0.264122
623.726449	0.264654
623.934418	0.265119
624.142370	0.265463
624.350303	0.265831
624.558218	0.265854
624.766115	0.265494
624.973994	0.265699
625.181855	0.265491
625.389697	0.265903
625.597521	0.265831
625.805327	0.265691
626.013114	0.265477
626.220883	0.265638
626.428634	0.265714
626.636367	0.265994
626.844082	0.266079
627.051778	0.266336
627.259457	0.266283
627.467117	0.266557
627.674758	0.266843
627.882382	0.267263
628.089987	0.267132
628.297574	0.267285
628.505143	0.267595
628.712694	0.267657
628.920226	0.267846
629.127740	0.267884
629.335236	0.268000
629.542714	0.267723
629.750174	0.267596
629.957615	0.267829
630.165038	0.267932
630.372443	0.267805
630.579829	0.267963
630.787198	0.268289
630.994548	0.268530
631.201880	0.268848
631.409194	0.269161
631.616489	0.269398
631.823766	0.269448
632.031025	0.269557
632.238266	0.269795
632.445489	0.270182
632.652693	0.270226
632.859879	0.270460
633.067047	0.270383
633.274197	0.270662
633.481329	0.270748
633.688442	0.270979
633.895537	0.271255
634.102614	0.271444
634.309672	0.271322
634.516713	0.271136
634.723735	0.271193
634.930739	0.271198
635.137724	0.271270
635.344692	0.271110
635.551641	0.271324
635.758572	0.271346
635.965485	0.271420
636.172379	0.271704
636.379256	0.271934
636.586114	0.272083
636.792954	0.272215
636.999775	0.272363
637.206579	0.272858
637.413364	0.272663
637.620131	0.272860
637.826880	0.272955
638.033610	0.273074
638.240323	0.273279
638.447017	0.273294
638.653692	0.273427
638.860350	0.273658
639.066990	0.273627
639.273611	0.273918
639.480214	0.274147
639.686798	0.274573
639.893365	0.274878
640.099913	0.275017
640.306443	0.275364
640.512955	0.275554
640.719449	0.275521
640.925924	0.275625
641.132381	0.275703
641.338820	0.275876
641.545241	0.275752
641.751644	0.275751
641.958028	0.275893
642.164394	0.275880
642.370742	0.275971
642.577071	0.276368
642.783383	0.276682
642.989676	0.277086
643.195951	0.276981
643.402207	0.277471
643.608446	0.277754
643.814666	0.278101
644.020868	0.278112
644.227052	0.278395
644.433218	0.278526
644.639365	0.278675
644.845494	0.278896
645.051605	0.279248
645.257698	0.279180
645.463772	0.278933
645.669828	0.278729
645.875866	0.279101
646.081886	0.279331
646.287888	0.279625
646.493871	0.279792
646.699836	0.279685
646.905783	0.279913
647.111712	0.280015
647.317622	0.280463
647.523514	0.280718
647.729388	0.280653
647.935244	0.280504
648.141082	0.280414
648.346901	0.280558
648.552702	0.280757
648.758485	0.280942
648.964250	0.281186
649.169996	0.281276
649.375724	0.281567
649.581434	0.281804
649.787126	0.282065
649.992800	0.282242
650.198455	0.282217
650.404092	0.282338
650.609711	0.282517
650.815311	0.282587
651.020894	0.282630
651.226458	0.282578
651.432004	0.282611
651.637532	0.282799
651.843041	0.282705
652.048532	0.282789
652.254006	0.283160
652.459460	0.283076
652.664897	0.283256
652.870315	0.283524
653.075716	0.283603
653.281097	0.283857
653.486461	0.284120
653.691807	0.284455
653.897134	0.284476
654.102443	0.284578
654.307734	0.284859
654.513006	0.284797
654.718261	0.284896
654.923497	0.285375
655.128715	0.285774
655.333915	0.285731
655.539096	0.285989
655.744259	0.286552
655.949404	0.286532
656.154531	0.286888
656.359640	0.287453
656.564730	0.287903
656.769802	0.288220
656.974856	0.287957
657.179892	0.288158
657.384909	0.288179
657.589908	0.288171
657.794889	0.288363
657.999852	0.288438
658.204797	0.288503
658.409723	0.288342
658.614631	0.288247
658.819521	0.288831
659.024393	0.289101
659.229246	0.289489
659.434081	0.289956
659.638898	0.290426
659.843697	0.290641
660.048478	0.290879
660.253240	0.291127
660.457984	0.291297
660.662710	0.291178
660.867417	0.291419
661.072107	0.291627
661.276778	0.291622
661.481431	0.291927
661.686066	0.291925
661.890682	0.291911
662.095281	0.292110
662.299861	0.292252
662.504422	0.292240
662.708966	0.292360
662.913491	0.292425
663.117999	0.292566
663.322488	0.292416
663.526958	0.292631
663.731411	0.292715
663.935845	0.292964
664.140261	0.293349
664.344659	0.293723
664.549038	0.293855
664.753400	0.294015
664.957743	0.294267
665.162068	0.294422
665.366375	0.294832
665.570663	0.295303
665.774933	0.295416
665.979185	0.295397
666.183419	0.295691
666.387635	0.295990
666.591832	0.296139
666.796011	0.296545
667.000172	0.296794
667.204315	0.296706
667.408439	0.297009
667.612545	0.297486
667.816634	0.298085
668.020703	0.298405
668.224755	0.298867
668.428788	0.299158
668.632803	0.299274
668.836800	0.299631
669.040779	0.300160
669.244739	0.300590
669.448681	0.300721
669.652605	0.301052
669.856511	0.301467
670.060399	0.301448
670.264268	0.301636
670.468119	0.301950
670.671952	0.302185
670.875767	0.302036
671.079563	0.301920
671.283341	0.302129
671.487101	0.302138
671.690843	0.302262
671.894567	0.302557
672.098272	0.303016
672.301959	0.303435
672.505628	0.303404
672.709278	0.303826
672.912911	0.304198
673.116525	0.304280
673.320121	0.304298
673.523699	0.304303
673.727258	0.304252
673.930799	0.304217
674.134322	0.303877
674.337827	0.304052
674.541314	0.304048
674.744782	0.303990
674.948232	0.304098
675.151664	0.304136
675.355078	0.304189
675.558474	0.304321
675.761851	0.304528
675.965210	0.304737
676.168551	0.305024
676.371873	0.305411
676.575178	0.305507
676.778464	0.305734
676.981732	0.306141
677.184981	0.306274
677.388213	0.306827
677.591426	0.306932
677.794621	0.307225
677.997798	0.307636
678.200956	0.307642
678.404097	0.308047
678.607219	0.308263
678.810323	0.308280
679.013408	0.308747
679.216476	0.308618
679.419525	0.308900
679.622556	0.309102
679.825569	0.309082
680.028563	0.309428
680.231540	0.309475
680.434498	0.309455
680.637438	0.309635
680.840359	0.309596
681.043263	0.309823
681.246148	0.309926
681.449015	0.310074
681.651864	0.310308
681.854694	0.310125
682.057506	0.310219
682.260301	0.310486
682.463076	0.310659
682.665834	0.310618
682.868573	0.310512
683.071295	0.310890
683.273998	0.311002
683.476682	0.311120
683.679349	0.311539
683.881997	0.311742
684.084627	0.311937
684.287239	0.312298
684.489833	0.312922
684.692408	0.313380
684.894965	0.313306
685.097504	0.313662
685.300025	0.314080
685.502527	0.314412
685.705012	0.314639
685.907478	0.314708
686.109925	0.314695
686.312355	0.314846
686.514766	0.315232
686.717159	0.315583
686.919534	0.315854
687.121891	0.315663
687.324230	0.315760
687.526550	0.316119
687.728852	0.316750
687.931136	0.317028
688.133401	0.317020
688.335649	0.316966
688.537878	0.317077
688.740089	0.317046
688.942281	0.317309
689.144456	0.317565
689.346612	0.317470
689.548750	0.317358
689.750870	0.317738
689.952971	0.318023
690.155055	0.318213
690.357120	0.318327
690.559167	0.318361
690.761195	0.318708
690.963206	0.318639
691.165198	0.318987
691.367172	0.319118
691.569128	0.319017
691.771065	0.318953
691.972984	0.319190
692.174885	0.319386
692.376768	0.319722
692.578633	0.319678
692.780479	0.319801
692.982308	0.319620
693.184118	0.319838
693.385909	0.319930
