sample name	sample
index	960
start time	 04-12-2021  04:06:51 PM
880	0.545717
Peak Time (s)	122.537
Peak Height 	0.5457
calc peak height	120,123
Baseline Time (s)	10.536
Baseline Value 	-0.004149
subtract baseline	10,4
Abs	0.374981
Peak Time (s)	120.035
Peak Height 	0.375
calc peak height	120,123
Baseline Time (s)	11.537
Baseline Value 	0.001551
subtract baseline	10,3
PK_550	0.201958
Peak Time (s)	120.035
Peak Height 	0.202
calc peak height	120,123
Baseline Time (s)	10.536
Baseline Value 	1.2786E-4
subtract baseline	10,2
PK_880	0.350779
Peak Time (s)	120.035
Peak Height 	0.3508
calc peak height	120,123
Baseline Time (s)	8.535
Baseline Value 	1.6892E-4
subtract baseline	10,1


Time (s)	A880-A510	A880-A775	A880-A975	A880	I510	I775	I975	I880	
0.035000	-0.001753	-0.001041	-0.004449	0.005016	7067.104189	42626.022069	3920.934037	22948.403548
0.538500	-0.000483	-0.000130	0.001126	0.005699	7072.761161	42646.797968	3933.090109	22916.888073
1.036000	-0.001539	-0.001124	-0.000410	0.003319	7085.520053	42773.554922	3935.201946	23026.912753
1.536500	0.000091	-0.000589	-0.000869	0.001431	7119.646817	42996.319120	3938.785990	23114.653434
2.036500	-0.002742	-0.001278	-0.007062	0.003565	7071.550357	42736.938198	3918.065552	23015.508676
2.537000	0.000434	0.000147	-0.000873	0.001561	7121.713820	43052.147682	3938.449771	23108.580638
3.037500	0.003868	0.000243	0.005050	-0.000494	7175.527233	43251.171225	3958.672077	23204.492264
3.537500	0.001570	0.000470	-0.001932	0.000234	7145.784086	43204.738805	3939.123260	23170.464819
4.035000	0.001081	0.000206	-0.005437	-0.000000	7143.278583	43201.954117	3930.935014	23181.395576
4.535500	0.002361	-0.000067	-0.000034	0.000049	7155.348623	43172.125949	3944.371274	23179.108548
5.035500	0.002111	0.000856	-0.001569	0.000757	7145.958794	43192.086493	3938.721680	23146.072193
5.535500	0.000767	0.000169	0.001475	0.000073	7139.487275	43191.713413	3948.124891	23177.957755
6.036500	0.001159	0.000319	-0.000720	0.000086	7143.205261	43204.489048	3942.547354	23177.387034
6.536500	0.002887	0.000906	-0.000417	0.001199	7149.227311	43155.708924	3940.505474	23125.458514
7.037000	0.001418	-0.000736	-0.000779	-0.000496	7151.449457	43160.696442	3943.866308	23204.586000
7.537000	0.000585	-0.000049	0.002081	-0.000052	7138.933851	43183.119974	3949.980518	23183.809908
8.034500	-0.000016	-0.000443	0.003547	-0.000489	7137.325655	43187.124867	3954.820410	23204.236098
8.535000	0.000000	-0.000670	0.000420	-0.000633	7138.898326	43179.415284	3947.242840	23210.991881
9.038000	0.002056	0.000077	-0.003738	-0.000160	7154.407096	43204.858521	3935.580460	23188.872688
9.535500	0.001011	0.000018	-0.000767	0.000087	7141.745390	43176.438627	3942.425635	23177.316225
10.035500	0.001893	0.000465	0.001081	0.000765	7143.742578	43155.059738	3945.378795	23145.684698
10.536000	-0.001030	0.000000	-0.000594	0.000000	7122.656879	43182.849799	3943.080344	23181.385678
11.036500	-0.000023	-0.000083	0.000578	-0.000073	7133.196640	43181.906928	3946.226591	23184.801548
11.536500	-0.000716	-0.000193	0.000000	0.000169	7124.068923	43149.305424	3944.152642	23173.480851
12.037000	0.002397	0.000465	0.000362	0.000471	7151.561070	43182.267593	3944.305155	23159.402701
12.536500	0.000200	0.000411	0.001062	0.001782	7117.290627	43056.165851	3942.762681	23098.313636
13.037500	0.000838	-0.000211	0.000523	-0.001171	7152.382980	43271.868774	3948.867510	23236.179921
13.538000	0.001678	0.000905	-0.001833	0.001830	7131.228208	43097.391501	3935.368059	23096.093988
14.043500	-0.001247	-0.000395	-0.002626	0.000687	7113.864002	43082.842276	3936.245978	23149.324968
14.535500	-0.003697	-0.000241	-0.005353	0.003519	7062.811138	42836.238069	3922.400479	23017.644792
15.036000	-0.001473	-0.000471	-0.000839	0.001949	7099.421270	42959.465821	3937.560800	23090.549976
15.536000	0.001134	0.000949	-0.005834	0.001984	7124.414189	43087.064059	3925.010430	23088.892564
16.036500	-0.005017	-0.000856	-0.003956	0.006498	7021.722477	42507.750430	3918.492677	22880.090833
16.537000	-0.003547	0.000114	-0.001331	0.002687	7072.253093	42945.277994	3934.478262	23056.231346
17.037000	-0.000872	0.000111	0.000474	0.002042	7104.348033	43004.483320	3940.628311	23086.222669
17.537500	-0.000335	0.000096	0.001585	0.001998	7109.986575	43007.153200	3943.538282	23088.258288
18.037500	-0.003015	-0.000130	-0.005701	0.004660	7058.409784	42741.837842	3918.722361	22964.847484
18.535500	-0.000610	0.000437	0.000195	0.002818	7099.364351	42963.076138	3937.975376	23050.181264
19.035500	-0.002541	-0.000413	-0.004249	0.002089	7087.727129	42951.886354	3928.689374	23084.027835
19.536000	0.000080	-0.000140	-0.001180	0.002681	7107.382404	42922.511247	3934.872629	23056.523279
20.035500	-0.001113	0.000997	-0.004722	0.002933	7093.365622	43003.969394	3925.413973	23044.804288
20.536000	-0.001597	-0.000191	-0.006840	0.002516	7092.726128	42932.970453	3921.202107	23064.179493
21.036500	0.001539	0.000005	-0.000899	0.002049	7127.731572	42994.122571	3937.161097	23085.903783
21.537000	-0.000709	0.000122	-0.000313	0.002403	7102.427823	42972.246272	3937.741269	23069.439271
22.040000	-0.000869	0.000441	0.000156	0.002542	7099.522557	42988.801780	3938.572161	23062.987098
22.539500	-0.001554	0.000518	-0.008009	0.002817	7090.225121	42970.538563	3917.574564	23050.202169
23.035000	-0.000138	0.000104	0.000602	0.001811	7113.713356	43025.150876	3941.529831	23096.948937
23.535500	-0.003233	-0.000384	-0.007449	0.002113	7080.809600	42952.285619	3920.693544	23082.888774
24.038500	-0.003193	-0.000329	-0.001246	0.001668	7085.488877	42998.338110	3937.243516	23103.592516
24.536000	-0.001595	0.000089	-0.003327	0.003211	7086.018288	42894.857838	3928.190571	23031.910529
25.039000	-0.001290	0.000132	-0.005056	0.002390	7096.918682	42974.350517	3925.936222	23070.056735
25.536500	-0.002773	0.000136	-0.006466	0.001958	7086.747656	43014.539673	3923.508684	23090.107100
26.036500	-0.001229	-0.000105	-0.002370	0.002114	7100.177614	42977.952686	3933.313785	23082.858598
26.537000	-0.000667	0.000300	-0.004536	0.002697	7099.983735	42961.539835	3926.464167	23055.790005
27.037500	-0.000820	-0.000059	-0.002551	0.002128	7104.009635	42980.910684	3932.827152	23082.218152
27.537500	-0.001453	-0.000564	-0.002533	0.002050	7098.628610	42941.530713	3933.065321	23085.838267
28.035000	0.000908	0.000483	0.000417	-0.000590	7147.364613	43282.324739	3947.125029	23208.953131
28.538500	-0.000175	-0.000402	-0.005508	0.001186	7119.432335	43036.037124	3927.802435	23126.040845
29.036000	-0.000665	0.000249	-0.003140	0.001257	7113.978877	43089.628726	3933.530696	23122.749094
29.536000	0.000115	-0.000451	-0.005092	0.001006	7124.019119	43048.252891	3929.287880	23134.461526
30.036000	-0.001021	-0.000564	-0.002547	0.001187	7111.197231	43021.058293	3935.189466	23126.019910
30.536500	-0.001465	-0.000544	-0.001399	0.002521	7093.953533	42900.122249	3934.723713	23063.966854
31.036500	0.000427	0.000384	-0.000110	0.002442	7113.080582	42992.778970	3938.153901	23067.641350
31.540000	-0.000888	0.000421	0.001750	0.001300	7111.394765	43101.582046	3945.716667	23120.755772
32.037500	-0.001058	-0.000403	-0.000175	0.004090	7082.718891	42769.006934	3933.859392	22991.188668
32.534500	-0.001299	-0.000106	-0.003786	0.003309	7087.935534	42867.860867	3926.805947	23027.372324
33.057000	-0.000825	-0.000098	-0.000385	0.000948	7115.428373	43086.158632	3941.218709	23137.149560
33.535000	-0.000323	0.000768	0.001309	0.001918	7110.879287	43076.500299	3943.044126	23091.990625
34.036000	-0.000751	-0.000353	-0.006335	0.005721	7069.966619	42624.447460	3914.551000	22915.878478
34.536500	0.000849	0.000791	-0.000375	0.002628	7115.370219	43013.144582	3937.022250	23058.979969
35.036500	0.001093	-0.000018	-0.000195	0.002896	7115.131873	42913.924070	3936.801742	23046.538649
35.536500	-0.000823	-0.000542	-0.002154	0.001870	7106.490433	42960.189698	3934.464060	23094.220141
36.036500	-0.000648	0.000640	0.002123	0.003066	7096.587645	42958.804989	3942.201065	23038.641849
36.540000	0.001056	-0.000162	0.000791	0.002750	7116.189856	42914.111589	3939.643030	23053.313137
37.037500	0.001553	0.000338	0.004322	0.002573	7122.753472	42976.412227	3949.005065	23061.528670
37.535500	-0.001397	0.000686	-0.002522	0.002290	7096.851141	43034.688029	3932.493187	23074.695108
38.035500	0.000627	0.000374	-0.004206	0.003261	7107.061397	42916.393796	3925.882876	23029.599794
38.535500	0.001158	0.000089	-0.005204	0.002902	7115.700564	42923.200845	3924.295250	23046.245272
39.035500	-0.001671	-0.000415	-0.003888	0.001640	7100.497633	42993.123961	3930.707809	23104.933752
39.536500	-0.001569	0.000047	-0.000824	0.002008	7097.917770	43001.683819	3937.451407	23087.796457
40.036500	0.000123	-0.000351	0.004398	0.002107	7113.383703	42956.005671	3950.382477	23083.209853
40.537000	-0.000557	-0.000309	-0.001217	0.002015	7107.661512	42968.256943	3936.446432	23087.468635
41.040000	0.000134	0.000030	0.001252	0.002129	7113.273275	42989.077027	3942.368159	23082.187350
41.537500	0.000022	0.000114	0.000411	0.002432	7109.231268	42968.840230	3939.487056	23068.089403
42.035000	-0.001443	0.000705	0.004496	0.002864	7090.851868	42983.443783	3948.709195	23048.017714
42.535000	-0.000942	-0.000384	-0.004808	0.002396	7100.227418	42926.345833	3926.536224	23069.762457
43.035500	0.000163	-0.000339	-0.002440	0.002064	7114.172558	42960.924578	3933.261421	23085.167408
43.536000	0.001587	0.000487	-0.001076	0.002925	7119.666432	42957.840437	3934.523345	23045.215551
44.036000	0.000019	0.000121	-0.001912	0.002483	7108.706303	42964.699380	3933.535877	23065.695824
44.536500	-0.000679	0.000241	0.001038	0.002398	7102.757971	42983.624912	3941.150783	23069.652032
45.036500	0.001894	0.000144	0.002912	-0.002319	7174.054070	43411.467116	3957.871310	23290.000328
45.537500	0.001065	0.000311	0.002033	0.000632	7136.945507	43153.214644	3948.124375	23151.898331
46.037000	-0.001975	-0.000687	-0.007026	0.003801	7076.671840	42769.571580	3917.575235	23004.609232
46.535000	-0.000829	-0.000231	-0.000807	0.002106	7104.134885	42967.042469	3937.248026	23083.225494
47.035000	0.001906	0.000963	0.003434	0.002184	7129.990724	43069.956117	3947.741644	23079.616148
47.535000	0.001381	0.000365	-0.000614	0.000770	7138.676680	43145.343634	3941.088883	23145.438338
48.036000	-0.000109	0.000081	0.002044	0.004567	7087.291297	42769.706328	3938.228729	22969.166519
48.547000	-0.000175	0.000479	-0.000326	0.003992	7092.203535	42858.918371	3933.727087	22995.737490
49.036000	-0.001068	0.000727	0.001478	0.003111	7092.081595	42962.691650	3940.462870	23036.559250
49.536000	0.000480	-0.000261	0.001745	0.001294	7124.763507	43039.154114	3945.718922	23121.016451
50.048500	0.000083	0.000381	-0.003196	0.003067	7103.667284	42934.908199	3928.876230	23038.608190
50.537000	0.000651	0.000423	-0.000606	0.003323	7106.694688	42915.331245	3934.701335	23026.752393
51.037000	0.001272	0.000469	0.004441	0.001456	7130.907053	43091.529630	3952.144788	23113.460405
51.535000	0.002389	0.000545	0.004261	-0.001908	7174.880921	43410.586335	3960.271271	23270.712244
52.035000	-0.001256	-0.000336	-0.000516	0.005126	7070.829833	42680.304752	3930.423283	22943.322238
52.535500	-0.040998	-0.009800	0.011500	0.245670	5083.124399	25302.793621	3487.427936	14415.984767
53.036000	-0.042577	-0.006451	-0.004780	0.176810	5450.458799	29341.528983	3569.759572	16395.963490
53.536000	-0.040213	-0.029350	-0.023208	-0.182333	8774.876503	60161.290204	4429.973179	33766.524613
54.036500	-0.032055	-0.151617	-0.007333	-0.343606	11582.513074	65535.000000	5226.879930	47650.109162
54.536000	-0.037069	-0.121874	-0.013186	-0.313862	10914.024969	65535.000000	5039.651730	44687.394276
55.039500	-0.033704	-0.127099	-0.006350	-0.319087	11074.285878	65535.000000	5101.378758	45193.267989
55.537000	-0.022738	-0.102122	-0.003184	-0.294111	10814.503599	65535.000000	4990.995116	42829.139703
56.037500	-0.009984	-0.073953	-0.008655	-0.265094	10523.272050	65413.136283	4827.375292	40248.014576
56.535000	-0.001861	-0.076273	-0.007374	-0.268261	10724.295970	65534.934484	4847.754106	40521.408470
57.035500	0.002431	-0.067012	-0.005358	-0.256725	10594.714844	65208.216354	4804.393291	39535.075332
57.535000	0.002247	-0.043619	-0.000512	-0.223206	10019.480449	63773.828540	4679.380803	36813.299453
58.035500	-0.002558	-0.023466	-0.003685	-0.179920	9272.248612	60620.200392	4493.553597	33595.437012
58.536000	0.004257	-0.015214	0.003086	-0.151139	8957.513018	57958.778367	4412.220860	31626.699601
59.036500	0.004670	-0.009830	0.005772	-0.112144	8441.821638	53863.991235	4286.742307	29159.087665
59.539500	0.000434	-0.008277	0.004413	-0.085030	8055.247241	50955.305014	4195.422571	27569.338155
60.037000	0.001232	-0.005784	0.003411	-0.061980	7797.293865	48737.066501	4122.811224	26293.723952
60.537000	0.005314	-0.002941	0.004061	-0.035882	7554.770058	46351.215316	4050.245166	24928.902637
61.034500	0.005808	-0.002150	0.003725	-0.017842	7370.103745	44662.197048	4000.425659	24032.287287
61.535000	0.005986	-0.002468	0.012605	-0.000074	7192.311778	42961.782562	3977.074011	23184.840080
62.035500	0.007481	-0.001531	0.013858	0.011584	7092.817781	41986.752541	3950.337996	22647.343361
62.535500	0.015197	0.001519	0.019030	0.022663	7060.405589	41272.199574	3935.442439	22149.770157
63.036000	0.019627	0.004482	0.023249	0.040725	6931.567862	39963.655652	3901.318878	21365.306339
63.536500	0.024324	0.007690	0.028361	0.056058	6833.812499	38945.305899	3876.811462	20724.482724
64.039000	0.030017	0.010153	0.027176	0.064742	6806.752626	38433.722389	3853.690305	20371.461711
64.537000	0.036642	0.012481	0.040983	0.062992	6882.994660	38768.192676	3890.378219	20442.017744
65.037000	0.049230	0.016645	0.049304	0.071369	6921.896800	38422.667995	3890.245157	20106.750619
65.534500	0.054035	0.021327	0.055558	0.088260	6811.268015	37440.133800	3865.022405	19450.104169
66.037500	0.061210	0.025624	0.071985	0.100012	6770.156181	36853.467812	3876.029630	19008.023020
66.535000	0.075495	0.033155	0.076535	0.110057	6808.217933	36657.947908	3863.101039	18639.555667
67.035500	0.085982	0.039152	0.087078	0.128373	6738.244892	35715.980563	3845.091459	17989.259656
67.536000	0.096964	0.045529	0.101536	0.146449	6675.908966	34845.823433	3836.816060	17373.798341
68.044500	0.104940	0.049513	0.105857	0.158004	6644.842661	34295.037531	3820.477197	16993.573909
68.536500	0.111974	0.054772	0.117112	0.171138	6592.485957	33732.226181	3816.277588	16573.504652
69.037000	0.122515	0.057988	0.125422	0.178256	6621.768864	33457.132298	3818.938872	16351.086712
69.550500	0.130119	0.062664	0.140206	0.188304	6600.837270	33082.394450	3829.587998	16043.270749
70.043000	0.135932	0.065334	0.144206	0.198627	6562.510195	32556.539946	3815.398464	15734.375307
70.537000	0.140458	0.069937	0.146036	0.210047	6504.686940	32095.770162	3794.263587	15401.074431
71.035000	0.146003	0.073509	0.151584	0.217091	6492.231415	31863.918155	3791.008102	15199.816984
71.535500	0.154145	0.077267	0.166524	0.227112	6476.692062	31450.316130	3801.752885	14919.095782
72.035500	0.159942	0.081104	0.164477	0.237643	6437.809438	31014.770221	3774.518980	14630.963013
72.536000	0.165169	0.086253	0.174520	0.250985	6372.157216	30490.780147	3767.505953	14275.827751
73.036000	0.172312	0.089151	0.183655	0.258288	6370.872745	30213.138571	3771.394061	14086.000159
73.537000	0.180538	0.092491	0.190370	0.268639	6353.890170	29776.960157	3763.692225	13822.367188
74.036500	0.187061	0.095700	0.195804	0.279218	6321.694832	29325.920760	3752.905216	13559.325064
74.540000	0.193512	0.101896	0.209777	0.292089	6271.351276	28924.056648	3755.204872	13247.835439
75.034500	0.201278	0.105524	0.212382	0.298358	6283.029310	28766.799452	3747.581616	13099.439129
75.534500	0.205899	0.108055	0.214831	0.306145	6258.386992	28456.522076	3736.589730	12918.046957
76.035000	0.210496	0.111492	0.224651	0.315037	6225.241678	28138.434427	3738.489304	12714.848017
76.536000	0.218230	0.115150	0.234634	0.325156	6206.981994	27766.824079	3738.209356	12488.631225
77.035000	0.223224	0.118667	0.237070	0.330169	6206.837820	27681.604186	3732.942494	12378.497022
77.536000	0.227759	0.120826	0.247649	0.336392	6193.979765	27451.528058	3741.866060	12243.547236
78.038500	0.234564	0.125058	0.247878	0.346512	6168.861842	27121.946284	3721.733007	12028.166601
78.539500	0.234954	0.127433	0.253048	0.354716	6110.414410	26799.988252	3715.647647	11857.198300
79.092500	0.245014	0.131494	0.259698	0.361788	6132.638529	26635.381973	3714.803914	11712.388171
79.534000	0.248145	0.133985	0.261081	0.368026	6109.528862	26432.129066	3705.166355	11586.614870
80.034500	0.251936	0.135513	0.266733	0.374620	6088.822027	26160.072998	3703.306217	11455.595265
80.535000	0.253518	0.138363	0.269457	0.384630	6027.362557	25780.958879	3689.073253	11260.474808
81.034500	0.259506	0.141745	0.283669	0.388939	6039.509230	25732.372519	3708.478869	11177.864799
81.536000	0.262829	0.143262	0.284414	0.393935	6027.401491	25550.779278	3700.093319	11083.086666
82.038500	0.269523	0.146771	0.289724	0.402114	6016.698731	25309.388505	3694.482869	10930.286313
82.540500	0.270126	0.148527	0.293179	0.410434	5961.651737	24974.336782	3685.051256	10777.767392
83.036000	0.276052	0.150033	0.292921	0.411719	5994.635535	24985.534970	3682.079384	10754.458095
83.537000	0.280029	0.153320	0.295494	0.418480	5974.805947	24810.162397	3674.072881	10633.004884
84.040000	0.279669	0.154497	0.304046	0.423627	5935.952820	24611.527901	3680.577862	10541.821265
84.537500	0.284934	0.156854	0.303483	0.427881	5943.043970	24517.191121	3671.390202	10467.251901
85.037500	0.288590	0.160168	0.306904	0.434210	5924.320539	24368.174718	3665.894482	10357.661284
85.535000	0.289745	0.160893	0.308864	0.437851	5907.004754	24225.017312	3662.733947	10295.339276
86.036000	0.294340	0.162134	0.313154	0.442751	5904.884094	24046.707284	3661.588785	10212.271413
86.536000	0.295216	0.164904	0.318976	0.446989	5881.644136	23975.598223	3664.561172	10141.187789
87.036500	0.297522	0.164961	0.326047	0.450051	5876.443650	23830.802816	3672.138071	10090.267665
87.536500	0.298689	0.167178	0.315667	0.454282	5855.450196	23734.343682	3644.864041	10020.480429
88.036500	0.300480	0.167278	0.320946	0.457076	5848.618490	23605.986852	3649.437360	9974.771860
88.536500	0.301796	0.168826	0.317031	0.459930	5838.158621	23544.007091	3637.038833	9928.383954
89.037000	0.305396	0.170630	0.323577	0.463740	5836.733435	23449.230708	3642.027039	9866.916688
89.534500	0.306895	0.170788	0.326353	0.465493	5835.012192	23374.145080	3643.899794	9838.823339
90.038000	0.310837	0.175262	0.326702	0.471326	5822.218516	23310.419707	3633.909938	9746.150367
90.535500	0.312152	0.174687	0.334565	0.472546	5822.861369	23226.549696	3646.027175	9726.919520
91.035500	0.313821	0.175449	0.337799	0.474676	5819.756443	23162.905952	3648.059880	9693.489383
91.539500	0.314546	0.177194	0.340289	0.479048	5795.256522	23041.116979	3644.598071	9625.355679
92.036000	0.316268	0.177557	0.341264	0.480468	5797.278217	22992.338284	3643.782207	9603.379676
92.536500	0.319441	0.180182	0.341568	0.483466	5798.448406	22975.157960	3638.859292	9557.212139
93.036500	0.318315	0.179396	0.339445	0.484557	5783.646078	22888.914628	3633.025856	9540.488092
93.537000	0.320815	0.180898	0.347620	0.487091	5783.420183	22841.620032	3643.292492	9501.807412
94.037500	0.321343	0.181285	0.342191	0.488633	5776.676275	22788.896466	3630.625740	9478.388140
94.534500	0.324471	0.184645	0.348469	0.494984	5755.338988	22652.930469	3630.493659	9382.773916
95.035000	0.326521	0.185292	0.349551	0.493480	5778.872827	22750.601898	3635.168178	9405.283912
95.535500	0.324058	0.183687	0.349966	0.494425	5756.305269	22634.857445	3634.209647	9391.138949
96.036000	0.327906	0.184598	0.349827	0.497778	5759.573145	22524.610717	3627.911507	9341.154901
96.539500	0.327219	0.185807	0.344118	0.503405	5718.166095	22326.762482	3607.808578	9258.132428
97.036000	0.327979	0.186973	0.350688	0.502621	5728.237020	22413.840305	3620.789534	9269.642179
