sample name	sample
index	24
start time	 02-11-2021  12:15:13 PM


Wavelength (nm)	Absorbance
494.344910	-0.125490
494.563924	-0.125490
494.782919	-0.125490
495.001897	0.244517
495.220856	0.001326
495.439797	0.070407
495.658719	0.063951
495.877624	0.113434
496.096510	0.071024
496.315378	0.071854
496.534227	0.100462
496.753059	0.087037
496.971872	0.088357
497.190667	0.079235
497.409444	0.077864
497.628203	0.093462
497.846943	0.092373
498.065665	0.092708
498.284369	0.093074
498.503055	0.091324
498.721723	0.089864
498.940372	0.090680
499.159003	0.089948
499.377616	0.088518
499.596210	0.086452
499.814787	0.084549
500.033345	0.084461
500.251885	0.082610
500.470406	0.080621
500.688910	0.082014
500.907395	0.082093
501.125862	0.083200
501.344311	0.083844
501.562742	0.083639
501.781154	0.083931
501.999548	0.084704
502.217924	0.086242
502.436282	0.089621
502.654621	0.089712
502.872942	0.090308
503.091245	0.087305
503.309530	0.087107
503.527797	0.085920
503.746045	0.087515
503.964275	0.087793
504.182487	0.087048
504.400681	0.086313
504.618856	0.085019
504.837013	0.085105
505.055152	0.088047
505.273273	0.088183
505.491376	0.089317
505.709460	0.087475
505.927526	0.086491
506.145574	0.088437
506.363604	0.088403
506.581615	0.089570
506.799608	0.090000
507.017583	0.090217
507.235540	0.089800
507.453478	0.088930
507.671399	0.088435
507.889301	0.090461
508.107185	0.090750
508.325050	0.092542
508.542898	0.091937
508.760727	0.089551
508.978538	0.088577
509.196330	0.087892
509.414105	0.089258
509.631861	0.091331
509.849599	0.089317
510.067319	0.087899
510.285021	0.086542
510.502704	0.086781
510.720369	0.089138
510.938016	0.088973
511.155645	0.091017
511.373255	0.090097
511.590848	0.090025
511.808422	0.091754
512.025977	0.090993
512.243515	0.090756
512.461034	0.090236
512.678536	0.089749
512.896018	0.091362
513.113483	0.090836
513.330930	0.091140
513.548358	0.092276
513.765768	0.091346
513.983160	0.091126
514.200533	0.091479
514.417889	0.090853
514.635226	0.089747
514.852545	0.089215
515.069845	0.089647
515.287128	0.088993
515.504392	0.088099
515.721638	0.087600
515.938866	0.088569
516.156075	0.088791
516.373267	0.090291
516.590440	0.091878
516.807594	0.092956
517.024731	0.091933
517.241850	0.093332
517.458950	0.093958
517.676032	0.095488
517.893095	0.095603
518.110141	0.095790
518.327168	0.095103
518.544177	0.094080
518.761168	0.093220
518.978141	0.093305
519.195095	0.092147
519.412031	0.090822
519.628949	0.090003
519.845849	0.090861
520.062731	0.091394
520.279594	0.092278
520.496439	0.092529
520.713266	0.093599
520.930074	0.094094
521.146865	0.093725
521.363637	0.093687
521.580391	0.094073
521.797127	0.093912
522.013844	0.092278
522.230543	0.092867
522.447224	0.093907
522.663887	0.094083
522.880532	0.094348
523.097158	0.095445
523.313766	0.096384
523.530356	0.096125
523.746928	0.096895
523.963481	0.098297
524.180017	0.098331
524.396534	0.097711
524.613032	0.096209
524.829513	0.095691
525.045975	0.096384
525.262420	0.096943
525.478845	0.097199
525.695253	0.097465
525.911643	0.096922
526.128014	0.097072
526.344367	0.097367
526.560702	0.097649
526.777018	0.098151
526.993316	0.096972
527.209597	0.095687
527.425858	0.096683
527.642102	0.095287
527.858328	0.095339
528.074535	0.094782
528.290724	0.093978
528.506894	0.094258
528.723047	0.094019
528.939181	0.094794
529.155297	0.095759
529.371395	0.094436
529.587475	0.094273
529.803536	0.094715
530.019579	0.094574
530.235604	0.095962
530.451611	0.096394
530.667600	0.096691
530.883570	0.096648
531.099522	0.096786
531.315456	0.096660
531.531372	0.097604
531.747269	0.098354
531.963148	0.098897
532.179009	0.099288
532.394852	0.098762
532.610676	0.099704
532.826482	0.099876
533.042271	0.100213
533.258040	0.102018
533.473792	0.102267
533.689525	0.102236
533.905240	0.102397
534.120937	0.102482
534.336616	0.103247
534.552277	0.103023
534.767919	0.103970
534.983543	0.103407
535.199149	0.102998
535.414736	0.103678
535.630306	0.103547
535.845857	0.103812
536.061390	0.102567
536.276904	0.102990
536.492401	0.102975
536.707879	0.102722
536.923339	0.103133
537.138781	0.103916
537.354204	0.103870
537.569610	0.103935
537.784997	0.104377
538.000366	0.105413
538.215716	0.105409
538.431049	0.105728
538.646363	0.106127
538.861659	0.106951
539.076937	0.106438
539.292196	0.106235
539.507438	0.107284
539.722661	0.107502
539.937866	0.107223
540.153052	0.106624
540.368221	0.107517
540.583371	0.107235
540.798503	0.106526
541.013617	0.106469
541.228712	0.107395
541.443789	0.106963
541.658848	0.106546
541.873889	0.107377
542.088912	0.107853
542.303916	0.106923
542.518902	0.107546
542.733870	0.108131
542.948820	0.107467
543.163752	0.107031
543.378665	0.107179
543.593560	0.107957
543.808437	0.108204
544.023295	0.109357
544.238136	0.109930
544.452958	0.110215
544.667762	0.111191
544.882548	0.112903
545.097315	0.112393
545.312064	0.112425
545.526795	0.112315
545.741508	0.112377
545.956203	0.111834
546.170879	0.112451
546.385537	0.112548
546.600177	0.111821
546.814799	0.110851
547.029402	0.111225
547.243988	0.111251
547.458555	0.111218
547.673103	0.110449
547.887634	0.110573
548.102146	0.110190
548.316640	0.110079
548.531116	0.110061
548.745574	0.110079
548.960013	0.110459
549.174435	0.109866
549.388838	0.109344
549.603222	0.109270
549.817589	0.109439
550.031937	0.109453
550.246267	0.109411
550.460579	0.109510
550.674873	0.110003
550.889148	0.110266
551.103405	0.111129
551.317644	0.112077
551.531865	0.112810
551.746068	0.112550
551.960252	0.112404
552.174418	0.112542
552.388566	0.112069
552.602696	0.112330
552.816807	0.112266
553.030900	0.112639
553.244975	0.111971
553.459032	0.112118
553.673070	0.112231
553.887091	0.112263
554.101093	0.111791
554.315077	0.112154
554.529042	0.112412
554.742990	0.112561
554.956919	0.111690
555.170830	0.112551
555.384722	0.112135
555.598597	0.112533
555.812453	0.112486
556.026291	0.112741
556.240111	0.112546
556.453913	0.112020
556.667696	0.112418
556.881461	0.112547
557.095208	0.112179
557.308937	0.112054
557.522647	0.111470
557.736339	0.111974
557.950013	0.111789
558.163669	0.112240
558.377307	0.112308
558.590926	0.112047
558.804527	0.112373
559.018110	0.111793
559.231675	0.112644
559.445221	0.112609
559.658749	0.112719
559.872259	0.113172
560.085751	0.113377
560.299225	0.113650
560.512680	0.113280
560.726117	0.113685
560.939536	0.114759
561.152937	0.114719
561.366319	0.115120
561.579683	0.115143
561.793029	0.115293
562.006357	0.115616
562.219667	0.116020
562.432958	0.116019
562.646231	0.115805
562.859486	0.115807
563.072723	0.115696
563.285941	0.115755
563.499141	0.115652
563.712323	0.115523
563.925487	0.115567
564.138632	0.115244
564.351760	0.115498
564.564869	0.115696
564.777960	0.115512
564.991032	0.115971
565.204087	0.116976
565.417123	0.117119
565.630141	0.118088
565.843140	0.117938
566.056122	0.117910
566.269085	0.118347
566.482030	0.118387
566.694957	0.118549
566.907866	0.119004
567.120756	0.118554
567.333628	0.118716
567.546482	0.117997
567.759318	0.117498
567.972135	0.118130
568.184935	0.118911
568.397716	0.119070
568.610478	0.118976
568.823223	0.118789
569.035949	0.118576
569.248657	0.118835
569.461347	0.118697
569.674019	0.120010
569.886672	0.120750
570.099308	0.120136
570.311925	0.120533
570.524523	0.120642
570.737104	0.120549
570.949666	0.120788
571.162210	0.121166
571.374736	0.121347
571.587244	0.120901
571.799733	0.120229
572.012205	0.120041
572.224658	0.120120
572.437092	0.121255
572.649509	0.121697
572.861907	0.121872
573.074287	0.121764
573.286649	0.121674
573.498993	0.121767
573.711318	0.121667
573.923625	0.121785
574.135914	0.121387
574.348185	0.120574
574.560438	0.120259
574.772672	0.120278
574.984888	0.119679
575.197086	0.120040
575.409266	0.119357
575.621427	0.119545
575.833570	0.118873
576.045695	0.119005
576.257802	0.118825
576.469890	0.118746
576.681961	0.117966
576.894013	0.118273
577.106046	0.118137
577.318062	0.118521
577.530059	0.117986
577.742039	0.119259
577.954000	0.119419
578.165942	0.119212
578.377867	0.118485
578.589773	0.119056
578.801661	0.118949
579.013531	0.119312
579.225382	0.119567
579.437216	0.119891
579.649031	0.118860
579.860828	0.119113
580.072606	0.120111
580.284367	0.120953
580.496109	0.121362
580.707833	0.121319
580.919539	0.120826
581.131227	0.121124
581.342896	0.121091
581.554547	0.121613
581.766180	0.121753
581.977795	0.121191
582.189391	0.121129
582.400969	0.121077
582.612529	0.121566
582.824071	0.121915
583.035595	0.121798
583.247100	0.122199
583.458587	0.122065
583.670056	0.121657
583.881506	0.121542
584.092939	0.121819
584.304353	0.122016
584.515749	0.121870
584.727127	0.122376
584.938486	0.122389
585.149828	0.122257
585.361151	0.122470
585.572456	0.122528
585.783742	0.123073
585.995011	0.123183
586.206261	0.123362
586.417493	0.123411
586.628706	0.123726
586.839902	0.124377
587.051079	0.124993
587.262238	0.125332
587.473379	0.125407
587.684502	0.125338
587.895606	0.125395
588.106692	0.125132
588.317760	0.125573
588.528810	0.125688
588.739841	0.125063
588.950855	0.124936
589.161850	0.125211
589.372827	0.125581
589.583785	0.125641
589.794726	0.125797
590.005648	0.125825
590.216552	0.125935
590.427437	0.125874
590.638305	0.126255
590.849154	0.126067
591.059985	0.125514
591.270798	0.125774
591.481592	0.125936
591.692369	0.126070
591.903127	0.126545
592.113867	0.126214
592.324588	0.125753
592.535292	0.125593
592.745977	0.125744
592.956644	0.126123
593.167293	0.125847
593.377923	0.125668
593.588536	0.125590
593.799130	0.125387
594.009706	0.125345
594.220263	0.125049
594.430803	0.125177
594.641324	0.124930
594.851827	0.124887
595.062312	0.124987
595.272778	0.124938
595.483227	0.125181
595.693657	0.125394
595.904069	0.125522
596.114462	0.126063
596.324838	0.126555
596.535195	0.126674
596.745534	0.126389
596.955855	0.126228
597.166157	0.126468
597.376441	0.126610
597.586707	0.126807
597.796955	0.126848
598.007185	0.127035
598.217396	0.126989
598.427589	0.127772
598.637764	0.128248
598.847921	0.128572
599.058060	0.128316
599.268180	0.128270
599.478282	0.127789
599.688366	0.127708
599.898431	0.127612
600.108479	0.127365
600.318508	0.126995
600.528519	0.127225
600.738511	0.128082
600.948486	0.128465
601.158442	0.128019
601.368380	0.128665
601.578300	0.129065
601.788202	0.129067
601.998085	0.129251
602.207950	0.128988
602.417797	0.128646
602.627626	0.127960
602.837436	0.128082
603.047228	0.128515
603.257002	0.128275
603.466758	0.127645
603.676496	0.127764
603.886215	0.127509
604.095916	0.127797
604.305599	0.128178
604.515264	0.127967
604.724910	0.128023
604.934538	0.127838
605.144148	0.128172
605.353740	0.129199
605.563314	0.128993
605.772869	0.129124
605.982406	0.129294
606.191925	0.128815
606.401425	0.128872
606.610908	0.128574
606.820372	0.128986
607.029818	0.128999
607.239246	0.128576
607.448655	0.128728
607.658047	0.128683
607.867420	0.128552
608.076775	0.128773
608.286111	0.129269
608.495430	0.129152
608.704730	0.128765
608.914012	0.127901
609.123275	0.127919
609.332521	0.128057
609.541748	0.128102
609.750957	0.128323
609.960148	0.128643
610.169321	0.128344
610.378475	0.128413
610.587611	0.128535
610.796729	0.128892
611.005829	0.129132
611.214910	0.129292
611.423974	0.129740
611.633019	0.129413
611.842045	0.129559
612.051054	0.129924
612.260044	0.130091
612.469017	0.130423
612.677970	0.131088
612.886906	0.131218
613.095824	0.131338
613.304723	0.131349
613.513604	0.131649
613.722467	0.131769
613.931311	0.131143
614.140138	0.131042
614.348946	0.130991
614.557736	0.130696
614.766507	0.130938
614.975261	0.131167
615.183996	0.130872
615.392713	0.130807
615.601412	0.130639
615.810092	0.131080
616.018754	0.132091
616.227399	0.131584
616.436024	0.131718
616.644632	0.131436
616.853222	0.131578
617.061793	0.131574
617.270346	0.131991
617.478880	0.131698
617.687397	0.131541
617.895895	0.131099
618.104375	0.131479
618.312837	0.131631
618.521281	0.131568
618.729706	0.131123
618.938113	0.131118
619.146502	0.131000
619.354873	0.131471
619.563226	0.131419
619.771560	0.131708
619.979876	0.131736
620.188174	0.131810
620.396453	0.132191
620.604715	0.132255
620.812958	0.132601
621.021183	0.132510
621.229390	0.132461
621.437578	0.132911
621.645748	0.132851
621.853900	0.133017
622.062034	0.132737
622.270150	0.132448
622.478247	0.132652
622.686326	0.132902
622.894387	0.132908
623.102430	0.133301
623.310454	0.133689
623.518461	0.133912
623.726449	0.134167
623.934418	0.134324
624.142370	0.134573
624.350303	0.134699
624.558218	0.134741
624.766115	0.135230
624.973994	0.134937
625.181855	0.134656
625.389697	0.134503
625.597521	0.134515
625.805327	0.134439
626.013114	0.134658
626.220883	0.134903
626.428634	0.135214
626.636367	0.135102
626.844082	0.135243
627.051778	0.135647
627.259457	0.135821
627.467117	0.136078
627.674758	0.136314
627.882382	0.136109
628.089987	0.135915
628.297574	0.136141
628.505143	0.135968
628.712694	0.136290
628.920226	0.136293
629.127740	0.136419
629.335236	0.136294
629.542714	0.136616
629.750174	0.136962
629.957615	0.137030
630.165038	0.137139
630.372443	0.137540
630.579829	0.137732
630.787198	0.137590
630.994548	0.137672
631.201880	0.138064
631.409194	0.138846
631.616489	0.138944
631.823766	0.138990
632.031025	0.138807
632.238266	0.139361
632.445489	0.138779
632.652693	0.139160
632.859879	0.139283
633.067047	0.139166
633.274197	0.138412
633.481329	0.138465
633.688442	0.138824
633.895537	0.138930
634.102614	0.138483
634.309672	0.138962
634.516713	0.139308
634.723735	0.139242
634.930739	0.138931
635.137724	0.138950
635.344692	0.139175
635.551641	0.139321
635.758572	0.139298
635.965485	0.139129
636.172379	0.139030
636.379256	0.138580
636.586114	0.138630
636.792954	0.138836
636.999775	0.139201
637.206579	0.138761
637.413364	0.138593
637.620131	0.138410
637.826880	0.138673
638.033610	0.139144
638.240323	0.139162
638.447017	0.139135
638.653692	0.139007
638.860350	0.138921
639.066990	0.139427
639.273611	0.139534
639.480214	0.139760
639.686798	0.139280
639.893365	0.139085
640.099913	0.139229
640.306443	0.139651
640.512955	0.140217
640.719449	0.140217
640.925924	0.140078
641.132381	0.140311
641.338820	0.140411
641.545241	0.140827
641.751644	0.141105
641.958028	0.141040
642.164394	0.140996
642.370742	0.140936
642.577071	0.141189
642.783383	0.141337
642.989676	0.141048
643.195951	0.140608
643.402207	0.140916
643.608446	0.140914
643.814666	0.141001
644.020868	0.141256
644.227052	0.140905
644.433218	0.140891
644.639365	0.140829
644.845494	0.140925
645.051605	0.141587
645.257698	0.141573
645.463772	0.141225
645.669828	0.141428
645.875866	0.141320
646.081886	0.142051
646.287888	0.141913
646.493871	0.142064
646.699836	0.142114
646.905783	0.141987
647.111712	0.142118
647.317622	0.142381
647.523514	0.142283
647.729388	0.141997
647.935244	0.141887
648.141082	0.141945
648.346901	0.141891
648.552702	0.142105
648.758485	0.141940
648.964250	0.141962
649.169996	0.142288
649.375724	0.142450
649.581434	0.142607
649.787126	0.142692
649.992800	0.143210
650.198455	0.143571
650.404092	0.143750
650.609711	0.144130
650.815311	0.144097
651.020894	0.144254
651.226458	0.144431
651.432004	0.144504
651.637532	0.144703
651.843041	0.144364
652.048532	0.144608
652.254006	0.144650
652.459460	0.144913
652.664897	0.145116
652.870315	0.145318
653.075716	0.145085
653.281097	0.145499
653.486461	0.145362
653.691807	0.145830
653.897134	0.145863
654.102443	0.146203
654.307734	0.146143
654.513006	0.146179
654.718261	0.145986
654.923497	0.146080
655.128715	0.146288
655.333915	0.146761
655.539096	0.146860
655.744259	0.147129
655.949404	0.146940
656.154531	0.147277
656.359640	0.147793
656.564730	0.147882
656.769802	0.148666
656.974856	0.148608
657.179892	0.148539
657.384909	0.148696
657.589908	0.148463
657.794889	0.148716
657.999852	0.148549
658.204797	0.148555
658.409723	0.148694
658.614631	0.148310
658.819521	0.148471
659.024393	0.148713
659.229246	0.148437
659.434081	0.148421
659.638898	0.148465
659.843697	0.148651
660.048478	0.148637
660.253240	0.148682
660.457984	0.149184
660.662710	0.149401
660.867417	0.149129
661.072107	0.149648
661.276778	0.149961
661.481431	0.149826
661.686066	0.149936
661.890682	0.150027
662.095281	0.150273
662.299861	0.149969
662.504422	0.149833
662.708966	0.150229
662.913491	0.149900
663.117999	0.149636
663.322488	0.149836
663.526958	0.149846
663.731411	0.149749
663.935845	0.149491
664.140261	0.149752
664.344659	0.149574
664.549038	0.149739
664.753400	0.149922
664.957743	0.150498
665.162068	0.150669
665.366375	0.150680
665.570663	0.150696
665.774933	0.151138
665.979185	0.151211
666.183419	0.151821
666.387635	0.151381
666.591832	0.151512
666.796011	0.151604
667.000172	0.151704
667.204315	0.151855
667.408439	0.152151
667.612545	0.152110
667.816634	0.152369
668.020703	0.152104
668.224755	0.152700
668.428788	0.152790
668.632803	0.153027
668.836800	0.153425
669.040779	0.153276
669.244739	0.153466
669.448681	0.153539
669.652605	0.153289
669.856511	0.153614
670.060399	0.153517
670.264268	0.153659
670.468119	0.153295
670.671952	0.153164
670.875767	0.153465
671.079563	0.153501
671.283341	0.153572
671.487101	0.153779
671.690843	0.153809
671.894567	0.153955
672.098272	0.154095
672.301959	0.154502
672.505628	0.154519
672.709278	0.154691
672.912911	0.154772
673.116525	0.154988
673.320121	0.155127
673.523699	0.155317
673.727258	0.155336
673.930799	0.155224
674.134322	0.154916
674.337827	0.154909
674.541314	0.154824
674.744782	0.154866
674.948232	0.154988
675.151664	0.155144
675.355078	0.155244
675.558474	0.155287
675.761851	0.155542
675.965210	0.156019
676.168551	0.156296
676.371873	0.156484
676.575178	0.156439
676.778464	0.156879
676.981732	0.156742
677.184981	0.156752
677.388213	0.157008
677.591426	0.157455
677.794621	0.157469
677.997798	0.157714
678.200956	0.158176
678.404097	0.158796
678.607219	0.158641
678.810323	0.159344
679.013408	0.159398
679.216476	0.159496
679.419525	0.159249
679.622556	0.159231
679.825569	0.159120
680.028563	0.158945
680.231540	0.158679
680.434498	0.158483
680.637438	0.158066
680.840359	0.158190
681.043263	0.158270
681.246148	0.158451
681.449015	0.158697
681.651864	0.158769
681.854694	0.158898
682.057506	0.158871
682.260301	0.159031
682.463076	0.158910
682.665834	0.159148
682.868573	0.159043
683.071295	0.159118
683.273998	0.159013
683.476682	0.159194
683.679349	0.159569
683.881997	0.159724
684.084627	0.159916
684.287239	0.160453
684.489833	0.160529
684.692408	0.160984
684.894965	0.161250
685.097504	0.161761
685.300025	0.162057
685.502527	0.162232
685.705012	0.162540
685.907478	0.162833
686.109925	0.163152
686.312355	0.163287
686.514766	0.162974
686.717159	0.162909
686.919534	0.163076
687.121891	0.163111
687.324230	0.163016
687.526550	0.162856
687.728852	0.162724
687.931136	0.162436
688.133401	0.162175
688.335649	0.162623
688.537878	0.162571
688.740089	0.162388
688.942281	0.162419
689.144456	0.162343
689.346612	0.162892
689.548750	0.163072
689.750870	0.163166
689.952971	0.163656
690.155055	0.163793
690.357120	0.163993
690.559167	0.164260
690.761195	0.164275
690.963206	0.164322
691.165198	0.164326
691.367172	0.164694
691.569128	0.164864
691.771065	0.164908
691.972984	0.164610
692.174885	0.164781
692.376768	0.164865
692.578633	0.164755
692.780479	0.164763
692.982308	0.164406
693.184118	0.164227
693.385909	0.164009
