sample name	sample
index	178
start time	 02-18-2021  11:03:51 AM


Wavelength (nm)	Absorbance
494.344910	-0.158508
494.563924	-0.158508
494.782919	-0.158508
495.001897	-0.161797
495.220856	-0.066995
495.439797	-0.044002
495.658719	-0.039303
495.877624	-0.032038
496.096510	-0.011753
496.315378	-0.026714
496.534227	-0.034361
496.753059	-0.054210
496.971872	-0.058963
497.190667	0.094903
497.409444	0.142704
497.628203	0.154260
497.846943	0.161303
498.065665	0.166488
498.284369	0.170761
498.503055	0.172640
498.721723	0.173991
498.940372	0.174966
499.159003	0.176206
499.377616	0.175076
499.596210	0.176000
499.814787	0.175819
500.033345	0.175956
500.251885	0.174997
500.470406	0.174345
500.688910	0.174710
500.907395	0.174843
501.125862	0.174845
501.344311	0.176536
501.562742	0.177339
501.781154	0.178095
501.999548	0.177281
502.217924	0.179421
502.436282	0.180429
502.654621	0.181150
502.872942	0.181546
503.091245	0.181274
503.309530	0.180049
503.527797	0.178865
503.746045	0.178332
503.964275	0.178721
504.182487	0.177861
504.400681	0.178091
504.618856	0.178017
504.837013	0.178199
505.055152	0.178612
505.273273	0.179386
505.491376	0.180633
505.709460	0.181454
505.927526	0.180824
506.145574	0.180837
506.363604	0.179921
506.581615	0.180184
506.799608	0.180724
507.017583	0.180184
507.235540	0.180079
507.453478	0.178583
507.671399	0.177780
507.889301	0.178803
508.107185	0.178949
508.325050	0.180073
508.542898	0.179156
508.760727	0.178997
508.978538	0.180522
509.196330	0.180473
509.414105	0.181825
509.631861	0.182353
509.849599	0.181802
510.067319	0.182147
510.285021	0.182887
510.502704	0.184146
510.720369	0.184961
510.938016	0.184390
511.155645	0.185024
511.373255	0.185492
511.590848	0.186104
511.808422	0.186900
512.025977	0.186495
512.243515	0.185170
512.461034	0.184896
512.678536	0.184487
512.896018	0.184202
513.113483	0.184480
513.330930	0.183872
513.548358	0.183789
513.765768	0.184272
513.983160	0.185235
514.200533	0.186403
514.417889	0.186667
514.635226	0.186337
514.852545	0.188019
515.069845	0.188482
515.287128	0.189256
515.504392	0.188993
515.721638	0.188334
515.938866	0.188128
516.156075	0.189016
516.373267	0.188793
516.590440	0.189953
516.807594	0.189020
517.024731	0.189231
517.241850	0.189524
517.458950	0.190755
517.676032	0.192383
517.893095	0.191755
518.110141	0.191685
518.327168	0.191634
518.544177	0.192172
518.761168	0.191971
518.978141	0.192011
519.195095	0.192199
519.412031	0.192125
519.628949	0.191677
519.845849	0.192385
520.062731	0.191854
520.279594	0.193021
520.496439	0.193085
520.713266	0.193823
520.930074	0.193192
521.146865	0.193387
521.363637	0.193389
521.580391	0.193507
521.797127	0.193814
522.013844	0.194414
522.230543	0.193751
522.447224	0.194665
522.663887	0.195194
522.880532	0.196475
523.097158	0.197632
523.313766	0.197477
523.530356	0.198295
523.746928	0.198515
523.963481	0.198922
524.180017	0.199517
524.396534	0.199439
524.613032	0.199556
524.829513	0.199252
525.045975	0.198786
525.262420	0.199640
525.478845	0.199355
525.695253	0.199565
525.911643	0.199374
526.128014	0.199170
526.344367	0.198542
526.560702	0.199283
526.777018	0.200407
526.993316	0.200880
527.209597	0.200550
527.425858	0.200560
527.642102	0.201042
527.858328	0.201714
528.074535	0.202983
528.290724	0.203373
528.506894	0.202539
528.723047	0.202024
528.939181	0.201952
529.155297	0.202893
529.371395	0.203061
529.587475	0.204049
529.803536	0.203876
530.019579	0.204141
530.235604	0.204307
530.451611	0.205817
530.667600	0.206842
530.883570	0.207104
531.099522	0.207036
531.315456	0.207823
531.531372	0.207374
531.747269	0.208215
531.963148	0.208399
532.179009	0.209025
532.394852	0.208374
532.610676	0.207849
532.826482	0.208285
533.042271	0.209716
533.258040	0.209788
533.473792	0.210621
533.689525	0.210664
533.905240	0.210397
534.120937	0.210314
534.336616	0.210831
534.552277	0.211135
534.767919	0.211465
534.983543	0.211016
535.199149	0.211883
535.414736	0.211074
535.630306	0.211615
535.845857	0.212954
536.061390	0.213898
536.276904	0.214849
536.492401	0.215562
536.707879	0.216291
536.923339	0.217276
537.138781	0.217331
537.354204	0.217901
537.569610	0.218569
537.784997	0.217960
538.000366	0.218120
538.215716	0.217741
538.431049	0.217807
538.646363	0.217361
538.861659	0.216734
539.076937	0.217121
539.292196	0.217669
539.507438	0.217689
539.722661	0.218462
539.937866	0.218814
540.153052	0.220015
540.368221	0.220367
540.583371	0.221207
540.798503	0.221786
541.013617	0.222309
541.228712	0.222916
541.443789	0.223658
541.658848	0.223712
541.873889	0.224203
542.088912	0.223774
542.303916	0.224551
542.518902	0.224660
542.733870	0.225662
542.948820	0.225726
543.163752	0.225694
543.378665	0.225516
543.593560	0.225516
543.808437	0.225800
544.023295	0.226815
544.238136	0.227040
544.452958	0.227934
544.667762	0.227255
544.882548	0.227634
545.097315	0.227568
545.312064	0.228201
545.526795	0.228936
545.741508	0.228977
545.956203	0.229001
546.170879	0.228666
546.385537	0.227845
546.600177	0.228703
546.814799	0.228982
547.029402	0.229992
547.243988	0.230107
547.458555	0.230798
547.673103	0.231461
547.887634	0.231610
548.102146	0.232079
548.316640	0.233261
548.531116	0.233557
548.745574	0.233888
548.960013	0.234038
549.174435	0.233789
549.388838	0.233594
549.603222	0.233563
549.817589	0.233804
550.031937	0.234254
550.246267	0.233867
550.460579	0.234050
550.674873	0.234103
550.889148	0.234280
551.103405	0.234801
551.317644	0.234865
551.531865	0.235540
551.746068	0.235812
551.960252	0.236097
552.174418	0.236802
552.388566	0.237000
552.602696	0.237315
552.816807	0.237772
553.030900	0.237952
553.244975	0.238742
553.459032	0.238518
553.673070	0.238959
553.887091	0.238881
554.101093	0.238922
554.315077	0.239060
554.529042	0.239386
554.742990	0.239110
554.956919	0.239070
555.170830	0.238722
555.384722	0.238830
555.598597	0.238208
555.812453	0.238730
556.026291	0.239013
556.240111	0.239207
556.453913	0.239376
556.667696	0.239963
556.881461	0.241012
557.095208	0.241288
557.308937	0.241711
557.522647	0.242470
557.736339	0.243099
557.950013	0.243468
558.163669	0.244043
558.377307	0.244197
558.590926	0.244272
558.804527	0.243548
559.018110	0.243877
559.231675	0.244171
559.445221	0.244609
559.658749	0.244409
559.872259	0.244402
560.085751	0.244601
560.299225	0.244817
560.512680	0.245373
560.726117	0.246278
560.939536	0.246711
561.152937	0.246411
561.366319	0.246207
561.579683	0.246428
561.793029	0.246911
562.006357	0.246972
562.219667	0.247050
562.432958	0.247257
562.646231	0.247351
562.859486	0.247393
563.072723	0.247812
563.285941	0.248107
563.499141	0.248160
563.712323	0.248091
563.925487	0.248255
564.138632	0.248435
564.351760	0.248046
564.564869	0.247998
564.777960	0.248557
564.991032	0.248999
565.204087	0.249498
565.417123	0.250011
565.630141	0.250266
565.843140	0.250290
566.056122	0.250969
566.269085	0.251584
566.482030	0.251634
566.694957	0.251866
566.907866	0.252092
567.120756	0.252315
567.333628	0.252237
567.546482	0.252607
567.759318	0.253205
567.972135	0.253063
568.184935	0.253460
568.397716	0.254639
568.610478	0.254636
568.823223	0.254516
569.035949	0.254936
569.248657	0.255401
569.461347	0.255882
569.674019	0.255753
569.886672	0.255802
570.099308	0.255867
570.311925	0.255732
570.524523	0.255742
570.737104	0.256160
570.949666	0.256091
571.162210	0.256197
571.374736	0.255997
571.587244	0.256332
571.799733	0.256522
572.012205	0.256749
572.224658	0.256687
572.437092	0.256885
572.649509	0.257621
572.861907	0.258085
573.074287	0.258277
573.286649	0.258661
573.498993	0.258299
573.711318	0.258960
573.923625	0.258987
574.135914	0.259242
574.348185	0.259085
574.560438	0.258800
574.772672	0.258765
574.984888	0.258960
575.197086	0.258867
575.409266	0.259793
575.621427	0.260005
575.833570	0.260179
576.045695	0.260574
576.257802	0.261227
576.469890	0.261341
576.681961	0.261574
576.894013	0.261914
577.106046	0.262353
577.318062	0.262309
577.530059	0.262282
577.742039	0.262641
577.954000	0.262538
578.165942	0.262303
578.377867	0.262678
578.589773	0.262811
578.801661	0.262935
579.013531	0.262940
579.225382	0.263277
579.437216	0.263402
579.649031	0.263307
579.860828	0.263296
580.072606	0.264061
580.284367	0.264004
580.496109	0.263939
580.707833	0.263815
580.919539	0.263908
581.131227	0.264029
581.342896	0.264424
581.554547	0.264870
581.766180	0.265044
581.977795	0.264764
582.189391	0.265385
582.400969	0.265378
582.612529	0.266071
582.824071	0.265951
583.035595	0.266028
583.247100	0.266221
583.458587	0.266405
583.670056	0.267024
583.881506	0.267526
584.092939	0.267798
584.304353	0.268559
584.515749	0.268552
584.727127	0.269262
584.938486	0.269150
585.149828	0.269282
585.361151	0.269493
585.572456	0.269681
585.783742	0.269986
585.995011	0.269988
586.206261	0.270146
586.417493	0.270295
586.628706	0.270798
586.839902	0.271227
587.051079	0.271202
587.262238	0.271191
587.473379	0.271068
587.684502	0.271393
587.895606	0.271527
588.106692	0.271695
588.317760	0.271845
588.528810	0.271586
588.739841	0.272374
588.950855	0.272696
589.161850	0.273113
589.372827	0.273946
589.583785	0.274008
589.794726	0.274162
590.005648	0.274374
590.216552	0.274571
590.427437	0.275252
590.638305	0.275064
590.849154	0.275782
591.059985	0.276096
591.270798	0.275946
591.481592	0.276116
591.692369	0.276241
591.903127	0.276569
592.113867	0.277218
592.324588	0.277149
592.535292	0.277534
592.745977	0.277203
592.956644	0.277322
593.167293	0.276986
593.377923	0.277245
593.588536	0.277403
593.799130	0.277340
594.009706	0.277572
594.220263	0.277992
594.430803	0.278185
594.641324	0.278269
594.851827	0.278495
595.062312	0.278711
595.272778	0.278643
595.483227	0.278925
595.693657	0.279334
595.904069	0.279228
596.114462	0.279461
596.324838	0.279447
596.535195	0.279690
596.745534	0.279925
596.955855	0.280504
597.166157	0.280764
597.376441	0.280890
597.586707	0.280907
597.796955	0.280943
598.007185	0.281039
598.217396	0.281225
598.427589	0.281498
598.637764	0.281428
598.847921	0.281746
599.058060	0.282070
599.268180	0.282367
599.478282	0.283027
599.688366	0.283183
599.898431	0.283629
600.108479	0.283910
600.318508	0.284056
600.528519	0.284673
600.738511	0.284959
600.948486	0.285075
601.158442	0.285272
601.368380	0.284862
601.578300	0.285188
601.788202	0.284957
601.998085	0.285241
602.207950	0.285569
602.417797	0.285275
602.627626	0.285223
602.837436	0.285372
603.047228	0.285578
603.257002	0.285748
603.466758	0.286151
603.676496	0.286279
603.886215	0.286370
604.095916	0.286506
604.305599	0.286840
604.515264	0.287106
604.724910	0.287359
604.934538	0.287477
605.144148	0.288103
605.353740	0.288314
605.563314	0.288583
605.772869	0.288329
605.982406	0.288187
606.191925	0.288507
606.401425	0.288566
606.610908	0.288958
606.820372	0.289215
607.029818	0.289296
607.239246	0.289161
607.448655	0.289260
607.658047	0.289677
607.867420	0.289887
608.076775	0.290112
608.286111	0.290550
608.495430	0.290662
608.704730	0.290843
608.914012	0.290788
609.123275	0.291097
609.332521	0.291546
609.541748	0.291798
609.750957	0.292194
609.960148	0.292313
610.169321	0.292359
610.378475	0.292558
610.587611	0.292610
610.796729	0.292865
611.005829	0.292824
611.214910	0.292528
611.423974	0.292808
611.633019	0.293170
611.842045	0.293236
612.051054	0.293625
612.260044	0.293765
612.469017	0.293855
612.677970	0.293852
612.886906	0.294020
613.095824	0.294284
613.304723	0.294278
613.513604	0.294516
613.722467	0.294749
613.931311	0.294661
614.140138	0.294432
614.348946	0.294624
614.557736	0.295176
614.766507	0.295471
614.975261	0.295463
615.183996	0.295653
615.392713	0.295653
615.601412	0.295573
615.810092	0.295700
616.018754	0.296021
616.227399	0.296241
616.436024	0.296422
616.644632	0.296699
616.853222	0.297353
617.061793	0.297405
617.270346	0.297454
617.478880	0.297917
617.687397	0.297975
617.895895	0.298082
618.104375	0.298316
618.312837	0.298182
618.521281	0.298345
618.729706	0.298279
618.938113	0.298669
619.146502	0.298853
619.354873	0.298922
619.563226	0.299103
619.771560	0.299534
619.979876	0.299613
620.188174	0.299692
620.396453	0.299590
620.604715	0.299961
620.812958	0.300269
621.021183	0.300410
621.229390	0.300750
621.437578	0.301036
621.645748	0.301025
621.853900	0.301162
622.062034	0.301687
622.270150	0.302118
622.478247	0.302236
622.686326	0.302245
622.894387	0.302523
623.102430	0.302661
623.310454	0.303264
623.518461	0.303454
623.726449	0.303713
623.934418	0.303666
624.142370	0.303733
624.350303	0.303745
624.558218	0.303884
624.766115	0.304068
624.973994	0.304060
625.181855	0.304051
625.389697	0.304513
625.597521	0.304641
625.805327	0.304653
626.013114	0.305127
626.220883	0.305184
626.428634	0.305303
626.636367	0.305477
626.844082	0.305581
627.051778	0.305727
627.259457	0.305521
627.467117	0.305700
627.674758	0.306028
627.882382	0.305863
628.089987	0.306203
628.297574	0.306375
628.505143	0.306495
628.712694	0.306880
628.920226	0.306788
629.127740	0.306865
629.335236	0.307147
629.542714	0.307506
629.750174	0.307918
629.957615	0.307990
630.165038	0.308324
630.372443	0.308425
630.579829	0.308628
630.787198	0.308822
630.994548	0.309130
631.201880	0.309496
631.409194	0.309430
631.616489	0.309506
631.823766	0.309616
632.031025	0.309213
632.238266	0.309534
632.445489	0.309632
632.652693	0.310004
632.859879	0.310039
633.067047	0.309929
633.274197	0.309952
633.481329	0.310198
633.688442	0.310334
633.895537	0.310813
634.102614	0.310956
634.309672	0.311198
634.516713	0.311269
634.723735	0.311709
634.930739	0.312117
635.137724	0.312376
635.344692	0.312328
635.551641	0.312824
635.758572	0.313308
635.965485	0.313232
636.172379	0.313302
636.379256	0.313049
636.586114	0.313308
636.792954	0.313434
636.999775	0.313771
637.206579	0.313889
637.413364	0.313882
637.620131	0.314031
637.826880	0.314532
638.033610	0.314587
638.240323	0.315118
638.447017	0.315172
638.653692	0.315173
638.860350	0.315559
639.066990	0.315798
639.273611	0.316005
639.480214	0.316232
639.686798	0.316534
639.893365	0.316999
640.099913	0.317357
640.306443	0.317469
640.512955	0.317626
640.719449	0.317782
640.925924	0.318113
641.132381	0.318703
641.338820	0.318772
641.545241	0.318605
641.751644	0.318640
641.958028	0.318689
642.164394	0.319011
642.370742	0.319388
642.577071	0.319404
642.783383	0.319540
642.989676	0.319299
643.195951	0.319352
643.402207	0.319770
643.608446	0.319931
643.814666	0.320253
644.020868	0.320477
644.227052	0.320263
644.433218	0.320507
644.639365	0.320484
644.845494	0.320743
645.051605	0.321015
645.257698	0.321236
645.463772	0.321303
645.669828	0.321117
645.875866	0.321076
646.081886	0.321571
646.287888	0.321632
646.493871	0.321768
646.699836	0.322045
646.905783	0.322139
647.111712	0.322267
647.317622	0.322812
647.523514	0.323530
647.729388	0.324024
647.935244	0.324210
648.141082	0.324565
648.346901	0.325033
648.552702	0.325269
648.758485	0.325778
648.964250	0.325868
649.169996	0.326085
649.375724	0.326146
649.581434	0.326417
649.787126	0.326780
649.992800	0.326915
650.198455	0.327144
650.404092	0.327596
650.609711	0.327691
650.815311	0.327924
651.020894	0.327836
651.226458	0.327852
651.432004	0.327970
651.637532	0.328077
651.843041	0.328051
652.048532	0.328219
652.254006	0.328083
652.459460	0.328143
652.664897	0.328575
652.870315	0.328918
653.075716	0.329156
653.281097	0.329382
653.486461	0.329637
653.691807	0.330260
653.897134	0.330449
654.102443	0.330879
654.307734	0.331419
654.513006	0.331706
654.718261	0.331880
654.923497	0.332166
655.128715	0.332421
655.333915	0.332657
655.539096	0.332699
655.744259	0.333003
655.949404	0.333054
656.154531	0.332975
656.359640	0.332722
656.564730	0.332997
656.769802	0.333060
656.974856	0.333171
657.179892	0.333388
657.384909	0.333830
657.589908	0.334094
657.794889	0.334326
657.999852	0.334520
658.204797	0.334925
658.409723	0.334981
658.614631	0.335312
658.819521	0.335487
659.024393	0.335643
659.229246	0.335677
659.434081	0.335860
659.638898	0.336289
659.843697	0.336671
660.048478	0.337156
660.253240	0.337598
660.457984	0.338030
660.662710	0.338423
660.867417	0.338561
661.072107	0.338790
661.276778	0.338758
661.481431	0.338734
661.686066	0.338966
661.890682	0.339081
662.095281	0.339246
662.299861	0.339509
662.504422	0.339505
662.708966	0.339687
662.913491	0.339827
663.117999	0.340350
663.322488	0.340656
663.526958	0.341020
663.731411	0.341300
663.935845	0.341776
664.140261	0.341862
664.344659	0.342338
664.549038	0.342527
664.753400	0.342848
664.957743	0.342865
665.162068	0.343290
665.366375	0.343201
665.570663	0.343397
665.774933	0.343435
665.979185	0.343596
666.183419	0.343716
666.387635	0.344385
666.591832	0.344550
666.796011	0.345037
667.000172	0.345152
667.204315	0.345693
667.408439	0.345778
667.612545	0.346143
667.816634	0.346160
668.020703	0.346282
668.224755	0.346369
668.428788	0.346739
668.632803	0.346746
668.836800	0.346722
669.040779	0.346787
669.244739	0.346743
669.448681	0.346879
669.652605	0.347477
669.856511	0.347838
670.060399	0.347902
670.264268	0.348114
670.468119	0.348228
670.671952	0.348469
670.875767	0.348896
671.079563	0.349590
671.283341	0.349567
671.487101	0.349783
671.690843	0.350095
671.894567	0.350333
672.098272	0.350389
672.301959	0.350982
672.505628	0.351124
672.709278	0.351534
672.912911	0.351743
673.116525	0.352022
673.320121	0.352441
673.523699	0.352553
673.727258	0.352486
673.930799	0.352745
674.134322	0.353046
674.337827	0.353418
674.541314	0.353272
674.744782	0.353442
674.948232	0.353754
675.151664	0.353913
675.355078	0.354199
675.558474	0.354691
675.761851	0.354814
675.965210	0.354927
676.168551	0.355222
676.371873	0.355394
676.575178	0.355875
676.778464	0.356354
676.981732	0.356522
677.184981	0.356877
677.388213	0.357208
677.591426	0.357418
677.794621	0.357527
677.997798	0.357943
678.200956	0.358326
678.404097	0.358337
678.607219	0.358565
678.810323	0.358840
679.013408	0.359127
679.216476	0.359523
679.419525	0.359879
679.622556	0.360511
679.825569	0.360842
680.028563	0.361336
680.231540	0.361518
680.434498	0.361605
680.637438	0.361625
680.840359	0.361713
681.043263	0.362085
681.246148	0.362386
681.449015	0.362269
681.651864	0.362349
681.854694	0.362433
682.057506	0.362683
682.260301	0.362900
682.463076	0.363209
682.665834	0.363493
682.868573	0.363806
683.071295	0.364317
683.273998	0.364739
683.476682	0.365086
683.679349	0.365394
683.881997	0.365762
684.084627	0.366052
684.287239	0.366001
684.489833	0.366127
684.692408	0.365935
684.894965	0.365955
685.097504	0.366013
685.300025	0.366070
685.502527	0.366208
685.705012	0.366419
685.907478	0.366588
686.109925	0.367099
686.312355	0.367446
686.514766	0.367833
686.717159	0.368343
686.919534	0.368654
687.121891	0.369011
687.324230	0.368978
687.526550	0.369187
687.728852	0.369430
687.931136	0.369516
688.133401	0.369637
688.335649	0.369715
688.537878	0.369772
688.740089	0.369915
688.942281	0.369977
689.144456	0.370218
689.346612	0.370190
689.548750	0.370542
689.750870	0.371156
689.952971	0.371331
690.155055	0.371612
690.357120	0.371775
690.559167	0.372021
690.761195	0.372388
690.963206	0.372496
691.165198	0.372613
691.367172	0.372699
691.569128	0.372563
691.771065	0.372690
691.972984	0.372798
692.174885	0.372950
692.376768	0.373095
692.578633	0.373094
692.780479	0.373288
692.982308	0.373550
693.184118	0.373748
693.385909	0.373944
