sample name	sample
index	1190
start time	 04-26-2021  12:12:22 PM


Wavelength (nm)	Absorbance
494.344910	-1.710399
494.563924	-1.710399
494.782919	-1.710399
495.001897	NaN
495.220856	NaN
495.439797	NaN
495.658719	-0.000356
495.877624	-0.159848
496.096510	-0.064752
496.315378	-0.120564
496.534227	-0.153779
496.753059	-0.137120
496.971872	-0.183494
497.190667	0.149645
497.409444	0.158197
497.628203	0.161843
497.846943	0.165817
498.065665	0.164471
498.284369	0.164168
498.503055	0.164029
498.721723	0.164345
498.940372	0.165941
499.159003	0.166618
499.377616	0.168540
499.596210	0.168376
499.814787	0.169159
500.033345	0.171376
500.251885	0.170854
500.470406	0.171014
500.688910	0.171279
500.907395	0.170337
501.125862	0.170053
501.344311	0.169025
501.562742	0.168905
501.781154	0.167134
501.999548	0.165906
502.217924	0.166338
502.436282	0.167518
502.654621	0.167258
502.872942	0.167189
503.091245	0.167379
503.309530	0.165911
503.527797	0.167694
503.746045	0.168729
503.964275	0.169191
504.182487	0.169648
504.400681	0.170058
504.618856	0.170058
504.837013	0.171284
505.055152	0.171603
505.273273	0.173815
505.491376	0.172588
505.709460	0.172435
505.927526	0.173483
506.145574	0.173629
506.363604	0.172746
506.581615	0.172736
506.799608	0.171860
507.017583	0.172210
507.235540	0.172112
507.453478	0.172851
507.671399	0.172891
507.889301	0.171853
508.107185	0.172256
508.325050	0.173558
508.542898	0.174261
508.760727	0.173728
508.978538	0.172599
509.196330	0.171693
509.414105	0.170835
509.631861	0.171216
509.849599	0.171455
510.067319	0.171065
510.285021	0.170031
510.502704	0.171132
510.720369	0.171807
510.938016	0.173692
511.155645	0.174613
511.373255	0.175792
511.590848	0.176122
511.808422	0.176133
512.025977	0.176040
512.243515	0.175507
512.461034	0.173870
512.678536	0.173918
512.896018	0.173402
513.113483	0.172932
513.330930	0.172503
513.548358	0.171685
513.765768	0.172480
513.983160	0.172999
514.200533	0.174199
514.417889	0.176363
514.635226	0.175905
514.852545	0.176821
515.069845	0.177060
515.287128	0.176650
515.504392	0.176150
515.721638	0.176722
515.938866	0.177656
516.156075	0.177899
516.373267	0.176739
516.590440	0.177698
516.807594	0.177337
517.024731	0.178181
517.241850	0.179569
517.458950	0.180606
517.676032	0.180049
517.893095	0.179898
518.110141	0.179553
518.327168	0.180344
518.544177	0.181022
518.761168	0.180686
518.978141	0.180295
519.195095	0.179736
519.412031	0.180351
519.628949	0.180988
519.845849	0.180701
520.062731	0.181026
520.279594	0.180478
520.496439	0.180748
520.713266	0.181436
520.930074	0.182385
521.146865	0.182951
521.363637	0.183152
521.580391	0.182968
521.797127	0.183239
522.013844	0.182994
522.230543	0.183449
522.447224	0.183207
522.663887	0.183202
522.880532	0.181897
523.097158	0.182092
523.313766	0.181462
523.530356	0.181591
523.746928	0.181922
523.963481	0.182457
524.180017	0.182604
524.396534	0.182733
524.613032	0.182987
524.829513	0.183534
525.045975	0.183849
525.262420	0.183578
525.478845	0.184002
525.695253	0.184210
525.911643	0.185154
526.128014	0.185603
526.344367	0.186116
526.560702	0.186382
526.777018	0.186867
526.993316	0.186619
527.209597	0.188024
527.425858	0.187414
527.642102	0.188120
527.858328	0.187472
528.074535	0.187472
528.290724	0.187207
528.506894	0.187565
528.723047	0.189012
528.939181	0.190490
529.155297	0.190878
529.371395	0.191586
529.587475	0.191345
529.803536	0.192485
530.019579	0.192801
530.235604	0.193660
530.451611	0.193136
530.667600	0.192115
530.883570	0.191488
531.099522	0.191534
531.315456	0.191934
531.531372	0.191501
531.747269	0.191480
531.963148	0.192579
532.179009	0.192656
532.394852	0.193238
532.610676	0.194548
532.826482	0.194891
533.042271	0.195352
533.258040	0.195310
533.473792	0.196456
533.689525	0.196148
533.905240	0.195174
534.120937	0.195325
534.336616	0.195752
534.552277	0.195122
534.767919	0.195334
534.983543	0.195622
535.199149	0.196035
535.414736	0.196213
535.630306	0.197289
535.845857	0.198102
536.061390	0.198649
536.276904	0.198828
536.492401	0.199466
536.707879	0.199731
536.923339	0.200083
537.138781	0.200502
537.354204	0.200554
537.569610	0.199972
537.784997	0.200339
538.000366	0.200729
538.215716	0.200700
538.431049	0.200675
538.646363	0.200831
538.861659	0.200800
539.076937	0.201062
539.292196	0.201414
539.507438	0.202077
539.722661	0.202781
539.937866	0.202229
540.153052	0.202750
540.368221	0.202968
540.583371	0.203414
540.798503	0.203877
541.013617	0.204566
541.228712	0.204916
541.443789	0.205185
541.658848	0.204899
541.873889	0.205984
542.088912	0.206229
542.303916	0.206532
542.518902	0.206855
542.733870	0.206958
542.948820	0.207224
543.163752	0.207359
543.378665	0.207722
543.593560	0.207493
543.808437	0.207522
544.023295	0.207988
544.238136	0.208262
544.452958	0.208387
544.667762	0.208252
544.882548	0.208087
545.097315	0.208604
545.312064	0.208447
545.526795	0.208948
545.741508	0.209072
545.956203	0.209060
546.170879	0.209350
546.385537	0.210063
546.600177	0.210698
546.814799	0.211092
547.029402	0.210859
547.243988	0.211244
547.458555	0.211575
547.673103	0.211714
547.887634	0.212341
548.102146	0.212014
548.316640	0.212379
548.531116	0.212372
548.745574	0.212890
548.960013	0.213427
549.174435	0.213344
549.388838	0.213710
549.603222	0.214262
549.817589	0.214707
550.031937	0.215572
550.246267	0.214958
550.460579	0.214646
550.674873	0.213782
550.889148	0.213852
551.103405	0.214284
551.317644	0.214382
551.531865	0.214356
551.746068	0.214061
551.960252	0.214170
552.174418	0.214658
552.388566	0.215082
552.602696	0.215922
552.816807	0.216003
553.030900	0.216359
553.244975	0.216883
553.459032	0.216790
553.673070	0.217070
553.887091	0.217173
554.101093	0.217302
554.315077	0.218434
554.529042	0.218391
554.742990	0.218617
554.956919	0.219135
555.170830	0.219348
555.384722	0.220039
555.598597	0.220166
555.812453	0.220702
556.026291	0.220817
556.240111	0.220238
556.453913	0.220557
556.667696	0.221011
556.881461	0.220703
557.095208	0.220126
557.308937	0.220174
557.522647	0.220461
557.736339	0.220440
557.950013	0.221041
558.163669	0.221730
558.377307	0.221939
558.590926	0.222270
558.804527	0.223210
559.018110	0.223649
559.231675	0.223555
559.445221	0.223762
559.658749	0.223659
559.872259	0.223783
560.085751	0.224022
560.299225	0.224065
560.512680	0.223856
560.726117	0.223772
560.939536	0.224340
561.152937	0.224653
561.366319	0.225092
561.579683	0.225429
561.793029	0.225285
562.006357	0.225377
562.219667	0.225920
562.432958	0.226535
562.646231	0.226699
562.859486	0.227187
563.072723	0.227650
563.285941	0.227427
563.499141	0.227891
563.712323	0.228283
563.925487	0.228195
564.138632	0.228151
564.351760	0.228042
564.564869	0.228026
564.777960	0.227821
564.991032	0.228190
565.204087	0.228489
565.417123	0.228517
565.630141	0.228831
565.843140	0.228930
566.056122	0.228955
566.269085	0.229536
566.482030	0.229707
566.694957	0.229523
566.907866	0.229047
567.120756	0.229150
567.333628	0.229332
567.546482	0.229464
567.759318	0.229809
567.972135	0.230238
568.184935	0.230086
568.397716	0.230527
568.610478	0.230753
568.823223	0.231129
569.035949	0.231538
569.248657	0.231639
569.461347	0.231512
569.674019	0.232004
569.886672	0.232248
570.099308	0.232679
570.311925	0.232502
570.524523	0.232995
570.737104	0.233456
570.949666	0.233695
571.162210	0.233790
571.374736	0.234042
571.587244	0.234080
571.799733	0.234167
572.012205	0.234175
572.224658	0.234430
572.437092	0.234693
572.649509	0.234925
572.861907	0.234962
573.074287	0.235588
573.286649	0.236188
573.498993	0.236337
573.711318	0.236520
573.923625	0.236620
574.135914	0.237013
574.348185	0.236908
574.560438	0.237296
574.772672	0.237506
574.984888	0.237280
575.197086	0.237223
575.409266	0.237424
575.621427	0.237866
575.833570	0.237837
576.045695	0.237620
576.257802	0.238244
576.469890	0.238075
576.681961	0.238002
576.894013	0.238612
577.106046	0.238732
577.318062	0.239011
577.530059	0.238809
577.742039	0.239148
577.954000	0.239649
578.165942	0.239809
578.377867	0.239915
578.589773	0.240517
578.801661	0.240682
579.013531	0.240807
579.225382	0.240532
579.437216	0.241136
579.649031	0.241548
579.860828	0.242037
580.072606	0.242042
580.284367	0.242309
580.496109	0.242263
580.707833	0.242296
580.919539	0.242552
581.131227	0.243383
581.342896	0.243377
581.554547	0.243077
581.766180	0.242882
581.977795	0.243032
582.189391	0.243235
582.400969	0.243502
582.612529	0.243460
582.824071	0.243741
583.035595	0.243487
583.247100	0.243799
583.458587	0.244408
583.670056	0.244707
583.881506	0.244781
584.092939	0.245169
584.304353	0.245471
584.515749	0.246101
584.727127	0.245997
584.938486	0.246850
585.149828	0.246985
585.361151	0.247034
585.572456	0.247125
585.783742	0.247560
585.995011	0.247847
586.206261	0.247983
586.417493	0.247775
586.628706	0.248565
586.839902	0.248237
587.051079	0.248745
587.262238	0.249084
587.473379	0.249608
587.684502	0.249702
587.895606	0.249602
588.106692	0.249963
588.317760	0.250655
588.528810	0.250335
588.739841	0.250375
588.950855	0.250339
589.161850	0.250486
589.372827	0.250564
589.583785	0.251156
589.794726	0.251580
590.005648	0.251709
590.216552	0.251837
590.427437	0.251991
590.638305	0.252173
590.849154	0.252470
591.059985	0.252666
591.270798	0.252598
591.481592	0.252605
591.692369	0.252935
591.903127	0.253247
592.113867	0.253629
592.324588	0.254174
592.535292	0.254649
592.745977	0.254871
592.956644	0.255057
593.167293	0.255974
593.377923	0.256329
593.588536	0.256351
593.799130	0.256262
594.009706	0.255917
594.220263	0.256302
594.430803	0.256298
594.641324	0.256851
594.851827	0.257051
595.062312	0.256605
595.272778	0.256895
595.483227	0.257051
595.693657	0.257337
595.904069	0.257672
596.114462	0.257817
596.324838	0.258339
596.535195	0.258263
596.745534	0.258340
596.955855	0.258666
597.166157	0.258422
597.376441	0.258778
597.586707	0.258985
597.796955	0.259615
598.007185	0.259739
598.217396	0.259918
598.427589	0.259748
598.637764	0.260462
598.847921	0.260352
599.058060	0.260940
599.268180	0.260891
599.478282	0.261129
599.688366	0.260638
599.898431	0.261031
600.108479	0.261319
600.318508	0.261560
600.528519	0.261281
600.738511	0.262066
600.948486	0.262105
601.158442	0.262223
601.368380	0.262536
601.578300	0.263326
601.788202	0.263497
601.998085	0.263192
602.207950	0.263631
602.417797	0.263962
602.627626	0.264059
602.837436	0.264483
603.047228	0.264953
603.257002	0.265405
603.466758	0.265164
603.676496	0.265185
603.886215	0.265369
604.095916	0.265487
604.305599	0.265523
604.515264	0.265616
604.724910	0.265673
604.934538	0.265509
605.144148	0.265096
605.353740	0.265195
605.563314	0.265130
605.772869	0.265554
605.982406	0.265597
606.191925	0.265704
606.401425	0.265695
606.610908	0.265488
606.820372	0.265471
607.029818	0.265939
607.239246	0.266280
607.448655	0.266771
607.658047	0.266851
607.867420	0.266672
608.076775	0.266901
608.286111	0.267417
608.495430	0.267883
608.704730	0.268428
608.914012	0.268148
609.123275	0.268286
609.332521	0.268183
609.541748	0.268272
609.750957	0.268444
609.960148	0.268385
610.169321	0.268071
610.378475	0.268137
610.587611	0.268210
610.796729	0.268820
611.005829	0.268683
611.214910	0.268917
611.423974	0.269056
611.633019	0.269563
611.842045	0.270093
612.051054	0.270301
612.260044	0.270582
612.469017	0.270812
612.677970	0.270645
612.886906	0.271032
613.095824	0.270943
613.304723	0.271218
613.513604	0.271465
613.722467	0.271522
613.931311	0.271965
614.140138	0.271864
614.348946	0.271802
614.557736	0.271830
614.766507	0.272202
614.975261	0.272482
615.183996	0.272820
615.392713	0.272913
615.601412	0.273106
615.810092	0.273025
616.018754	0.273010
616.227399	0.273532
616.436024	0.273808
616.644632	0.273937
616.853222	0.273824
617.061793	0.274065
617.270346	0.274044
617.478880	0.274160
617.687397	0.274309
617.895895	0.274721
618.104375	0.274522
618.312837	0.274721
618.521281	0.274808
618.729706	0.275187
618.938113	0.275104
619.146502	0.275373
619.354873	0.275476
619.563226	0.275597
619.771560	0.275577
619.979876	0.275737
620.188174	0.276054
620.396453	0.275955
620.604715	0.276107
620.812958	0.276272
621.021183	0.276563
621.229390	0.276714
621.437578	0.276687
621.645748	0.276566
621.853900	0.276956
622.062034	0.277015
622.270150	0.277429
622.478247	0.277517
622.686326	0.277424
622.894387	0.277419
623.102430	0.277842
623.310454	0.278053
623.518461	0.278938
623.726449	0.279129
623.934418	0.279319
624.142370	0.279408
624.350303	0.279807
624.558218	0.280337
624.766115	0.280773
624.973994	0.280749
625.181855	0.281331
625.389697	0.281230
625.597521	0.281315
625.805327	0.281325
626.013114	0.281248
626.220883	0.281349
626.428634	0.281507
626.636367	0.281324
626.844082	0.281594
627.051778	0.281382
627.259457	0.281237
627.467117	0.281401
627.674758	0.281704
627.882382	0.281947
628.089987	0.282112
628.297574	0.281758
628.505143	0.281959
628.712694	0.281735
628.920226	0.281796
629.127740	0.282005
629.335236	0.281843
629.542714	0.281854
629.750174	0.281911
629.957615	0.282001
630.165038	0.282397
630.372443	0.282289
630.579829	0.282701
630.787198	0.283066
630.994548	0.283205
631.201880	0.283445
631.409194	0.283613
631.616489	0.283896
631.823766	0.284116
632.031025	0.284349
632.238266	0.285093
632.445489	0.285022
632.652693	0.285413
632.859879	0.285744
633.067047	0.286221
633.274197	0.286350
633.481329	0.286907
633.688442	0.286915
633.895537	0.286895
634.102614	0.286857
634.309672	0.287356
634.516713	0.287289
634.723735	0.287389
634.930739	0.287360
635.137724	0.287617
635.344692	0.287310
635.551641	0.287663
635.758572	0.287922
635.965485	0.288082
636.172379	0.288308
636.379256	0.288511
636.586114	0.288730
636.792954	0.289141
636.999775	0.289333
637.206579	0.289469
637.413364	0.289491
637.620131	0.289951
637.826880	0.289954
638.033610	0.290181
638.240323	0.290136
638.447017	0.290195
638.653692	0.289943
638.860350	0.290262
639.066990	0.290662
639.273611	0.290978
639.480214	0.290874
639.686798	0.291052
639.893365	0.291027
640.099913	0.291391
640.306443	0.291486
640.512955	0.291965
640.719449	0.292071
640.925924	0.292152
641.132381	0.292481
641.338820	0.292942
641.545241	0.292993
641.751644	0.293342
641.958028	0.293639
642.164394	0.293993
642.370742	0.294111
642.577071	0.294291
642.783383	0.294731
642.989676	0.294764
643.195951	0.294899
643.402207	0.295245
643.608446	0.294939
643.814666	0.295048
644.020868	0.295234
644.227052	0.295720
644.433218	0.295755
644.639365	0.295824
644.845494	0.296010
645.051605	0.296330
645.257698	0.296452
645.463772	0.297020
645.669828	0.297243
645.875866	0.297404
646.081886	0.297588
646.287888	0.297910
646.493871	0.297978
646.699836	0.298050
646.905783	0.297921
647.111712	0.298200
647.317622	0.298411
647.523514	0.298584
647.729388	0.299010
647.935244	0.299033
648.141082	0.299261
648.346901	0.299728
648.552702	0.300174
648.758485	0.300458
648.964250	0.300656
649.169996	0.300920
649.375724	0.301068
649.581434	0.301129
649.787126	0.301229
649.992800	0.301266
650.198455	0.301397
650.404092	0.301288
650.609711	0.301712
650.815311	0.302014
651.020894	0.302108
651.226458	0.302277
651.432004	0.302505
651.637532	0.302910
651.843041	0.303280
652.048532	0.303343
652.254006	0.303554
652.459460	0.303701
652.664897	0.303950
652.870315	0.303953
653.075716	0.304299
653.281097	0.304491
653.486461	0.304546
653.691807	0.304711
653.897134	0.304958
654.102443	0.305106
654.307734	0.305021
654.513006	0.305240
654.718261	0.305678
654.923497	0.305753
655.128715	0.305876
655.333915	0.306300
655.539096	0.306531
655.744259	0.307068
655.949404	0.307432
656.154531	0.307683
656.359640	0.307550
656.564730	0.307699
656.769802	0.307956
656.974856	0.308166
657.179892	0.308014
657.384909	0.308130
657.589908	0.308048
657.794889	0.308477
657.999852	0.308887
658.204797	0.309344
658.409723	0.309671
658.614631	0.309973
658.819521	0.310153
659.024393	0.310502
659.229246	0.310658
659.434081	0.310798
659.638898	0.310979
659.843697	0.311147
660.048478	0.311380
660.253240	0.311504
660.457984	0.311561
660.662710	0.311978
660.867417	0.312211
661.072107	0.312587
661.276778	0.313281
661.481431	0.313203
661.686066	0.313666
661.890682	0.313880
662.095281	0.314234
662.299861	0.314587
662.504422	0.314883
662.708966	0.315211
662.913491	0.315484
663.117999	0.315206
663.322488	0.315618
663.526958	0.315757
663.731411	0.316004
663.935845	0.316311
664.140261	0.316437
664.344659	0.316669
664.549038	0.316755
664.753400	0.316927
664.957743	0.317441
665.162068	0.317600
665.366375	0.317334
665.570663	0.317585
665.774933	0.317706
665.979185	0.317788
666.183419	0.317842
666.387635	0.318043
666.591832	0.318042
666.796011	0.318107
667.000172	0.318526
667.204315	0.318966
667.408439	0.319223
667.612545	0.319314
667.816634	0.319793
668.020703	0.320018
668.224755	0.320459
668.428788	0.320786
668.632803	0.320944
668.836800	0.320978
669.040779	0.321406
669.244739	0.321282
669.448681	0.321813
669.652605	0.321990
669.856511	0.322119
670.060399	0.322353
670.264268	0.322824
670.468119	0.323140
670.671952	0.323543
670.875767	0.323504
671.079563	0.323973
671.283341	0.323926
671.487101	0.323920
671.690843	0.324175
671.894567	0.324013
672.098272	0.324217
672.301959	0.324048
672.505628	0.324123
672.709278	0.324411
672.912911	0.324721
673.116525	0.325180
673.320121	0.325649
673.523699	0.325960
673.727258	0.326528
673.930799	0.326733
674.134322	0.327492
674.337827	0.327725
674.541314	0.327987
674.744782	0.328151
674.948232	0.328136
675.151664	0.328466
675.355078	0.328808
675.558474	0.328948
675.761851	0.329347
675.965210	0.329608
676.168551	0.330114
676.371873	0.330522
676.575178	0.330776
676.778464	0.331330
676.981732	0.331445
677.184981	0.331573
677.388213	0.331998
677.591426	0.332252
677.794621	0.332363
677.997798	0.332252
678.200956	0.332336
678.404097	0.332529
678.607219	0.332552
678.810323	0.332859
679.013408	0.333178
679.216476	0.333329
679.419525	0.333418
679.622556	0.333971
679.825569	0.334702
680.028563	0.334797
680.231540	0.335251
680.434498	0.335473
680.637438	0.335952
680.840359	0.336135
681.043263	0.336325
681.246148	0.336517
681.449015	0.336170
681.651864	0.336384
681.854694	0.336799
682.057506	0.336950
682.260301	0.337124
682.463076	0.337017
682.665834	0.337289
682.868573	0.337605
683.071295	0.337864
683.273998	0.338136
683.476682	0.337994
683.679349	0.338305
683.881997	0.338305
684.084627	0.338582
684.287239	0.338707
684.489833	0.338787
684.692408	0.338843
684.894965	0.339092
685.097504	0.339367
685.300025	0.339647
685.502527	0.339880
685.705012	0.340132
685.907478	0.340453
686.109925	0.340838
686.312355	0.341313
686.514766	0.341553
686.717159	0.341672
686.919534	0.341976
687.121891	0.342134
687.324230	0.342332
687.526550	0.342687
687.728852	0.342754
687.931136	0.342798
688.133401	0.342953
688.335649	0.343091
688.537878	0.343125
688.740089	0.343439
688.942281	0.343651
689.144456	0.343960
689.346612	0.343978
689.548750	0.343986
689.750870	0.344182
689.952971	0.344251
690.155055	0.344488
690.357120	0.344492
690.559167	0.344581
690.761195	0.344711
690.963206	0.344805
691.165198	0.345169
691.367172	0.345429
691.569128	0.345730
691.771065	0.345875
691.972984	0.345844
692.174885	0.346165
692.376768	0.346617
692.578633	0.346954
692.780479	0.346802
692.982308	0.346957
693.184118	0.347362
693.385909	0.347261
