sample name	sample
index	513
start time	 03-11-2021  03:27:41 PM


Wavelength (nm)	Absorbance
494.344910	NaN
494.563924	NaN
494.782919	NaN
495.001897	NaN
495.220856	NaN
495.439797	NaN
495.658719	NaN
495.877624	1.098864
496.096510	0.306449
496.315378	0.234393
496.534227	0.295140
496.753059	0.305914
496.971872	0.096982
497.190667	0.060935
497.409444	0.052147
497.628203	0.052992
497.846943	0.053896
498.065665	0.054676
498.284369	0.053903
498.503055	0.052769
498.721723	0.053680
498.940372	0.054041
499.159003	0.053922
499.377616	0.053974
499.596210	0.052789
499.814787	0.052361
500.033345	0.052099
500.251885	0.052725
500.470406	0.053048
500.688910	0.052727
500.907395	0.053218
501.125862	0.053460
501.344311	0.053376
501.562742	0.054773
501.781154	0.055128
501.999548	0.055066
502.217924	0.054714
502.436282	0.055732
502.654621	0.056635
502.872942	0.056140
503.091245	0.055250
503.309530	0.054699
503.527797	0.053964
503.746045	0.053904
503.964275	0.054671
504.182487	0.054694
504.400681	0.054199
504.618856	0.053294
504.837013	0.053251
505.055152	0.054041
505.273273	0.055515
505.491376	0.056288
505.709460	0.056117
505.927526	0.055658
506.145574	0.055606
506.363604	0.055036
506.581615	0.055350
506.799608	0.055396
507.017583	0.054666
507.235540	0.053897
507.453478	0.053658
507.671399	0.054347
507.889301	0.054663
508.107185	0.054369
508.325050	0.054616
508.542898	0.054395
508.760727	0.054581
508.978538	0.055575
509.196330	0.056621
509.414105	0.056645
509.631861	0.056450
509.849599	0.056695
510.067319	0.056874
510.285021	0.056907
510.502704	0.056792
510.720369	0.057372
510.938016	0.057425
511.155645	0.056546
511.373255	0.057675
511.590848	0.057267
511.808422	0.057052
512.025977	0.056888
512.243515	0.057256
512.461034	0.057337
512.678536	0.057381
512.896018	0.056556
513.113483	0.056797
513.330930	0.055494
513.548358	0.055975
513.765768	0.055630
513.983160	0.055311
514.200533	0.054892
514.417889	0.054988
514.635226	0.055078
514.852545	0.054944
515.069845	0.054396
515.287128	0.055258
515.504392	0.054398
515.721638	0.053888
515.938866	0.055288
516.156075	0.055855
516.373267	0.056072
516.590440	0.056002
516.807594	0.056372
517.024731	0.056656
517.241850	0.055626
517.458950	0.056563
517.676032	0.057792
517.893095	0.057105
518.110141	0.056896
518.327168	0.057121
518.544177	0.057622
518.761168	0.058327
518.978141	0.058684
519.195095	0.058801
519.412031	0.058401
519.628949	0.058121
519.845849	0.058702
520.062731	0.059000
520.279594	0.058682
520.496439	0.058330
520.713266	0.058056
520.930074	0.058438
521.146865	0.059587
521.363637	0.059836
521.580391	0.059980
521.797127	0.059719
522.013844	0.060112
522.230543	0.060708
522.447224	0.060411
522.663887	0.060802
522.880532	0.060384
523.097158	0.059552
523.313766	0.059755
523.530356	0.060386
523.746928	0.060322
523.963481	0.059637
524.180017	0.059529
524.396534	0.059597
524.613032	0.059086
524.829513	0.059550
525.045975	0.060838
525.262420	0.061028
525.478845	0.060398
525.695253	0.060899
525.911643	0.061102
526.128014	0.061326
526.344367	0.062006
526.560702	0.061909
526.777018	0.062036
526.993316	0.061852
527.209597	0.061588
527.425858	0.061566
527.642102	0.061389
527.858328	0.061738
528.074535	0.061854
528.290724	0.061382
528.506894	0.061580
528.723047	0.061639
528.939181	0.061245
529.155297	0.061936
529.371395	0.062624
529.587475	0.062677
529.803536	0.062508
530.019579	0.062531
530.235604	0.062884
530.451611	0.063568
530.667600	0.063824
530.883570	0.064586
531.099522	0.064142
531.315456	0.063961
531.531372	0.064861
531.747269	0.065448
531.963148	0.065793
532.179009	0.065658
532.394852	0.066001
532.610676	0.065805
532.826482	0.064977
533.042271	0.065200
533.258040	0.065143
533.473792	0.064841
533.689525	0.065068
533.905240	0.065047
534.120937	0.065297
534.336616	0.065049
534.552277	0.065429
534.767919	0.065685
534.983543	0.065850
535.199149	0.066026
535.414736	0.066046
535.630306	0.065617
535.845857	0.065667
536.061390	0.065670
536.276904	0.065707
536.492401	0.065937
536.707879	0.066431
536.923339	0.066408
537.138781	0.066636
537.354204	0.066671
537.569610	0.066868
537.784997	0.067329
538.000366	0.068019
538.215716	0.067945
538.431049	0.067933
538.646363	0.067898
538.861659	0.068480
539.076937	0.068715
539.292196	0.068918
539.507438	0.068873
539.722661	0.068537
539.937866	0.068049
540.153052	0.068517
540.368221	0.068352
540.583371	0.068270
540.798503	0.067850
541.013617	0.067947
541.228712	0.068261
541.443789	0.069016
541.658848	0.069247
541.873889	0.069408
542.088912	0.069035
542.303916	0.069198
542.518902	0.069172
542.733870	0.069578
542.948820	0.069434
543.163752	0.069344
543.378665	0.069188
543.593560	0.069156
543.808437	0.069509
544.023295	0.069886
544.238136	0.070185
544.452958	0.070383
544.667762	0.070379
544.882548	0.070712
545.097315	0.071010
545.312064	0.071167
545.526795	0.071055
545.741508	0.071140
545.956203	0.071429
546.170879	0.071619
546.385537	0.071642
546.600177	0.071835
546.814799	0.071734
547.029402	0.071732
547.243988	0.072038
547.458555	0.072600
547.673103	0.072504
547.887634	0.072366
548.102146	0.072270
548.316640	0.072591
548.531116	0.072741
548.745574	0.072896
548.960013	0.072644
549.174435	0.072249
549.388838	0.072183
549.603222	0.072367
549.817589	0.072440
550.031937	0.072499
550.246267	0.072809
550.460579	0.072856
550.674873	0.072822
550.889148	0.072798
551.103405	0.073408
551.317644	0.073589
551.531865	0.073491
551.746068	0.073718
551.960252	0.073520
552.174418	0.073335
552.388566	0.073363
552.602696	0.073437
552.816807	0.073611
553.030900	0.073260
553.244975	0.073165
553.459032	0.073144
553.673070	0.073011
553.887091	0.073252
554.101093	0.073384
554.315077	0.073479
554.529042	0.073573
554.742990	0.073849
554.956919	0.073908
555.170830	0.073926
555.384722	0.074078
555.598597	0.074465
555.812453	0.074742
556.026291	0.074384
556.240111	0.074024
556.453913	0.074108
556.667696	0.074014
556.881461	0.074105
557.095208	0.074191
557.308937	0.074330
557.522647	0.074112
557.736339	0.074312
557.950013	0.074853
558.163669	0.075331
558.377307	0.075468
558.590926	0.075776
558.804527	0.075855
559.018110	0.076361
559.231675	0.076553
559.445221	0.076584
559.658749	0.076706
559.872259	0.076528
560.085751	0.076552
560.299225	0.076730
560.512680	0.076757
560.726117	0.076800
560.939536	0.076430
561.152937	0.076659
561.366319	0.077182
561.579683	0.076977
561.793029	0.077134
562.006357	0.077206
562.219667	0.077251
562.432958	0.077223
562.646231	0.077304
562.859486	0.077489
563.072723	0.077417
563.285941	0.077237
563.499141	0.077200
563.712323	0.077325
563.925487	0.077514
564.138632	0.077672
564.351760	0.077850
564.564869	0.077936
564.777960	0.077734
564.991032	0.077758
565.204087	0.077859
565.417123	0.078031
565.630141	0.078255
565.843140	0.078143
566.056122	0.078286
566.269085	0.078279
566.482030	0.078324
566.694957	0.078454
566.907866	0.078720
567.120756	0.078795
567.333628	0.078466
567.546482	0.078424
567.759318	0.078801
567.972135	0.078677
568.184935	0.078916
568.397716	0.078753
568.610478	0.079091
568.823223	0.078893
569.035949	0.078835
569.248657	0.079328
569.461347	0.079531
569.674019	0.079532
569.886672	0.079596
570.099308	0.079526
570.311925	0.079663
570.524523	0.079517
570.737104	0.079797
570.949666	0.079948
571.162210	0.080172
571.374736	0.080239
571.587244	0.080148
571.799733	0.080314
572.012205	0.080118
572.224658	0.080224
572.437092	0.080458
572.649509	0.080408
572.861907	0.080184
573.074287	0.080204
573.286649	0.080259
573.498993	0.080396
573.711318	0.080336
573.923625	0.080565
574.135914	0.080871
574.348185	0.080587
574.560438	0.080400
574.772672	0.080573
574.984888	0.080378
575.197086	0.080429
575.409266	0.080420
575.621427	0.080499
575.833570	0.080804
576.045695	0.080765
576.257802	0.080957
576.469890	0.081076
576.681961	0.081280
576.894013	0.081349
577.106046	0.081245
577.318062	0.081207
577.530059	0.081028
577.742039	0.080852
577.954000	0.080919
578.165942	0.081083
578.377867	0.081568
578.589773	0.081421
578.801661	0.081579
579.013531	0.081868
579.225382	0.081972
579.437216	0.082145
579.649031	0.082309
579.860828	0.082586
580.072606	0.082608
580.284367	0.082393
580.496109	0.082775
580.707833	0.082704
580.919539	0.082671
581.131227	0.083043
581.342896	0.083359
581.554547	0.083522
581.766180	0.083447
581.977795	0.083617
582.189391	0.083932
582.400969	0.083811
582.612529	0.084063
582.824071	0.084209
583.035595	0.084285
583.247100	0.084397
583.458587	0.084551
583.670056	0.084695
583.881506	0.084858
584.092939	0.084726
584.304353	0.084975
584.515749	0.085014
584.727127	0.084899
584.938486	0.084771
585.149828	0.084858
585.361151	0.084971
585.572456	0.085414
585.783742	0.085534
585.995011	0.085670
586.206261	0.085881
586.417493	0.086327
586.628706	0.086766
586.839902	0.086973
587.051079	0.087040
587.262238	0.086960
587.473379	0.086641
587.684502	0.086581
587.895606	0.086493
588.106692	0.086515
588.317760	0.086383
588.528810	0.086098
588.739841	0.086105
588.950855	0.086053
589.161850	0.086327
589.372827	0.086600
589.583785	0.086532
589.794726	0.086870
590.005648	0.087087
590.216552	0.087104
590.427437	0.087394
590.638305	0.087678
590.849154	0.087529
591.059985	0.087677
591.270798	0.087507
591.481592	0.087900
591.692369	0.087794
591.903127	0.087857
592.113867	0.087766
592.324588	0.087669
592.535292	0.087461
592.745977	0.087697
592.956644	0.087538
593.167293	0.087852
593.377923	0.087838
593.588536	0.087897
593.799130	0.087913
594.009706	0.088208
594.220263	0.088532
594.430803	0.088708
594.641324	0.088964
594.851827	0.089165
595.062312	0.089382
595.272778	0.089638
595.483227	0.089731
595.693657	0.089829
595.904069	0.089646
596.114462	0.089606
596.324838	0.089711
596.535195	0.089802
596.745534	0.089721
596.955855	0.089613
597.166157	0.089698
597.376441	0.089843
597.586707	0.089869
597.796955	0.090116
598.007185	0.089990
598.217396	0.090220
598.427589	0.090137
598.637764	0.090430
598.847921	0.090471
599.058060	0.090381
599.268180	0.090471
599.478282	0.090269
599.688366	0.090171
599.898431	0.090210
600.108479	0.090456
600.318508	0.090753
600.528519	0.091062
600.738511	0.091214
600.948486	0.091519
601.158442	0.091625
601.368380	0.091759
601.578300	0.091919
601.788202	0.092121
601.998085	0.091845
602.207950	0.091598
602.417797	0.091380
602.627626	0.091421
602.837436	0.091342
603.047228	0.091221
603.257002	0.091564
603.466758	0.091897
603.676496	0.092158
603.886215	0.092448
604.095916	0.093024
604.305599	0.093373
604.515264	0.093529
604.724910	0.093834
604.934538	0.094279
605.144148	0.094286
605.353740	0.094362
605.563314	0.094214
605.772869	0.094290
605.982406	0.094080
606.191925	0.093863
606.401425	0.093804
606.610908	0.093575
606.820372	0.093657
607.029818	0.093613
607.239246	0.093721
607.448655	0.094081
607.658047	0.094038
607.867420	0.094182
608.076775	0.094491
608.286111	0.094872
608.495430	0.095101
608.704730	0.095164
608.914012	0.095268
609.123275	0.095264
609.332521	0.095225
609.541748	0.095365
609.750957	0.095281
609.960148	0.095194
610.169321	0.095008
610.378475	0.095066
610.587611	0.095178
610.796729	0.095323
611.005829	0.095440
611.214910	0.095479
611.423974	0.095742
611.633019	0.095898
611.842045	0.096020
612.051054	0.096180
612.260044	0.096272
612.469017	0.096361
612.677970	0.096447
612.886906	0.096711
613.095824	0.096831
613.304723	0.096787
613.513604	0.096950
613.722467	0.096931
613.931311	0.097015
614.140138	0.096829
614.348946	0.096656
614.557736	0.096783
614.766507	0.096859
614.975261	0.096888
615.183996	0.096662
615.392713	0.096650
615.601412	0.096387
615.810092	0.096531
616.018754	0.096552
616.227399	0.096802
616.436024	0.096961
616.644632	0.096679
616.853222	0.096721
617.061793	0.096941
617.270346	0.096990
617.478880	0.097363
617.687397	0.097055
617.895895	0.097446
618.104375	0.097548
618.312837	0.097677
618.521281	0.097846
618.729706	0.097983
618.938113	0.098199
619.146502	0.098346
619.354873	0.098344
619.563226	0.098737
619.771560	0.098857
619.979876	0.099044
620.188174	0.098898
620.396453	0.099187
620.604715	0.099327
620.812958	0.099198
621.021183	0.099604
621.229390	0.099729
621.437578	0.099797
621.645748	0.099939
621.853900	0.099863
622.062034	0.099985
622.270150	0.100067
622.478247	0.100079
622.686326	0.100077
622.894387	0.099610
623.102430	0.099823
623.310454	0.099647
623.518461	0.099661
623.726449	0.099548
623.934418	0.099612
624.142370	0.099490
624.350303	0.099352
624.558218	0.099686
624.766115	0.099829
624.973994	0.099922
625.181855	0.100124
625.389697	0.099996
625.597521	0.100383
625.805327	0.100375
626.013114	0.100424
626.220883	0.100721
626.428634	0.100735
626.636367	0.100894
626.844082	0.101049
627.051778	0.101180
627.259457	0.101409
627.467117	0.101475
627.674758	0.101915
627.882382	0.102066
628.089987	0.102144
628.297574	0.102177
628.505143	0.102284
628.712694	0.102363
628.920226	0.102472
629.127740	0.102602
629.335236	0.102496
629.542714	0.102160
629.750174	0.102075
629.957615	0.102331
630.165038	0.102243
630.372443	0.102194
630.579829	0.102172
630.787198	0.102296
630.994548	0.102300
631.201880	0.102514
631.409194	0.102659
631.616489	0.102916
631.823766	0.102722
632.031025	0.103183
632.238266	0.103447
632.445489	0.103425
632.652693	0.103302
632.859879	0.103291
633.067047	0.103291
633.274197	0.103258
633.481329	0.103302
633.688442	0.103485
633.895537	0.103313
634.102614	0.103275
634.309672	0.103399
634.516713	0.103644
634.723735	0.103691
634.930739	0.103706
635.137724	0.103811
635.344692	0.103709
635.551641	0.103668
635.758572	0.103677
635.965485	0.103760
636.172379	0.103751
636.379256	0.103703
636.586114	0.103748
636.792954	0.103958
636.999775	0.104141
637.206579	0.104437
637.413364	0.104491
637.620131	0.104719
637.826880	0.104980
638.033610	0.105313
638.240323	0.105384
638.447017	0.105636
638.653692	0.105654
638.860350	0.105644
639.066990	0.105631
639.273611	0.106121
639.480214	0.105902
639.686798	0.105718
639.893365	0.105604
640.099913	0.105693
640.306443	0.105773
640.512955	0.105808
640.719449	0.105987
640.925924	0.106025
641.132381	0.105770
641.338820	0.106141
641.545241	0.106388
641.751644	0.106654
641.958028	0.106669
642.164394	0.106558
642.370742	0.106489
642.577071	0.106629
642.783383	0.106681
642.989676	0.106568
643.195951	0.106664
643.402207	0.106817
643.608446	0.106617
643.814666	0.106810
644.020868	0.106842
644.227052	0.107028
644.433218	0.107005
644.639365	0.107225
644.845494	0.107585
645.051605	0.107737
645.257698	0.107751
645.463772	0.107839
645.669828	0.107899
645.875866	0.108033
646.081886	0.108090
646.287888	0.108128
646.493871	0.108173
646.699836	0.108069
646.905783	0.107993
647.111712	0.107918
647.317622	0.107978
647.523514	0.108076
647.729388	0.108145
647.935244	0.108278
648.141082	0.108573
648.346901	0.108485
648.552702	0.108764
648.758485	0.109111
648.964250	0.109260
649.169996	0.109618
649.375724	0.109731
649.581434	0.109691
649.787126	0.109724
649.992800	0.109796
650.198455	0.110031
650.404092	0.110110
650.609711	0.109570
650.815311	0.109699
651.020894	0.109631
651.226458	0.109684
651.432004	0.110074
651.637532	0.110359
651.843041	0.110363
652.048532	0.110381
652.254006	0.110494
652.459460	0.110874
652.664897	0.110805
652.870315	0.110754
653.075716	0.110755
653.281097	0.110651
653.486461	0.110580
653.691807	0.110772
653.897134	0.110798
654.102443	0.110723
654.307734	0.110777
654.513006	0.110959
654.718261	0.111086
654.923497	0.111251
655.128715	0.111426
655.333915	0.111403
655.539096	0.111267
655.744259	0.111501
655.949404	0.111601
656.154531	0.111668
656.359640	0.111885
656.564730	0.111945
656.769802	0.112053
656.974856	0.112125
657.179892	0.112229
657.384909	0.112264
657.589908	0.112222
657.794889	0.112135
657.999852	0.112368
658.204797	0.112408
658.409723	0.112433
658.614631	0.112484
658.819521	0.112320
659.024393	0.112524
659.229246	0.112802
659.434081	0.112865
659.638898	0.113062
659.843697	0.113072
660.048478	0.113352
660.253240	0.113798
660.457984	0.113794
660.662710	0.114231
660.867417	0.114282
661.072107	0.114309
661.276778	0.114619
661.481431	0.114763
661.686066	0.114770
661.890682	0.114683
662.095281	0.114725
662.299861	0.114813
662.504422	0.114701
662.708966	0.114712
662.913491	0.114642
663.117999	0.114589
663.322488	0.114579
663.526958	0.114881
663.731411	0.114946
663.935845	0.114882
664.140261	0.114936
664.344659	0.115125
664.549038	0.115296
664.753400	0.115533
664.957743	0.115551
665.162068	0.115865
665.366375	0.115885
665.570663	0.115848
665.774933	0.115722
665.979185	0.115990
666.183419	0.116138
666.387635	0.116173
666.591832	0.116114
666.796011	0.116315
667.000172	0.116176
667.204315	0.116293
667.408439	0.116357
667.612545	0.116402
667.816634	0.116411
668.020703	0.116425
668.224755	0.116649
668.428788	0.116654
668.632803	0.116726
668.836800	0.116920
669.040779	0.116904
669.244739	0.116959
669.448681	0.117326
669.652605	0.117400
669.856511	0.117457
670.060399	0.117556
670.264268	0.117879
670.468119	0.117972
670.671952	0.118145
670.875767	0.118370
671.079563	0.118564
671.283341	0.118689
671.487101	0.118790
671.690843	0.118851
671.894567	0.118873
672.098272	0.119037
672.301959	0.119111
672.505628	0.119120
672.709278	0.119246
672.912911	0.119252
673.116525	0.119328
673.320121	0.119462
673.523699	0.119624
673.727258	0.119778
673.930799	0.119729
674.134322	0.119903
674.337827	0.119886
674.541314	0.119836
674.744782	0.120266
674.948232	0.120188
675.151664	0.120251
675.355078	0.120405
675.558474	0.120437
675.761851	0.120656
675.965210	0.120641
676.168551	0.120871
676.371873	0.121092
676.575178	0.120944
676.778464	0.121236
676.981732	0.121362
677.184981	0.121377
677.388213	0.121583
677.591426	0.121526
677.794621	0.121712
677.997798	0.121597
678.200956	0.121353
678.404097	0.121466
678.607219	0.121401
678.810323	0.121608
679.013408	0.121861
679.216476	0.121897
679.419525	0.122071
679.622556	0.122227
679.825569	0.122491
680.028563	0.122774
680.231540	0.122826
680.434498	0.123073
680.637438	0.123162
680.840359	0.123207
681.043263	0.123447
681.246148	0.123467
681.449015	0.123546
681.651864	0.123626
681.854694	0.123916
682.057506	0.124139
682.260301	0.124173
682.463076	0.124261
682.665834	0.124288
682.868573	0.124222
683.071295	0.124462
683.273998	0.124576
683.476682	0.124772
683.679349	0.124808
683.881997	0.124906
684.084627	0.124952
684.287239	0.124951
684.489833	0.125096
684.692408	0.125225
684.894965	0.125343
685.097504	0.125419
685.300025	0.125351
685.502527	0.125327
685.705012	0.125385
685.907478	0.125654
686.109925	0.125815
686.312355	0.125881
686.514766	0.125846
686.717159	0.125945
686.919534	0.126101
687.121891	0.126447
687.324230	0.126690
687.526550	0.126801
687.728852	0.126806
687.931136	0.126959
688.133401	0.127095
688.335649	0.127252
688.537878	0.127219
688.740089	0.127154
688.942281	0.127081
689.144456	0.127060
689.346612	0.127120
689.548750	0.127170
689.750870	0.127359
689.952971	0.127478
690.155055	0.127552
690.357120	0.127565
690.559167	0.127699
690.761195	0.127712
690.963206	0.127653
691.165198	0.127582
691.367172	0.127763
691.569128	0.127519
691.771065	0.127438
691.972984	0.127415
692.174885	0.127615
692.376768	0.127730
692.578633	0.127957
692.780479	0.128201
692.982308	0.128456
693.184118	0.128562
693.385909	0.128651
693.587683	0.128673
693.789438	0.128827
