sample name	sample
index	713
start time	 03-25-2021  11:15:59 AM
880	0.262058
Peak Time (s)	182.037
Peak Height 	0.2621
calc peak height	180,183
Baseline Time (s)	10.036
Baseline Value 	-0.00221
subtract baseline	10,4
Abs	0.177028
Peak Time (s)	180.536
Peak Height 	0.177
calc peak height	180,183
Baseline Time (s)	8.536
Baseline Value 	0.004164
subtract baseline	10,3
PK_550	0.085767
Peak Time (s)	181.536
Peak Height 	0.08577
calc peak height	180,183
Baseline Time (s)	9.536
Baseline Value 	3.889E-4
subtract baseline	10,2
PK_880	0.163843
Peak Time (s)	182.537
Peak Height 	0.1638
calc peak height	180,183
Baseline Time (s)	8.536
Baseline Value 	0.002184
subtract baseline	10,1


Time (s)	A880-A510	A880-A775	A880-A975	A880	I510	I775	I975	I880	
0.036000	0.000738	0.000643	-0.001328	0.000338	7191.069847	44212.000820	3913.982773	23442.326613
0.536500	-0.002141	0.000111	-0.001578	0.003123	7133.415915	43896.662611	3905.609548	23309.924535
1.037000	-0.002737	-0.000673	-0.004650	0.001797	7140.797340	43947.985942	3900.820901	23372.835702
1.536500	-0.001421	-0.000154	-0.003147	0.003125	7140.673621	43871.350570	3901.299943	23309.804571
2.037000	0.000640	-0.000475	-0.003920	-0.001347	7207.366435	44266.096351	3911.473642	23522.832662
2.535000	0.000640	0.000528	-0.003063	-0.001139	7205.229420	44342.194175	3913.268711	23512.880697
3.038000	0.001571	0.000738	0.002604	-0.000494	7208.167692	44300.561643	3927.238185	23482.029881
3.535500	-0.000539	-0.000408	-0.002337	-0.000818	7189.826731	44221.949360	3914.387210	23497.486783
4.035500	0.003093	-0.000292	0.002434	-0.000637	7225.319490	44215.770696	3927.162307	23488.853677
4.536000	-0.001611	-0.000092	0.000202	-0.000398	7174.570685	44212.018307	3920.266264	23477.410885
5.036000	0.000908	0.000192	0.000481	0.000199	7194.244192	44182.208999	3919.383456	23448.953076
5.536500	-0.000722	0.000504	-0.002093	0.000508	7174.407341	44182.488072	3911.396404	23434.215402
6.037000	0.000096	0.000423	0.000649	0.000507	7182.777627	44174.956689	3918.994338	23434.271020
6.536500	0.000552	0.000409	-0.001882	-0.000017	7192.798599	44223.511591	3913.429953	23459.246695
7.035000	0.001475	0.000537	0.002545	0.000301	7199.000250	44205.382627	3924.849654	23444.048792
7.538000	0.000994	0.000622	-0.001251	-0.000051	7197.689888	44247.120006	3915.270553	23460.877940
8.035500	0.000913	0.000062	-0.002320	-0.000296	7199.362068	44216.956825	3912.988093	23472.545163
8.535500	0.000000	0.000661	0.000000	0.000363	7183.260446	44211.361851	3917.592139	23441.120860
9.035000	0.000940	-0.000175	0.000770	-0.000432	7201.039831	44207.426411	3921.944796	23479.066311
9.535500	-0.000157	0.000000	0.001073	-0.000067	7186.044563	44189.245170	3921.769060	23461.616239
10.036000	0.001199	-0.000024	-0.002119	0.000000	7199.269328	44180.598117	3912.727614	23458.429918
10.536500	0.000766	0.000403	-0.001328	0.000442	7190.287662	44179.179808	3913.691860	23437.352574
11.037000	-0.000158	0.000592	0.000651	0.000955	7175.591859	44148.243624	3917.755704	23412.899970
11.535000	-0.000884	-0.000691	-0.001785	-0.000222	7180.197073	44138.172000	3914.263771	23469.010268
12.038000	0.000242	0.000709	-0.001066	0.001130	7177.898987	44142.759576	3912.514456	23404.590104
12.535500	0.001590	0.001157	0.003867	0.000987	7193.150091	44199.168715	3926.629161	23411.398794
13.035500	0.001630	0.000558	0.003424	-0.001025	7214.235395	44334.088679	3931.023441	23507.408548
13.536000	0.001292	-0.000060	-0.000533	-0.000475	7205.099624	44222.433421	3918.439555	23481.110202
14.036000	0.001907	0.001241	0.001544	0.000493	7201.462866	44254.201679	3921.521354	23434.896518
14.536000	0.000317	0.000431	-0.003665	0.003569	7153.806092	43884.791378	3898.669025	23288.799753
15.036500	0.000841	0.000659	0.001824	0.000575	7189.692685	44190.852243	3922.072590	23430.993016
15.564000	0.001735	0.000185	0.001271	-0.000090	7205.702605	44209.103211	3922.386725	23462.740414
16.040000	0.001859	0.001051	0.002234	0.000711	7198.732357	44215.302053	3922.837071	23424.502068
16.538000	0.004367	0.000723	0.004285	0.001083	7220.712251	44148.570488	3927.527221	23406.802115
17.034500	0.003501	0.001219	0.004496	0.000815	7214.551165	44221.326357	3928.867296	23419.548452
17.537500	0.003162	0.001109	0.000819	-0.001332	7233.207055	44416.274017	3924.588107	23522.075711
18.036000	0.001314	0.000114	0.003147	0.000952	7190.678236	44103.055470	3924.711858	23413.026731
18.535500	0.002025	0.000365	0.002918	0.002247	7184.706582	44003.900528	3920.465961	23351.490789
19.036500	-0.000170	0.001116	0.001420	0.002682	7157.872308	44033.771891	3915.097141	23330.804370
19.536500	0.000783	0.000117	0.004933	0.002152	7172.978300	43989.316494	3926.349214	23355.968801
20.037000	0.000741	0.001192	0.003312	0.002957	7164.354351	44014.978964	3919.587439	23317.807343
20.537000	0.001269	0.001043	0.004902	0.002750	7171.841807	44020.415240	3924.594873	23327.608906
21.037000	0.002663	0.001244	0.000155	0.003387	7179.572748	43979.038564	3909.655662	23297.428895
21.540500	0.003666	0.001338	0.005604	0.003668	7186.954173	43961.295461	3923.988483	23284.099745
22.035500	0.001531	0.001639	0.001474	0.003892	7162.866663	43968.569982	3911.899046	23273.503692
22.535500	0.002841	0.000960	0.007468	0.003866	7176.492575	43906.715559	3928.646770	23274.740759
23.035500	0.001874	0.001186	0.004452	0.003907	7166.205686	43924.241057	3920.114490	23272.796768
23.536000	0.000577	0.001145	0.002244	0.003738	7154.731512	43936.365125	3914.457615	23280.803871
24.036000	0.001079	0.000270	0.001966	0.003351	7163.777903	43890.157963	3914.759114	23299.130040
24.536500	0.001527	0.000847	0.000583	0.003872	7163.036430	43895.458135	3909.497122	23274.476200
25.036500	0.000319	0.000391	0.002258	0.003570	7153.813602	43880.904094	3914.959568	23288.751957
25.537000	0.001801	0.001619	0.004687	0.003907	7165.472415	43965.307935	3920.770472	23272.830519
26.040500	0.002631	0.001257	0.006822	0.004170	7171.251426	43906.089626	3925.989636	23260.386884
26.535000	0.000316	0.000942	0.002909	0.003909	7150.351255	43900.980636	3915.824870	23272.728365
27.035500	0.001646	0.001994	0.000663	0.006346	7139.122888	43769.966999	3902.914543	23157.767935
27.536000	0.001373	0.001740	0.001555	0.003866	7161.533425	43980.655525	3912.196500	23274.760823
28.041000	0.005088	0.002038	0.007998	0.001184	7227.114153	44264.327356	3937.679438	23401.995020
28.569000	0.002470	0.001730	0.003225	0.002451	7187.173003	44114.169246	3920.752518	23341.799894
29.063500	0.000035	0.000969	0.001114	0.007258	7113.642504	43587.553988	3901.650966	23114.907072
29.536000	0.004069	0.000959	0.008453	0.002387	7204.224897	44046.918189	3935.569787	23344.831087
30.036500	0.003646	0.001783	0.004586	0.002954	7194.059404	44071.364172	3923.140980	23317.911183
30.540000	0.002250	0.001667	0.006907	0.002802	7181.329020	44074.787939	3930.059263	23325.147168
31.034500	-0.000974	0.001167	-0.001212	0.007577	7100.284633	43576.162934	3894.425985	23099.938741
31.537500	0.004968	0.002090	0.008727	0.003542	7201.599925	44044.718656	3933.091761	23290.094003
32.035500	0.003334	0.001544	0.005451	0.006122	7158.523363	43748.622406	3916.736081	23168.299107
32.553000	0.003367	0.001384	0.006914	0.002868	7192.087908	44041.638269	3929.893151	23322.028105
33.036000	-0.000816	0.001408	-0.002030	0.008739	7090.228679	43489.776485	3889.050332	23045.532780
33.536500	0.004804	0.002380	0.006035	0.003471	7200.642043	44078.947576	3925.745527	23293.442334
34.036500	0.004198	0.001934	0.005135	0.003813	7190.921918	44004.113170	3922.280636	23277.276827
34.537000	0.004276	0.001809	0.005031	0.002589	7204.276973	44108.568834	3925.404350	23335.239367
35.037500	-0.000398	0.001496	0.002006	0.008387	7097.939609	43531.035168	3901.002265	23061.998438
35.537500	0.000932	0.001759	0.003827	0.006243	7132.940013	43757.528848	3911.905588	23162.614799
36.037500	0.003280	0.001816	0.001938	0.006340	7155.753377	43753.756867	3906.432401	23158.054393
36.535000	0.003447	0.002546	-0.000091	0.006431	7156.536650	43814.165535	3900.617658	23153.795878
37.035500	0.002004	0.001197	0.005293	0.007104	7135.076583	43623.496422	3913.578783	23122.169857
37.536000	0.001761	0.002158	0.002956	0.005976	7144.039128	43820.445841	3910.239966	23175.200593
38.036500	0.002021	0.001760	0.002630	0.005706	7149.412939	43808.363613	3910.084371	23187.897294
38.536500	0.002361	0.001974	0.005433	0.006858	7141.180799	43719.870649	3914.646794	23133.718987
39.037000	0.003564	0.002088	0.002094	0.006937	7152.578341	43723.136395	3905.221567	23130.010283
39.534500	0.003330	0.002581	0.001801	0.007132	7148.222442	43751.213660	3903.880821	23120.840236
40.037000	0.003154	0.001230	0.003691	0.006317	7154.712737	43700.615048	3911.325483	23159.129145
40.537500	0.002794	0.001968	0.000318	0.006686	7147.302803	43735.429141	3901.037657	23141.771480
41.034500	0.003061	0.002571	0.003659	0.008393	7132.728199	43631.506831	3905.519158	23061.735260
41.535500	0.003335	0.001314	0.003341	0.005919	7160.597333	43746.049738	3911.457565	23177.843511
42.035500	0.003075	0.001326	0.004462	0.006352	7153.547191	43706.355867	3913.359325	23157.470862
42.535500	0.003358	0.002476	0.005860	0.006910	7150.759369	43762.227314	3915.684303	23131.248221
43.036500	0.003588	0.002317	0.003150	0.007174	7150.411583	43722.316516	3907.472009	23118.864480
43.536500	0.003606	0.002483	0.007642	0.007392	7148.389838	43717.448861	3919.296147	23108.649582
44.037000	0.004148	0.003307	0.005639	0.008125	7146.448827	43725.984859	3911.713172	23074.274702
44.539500	0.002986	0.001650	0.006139	0.006621	7149.916312	43711.604037	3917.262237	23144.860009
45.037500	0.006063	0.003287	0.002040	0.002894	7219.524274	44220.326576	3916.228258	23320.756057
45.535000	0.005395	0.002356	0.008850	0.005041	7190.592710	43927.602513	3929.226340	23219.219261
46.067000	0.003819	0.001994	0.002733	0.008270	7141.641286	43588.718438	3903.313799	23067.469259
46.535500	0.005301	0.001881	0.003656	0.005120	7188.828532	43875.218903	3914.538537	23215.506074
47.036000	0.001333	0.002228	0.004744	0.010300	7096.122218	43420.373411	3903.261882	22972.654908
47.536000	0.004219	0.002213	0.006895	0.005380	7175.109484	43881.977191	3922.816862	23203.261666
48.036000	0.005996	0.002585	0.009098	0.005787	7189.112581	43878.666822	3927.832938	23184.081716
48.537000	0.004191	0.002051	0.007010	0.006460	7163.813181	43764.606859	3920.130120	23152.426550
49.040000	0.002480	0.002197	0.002157	0.010487	7105.759435	43399.969914	3895.677771	22963.936765
49.537500	0.004046	0.001781	0.004516	0.005206	7175.115117	43857.581545	3916.684096	23211.470974
50.034500	0.004038	0.002162	0.007837	0.005615	7170.858480	43854.920308	3924.788941	23192.174216
50.535000	0.005397	0.002307	0.004116	0.006304	7177.698388	43803.488669	3912.536472	23159.733946
51.035500	0.001437	0.002022	0.001504	0.010172	7098.452024	43413.088673	3894.757626	22978.624351
51.536000	0.005829	0.002535	0.011753	0.003383	7212.078865	44102.074512	3942.078451	23297.599871
52.036000	0.004836	0.002718	0.004875	0.007019	7164.684746	43774.816216	3912.658793	23126.137736
52.535500	0.004268	0.001861	0.006612	0.006031	7168.966087	43787.216720	3920.215242	23172.613957
53.036500	-0.054670	-0.013363	-0.001548	0.086832	5950.749614	35651.385177	3696.435341	19702.423004
53.540000	-0.040782	-0.014469	0.003557	-0.039810	7177.026829	46670.963963	4045.298738	25448.111297
54.037000	-0.018026	-0.015076	0.006709	-0.114150	8288.375488	54793.753359	4305.742436	29689.186717
54.537500	-0.018568	-0.011819	0.000819	-0.062259	7657.504953	49282.680424	4107.204377	26653.203339
55.034500	-0.010815	-0.010840	-0.013312	-0.102461	8231.479284	53908.700510	4193.525923	28973.315425
55.535000	0.030171	-0.011728	-0.001563	-0.147014	9426.690688	59317.209439	4398.584593	31808.226769
56.035500	0.026646	-0.007309	0.009310	-0.098444	8670.969441	53851.403285	4258.366613	28731.684777
56.536000	0.022147	-0.003510	0.019355	-0.044945	7929.674524	48328.250063	4111.137413	25718.314991
57.036000	0.023198	-0.003792	0.020238	-0.038276	7862.989369	47604.882574	4092.621818	25368.020697
57.536500	0.027910	-0.002060	0.027525	-0.031983	7844.380367	47136.590470	4095.786621	25042.429093
58.037000	0.038332	0.003205	0.041464	-0.002266	7622.612111	44707.833502	4046.417013	23566.861105
58.537000	0.050235	0.009376	0.049315	0.033039	7366.536800	41987.064005	3964.675173	21940.169484
59.037000	0.059205	0.015865	0.066103	0.072378	7054.152455	39130.379213	3901.291680	20276.742503
59.534500	0.070602	0.022976	0.083022	0.100170	6894.360432	37439.525830	3871.885535	19189.137579
60.037500	0.081882	0.031685	0.092384	0.132726	6695.798931	35587.417097	3811.570311	18000.585371
60.534500	0.094035	0.040080	0.109213	0.158115	6577.088801	34328.195843	3790.111695	17133.566625
61.035500	0.103346	0.047883	0.114588	0.178513	6480.409554	33426.216842	3753.456607	16472.805056
61.536000	0.113950	0.054519	0.129860	0.185818	6508.923863	33379.017992	3772.737889	16243.609984
62.036500	0.125881	0.061239	0.135426	0.191354	6564.803439	33462.605965	3772.809412	16072.456386
62.536500	0.130197	0.065488	0.136830	0.204958	6483.905448	32808.660501	3743.429191	15661.076487
63.039500	0.118581	0.063835	0.136896	0.211793	6328.228211	32227.345424	3727.476519	15459.186836
63.537000	0.129005	0.066190	0.136745	0.193590	6572.635617	33655.027427	3770.572569	16003.960842
64.063500	0.129539	0.067508	0.135873	0.196765	6549.407567	33523.244358	3760.755366	15907.274065
64.537500	0.133884	0.069876	0.137594	0.197884	6577.799937	33611.819280	3762.210085	15873.378040
65.034500	0.135203	0.070228	0.141767	0.197956	6588.834376	33631.800350	3772.175222	15871.220326
65.543500	0.138089	0.070902	0.140469	0.200003	6596.274498	33534.358482	3764.039409	15809.423435
66.035500	0.134944	0.072005	0.141065	0.203259	6539.866647	33382.203757	3757.614525	15711.730973
66.536000	0.135998	0.072880	0.141052	0.204289	6540.079103	33371.276457	3755.108475	15680.998464
67.036500	0.137245	0.073348	0.142870	0.205648	6539.100322	33308.605102	3756.209623	15640.533403
67.539500	0.139457	0.074665	0.149241	0.208073	6537.234461	33230.781862	3765.740939	15568.662270
68.036500	0.139542	0.076215	0.142642	0.211469	6508.407742	33101.596071	3741.768389	15468.668368
68.537000	0.139216	0.076032	0.145134	0.211268	6507.323523	33102.825450	3748.173736	15474.574640
69.037500	0.141531	0.075319	0.148755	0.211696	6523.723028	33023.320466	3755.818784	15462.024881
69.537500	0.139191	0.076296	0.148100	0.212852	6493.389154	33010.801016	3751.473719	15428.171390
70.035000	0.139311	0.077031	0.146783	0.214454	6480.613808	32950.475332	3744.513279	15381.432832
70.535500	0.139754	0.077920	0.150517	0.215587	6474.678124	32933.548373	3750.716227	15348.486333
71.035500	0.140505	0.077862	0.148035	0.219816	6444.893523	32637.325231	3734.788188	15226.221638
71.536000	0.143268	0.079075	0.152291	0.218343	6481.199595	32822.614574	3748.369077	15268.680953
72.039000	0.142481	0.079882	0.149387	0.221193	6450.013079	32681.582543	3734.729369	15186.677103
72.536500	0.142679	0.078910	0.148491	0.219660	6464.823509	32720.206337	3736.231339	15230.709006
73.036500	0.143226	0.080236	0.149985	0.224609	6427.262957	32471.401059	3728.114616	15089.079935
73.536500	0.143309	0.080054	0.148177	0.222244	6448.105468	32621.085728	3729.418387	15156.565281
74.035000	0.144870	0.080330	0.151244	0.222826	6456.473827	32600.087921	3735.258899	15139.940890
74.538000	0.143177	0.082299	0.154999	0.224440	6428.289912	32624.457695	3740.314118	15093.898969
75.035000	0.142826	0.081603	0.152702	0.227792	6396.984766	32347.515165	3727.026172	14998.852999
75.535500	0.145218	0.080963	0.153995	0.225307	6438.265626	32473.383007	3735.892417	15069.233756
76.035500	0.145122	0.082751	0.155349	0.228033	6414.325798	32409.368436	3732.664198	14992.054927
76.536000	0.144895	0.081830	0.153196	0.226579	6424.715803	32445.770083	3731.023829	15033.167298
77.036500	0.147217	0.083377	0.154679	0.230279	6413.047799	32299.003788	3725.834050	14928.808032
77.536500	0.147686	0.082694	0.157804	0.228278	6433.986360	32388.736915	3737.872242	14985.137737
78.037000	0.146556	0.084267	0.152301	0.231760	6394.983773	32258.906551	3716.866519	14887.297937
78.537000	0.148693	0.083984	0.156332	0.230989	6419.528508	32291.992995	3728.037912	14908.879617
79.035000	0.146597	0.084430	0.157044	0.234064	6375.998032	32113.894877	3722.526338	14822.985677
79.535000	0.149089	0.084567	0.160150	0.232148	6413.071466	32252.872890	3734.277370	14876.439012
80.035500	0.151658	0.085973	0.163181	0.233570	6422.776768	32251.732739	3738.071783	14836.721905
80.536000	0.149558	0.085084	0.158539	0.233577	6404.958944	32191.028665	3727.147133	14836.526923
81.036000	0.145254	0.084084	0.155986	0.234918	6357.644422	32032.849984	3718.084342	14799.211034
81.536000	0.151571	0.086464	0.160421	0.235218	6408.107844	32173.377281	3727.712434	14790.900596
82.036500	0.150463	0.087040	0.157153	0.237806	6377.023455	32037.421006	3714.106154	14719.234434
82.537000	0.150377	0.086190	0.158612	0.235902	6392.278067	32108.580001	3721.896038	14771.903537
83.034500	0.149256	0.086086	0.162605	0.237943	6365.799436	31964.103878	3726.447583	14715.470655
83.537500	0.151672	0.087283	0.161439	0.237357	6390.933317	32084.114280	3725.093014	14731.637849
84.037500	0.148976	0.086814	0.160042	0.239705	6348.793590	31894.607859	3716.393485	14666.943532
84.535500	0.151269	0.087249	0.161158	0.238138	6380.994511	32029.184058	3722.618294	14710.074912
85.035500	0.151254	0.087313	0.166469	0.238329	6379.276628	32020.643078	3734.603364	14704.824697
85.536000	0.152959	0.088521	0.169220	0.239727	6381.848338	32007.863232	3737.793643	14666.336897
86.036000	0.153765	0.088153	0.162503	0.239884	6387.291717	31972.473561	3721.684395	14662.017198
86.536500	0.153690	0.088698	0.162841	0.240619	6380.489804	31959.714589	3720.763114	14641.840888
87.037000	0.153296	0.088158	0.163618	0.240318	6379.714585	31943.689779	3723.267890	14650.096786
87.536500	0.153568	0.088469	0.163845	0.241194	6374.653479	31905.718028	3721.757726	14626.079871
88.034500	0.151249	0.087995	0.161883	0.243039	6339.987719	31750.620741	3712.947529	14575.671178
88.537500	0.153558	0.088495	0.162255	0.242192	6366.231068	31840.587165	3715.760122	14598.781523
89.034500	0.153836	0.089371	0.164974	0.242868	6362.915909	31854.035204	3720.492944	14580.337107
89.535000	0.153925	0.088531	0.159668	0.242274	6368.610332	31837.556711	3709.609246	14596.538411
90.035500	0.152495	0.088872	0.163564	0.244632	6337.110220	31702.884344	3713.149723	14532.299755
90.538000	0.152452	0.088770	0.168467	0.243216	6348.496348	31790.559077	3727.821448	14570.838726
91.036000	0.153801	0.090011	0.166147	0.245349	6341.995086	31731.031061	3717.462099	14512.847065
91.536000	0.154935	0.088853	0.167987	0.243687	6365.254806	31764.662852	3725.600459	14558.019534
92.039500	0.153802	0.088625	0.165530	0.246795	6330.029446	31542.782840	3712.696363	14473.674597
92.537000	0.155927	0.088821	0.165229	0.245116	6361.608808	31667.265625	3715.876951	14519.161500
93.040000	0.155230	0.089570	0.171183	0.246242	6346.443922	31642.220114	3727.099279	14488.646838
93.534500	0.154607	0.090562	0.170059	0.246377	6340.157536	31699.271135	3724.159718	14484.993515
94.035000	0.153162	0.088908	0.168610	0.247498	6318.959828	31515.046850	3718.189828	14454.704247
94.535500	0.156785	0.090779	0.170069	0.247028	6352.835250	31670.390141	3722.668782	14467.396922
95.036500	0.155492	0.089586	0.167087	0.246593	6345.707686	31619.976925	3716.757349	14479.156401
95.536500	0.154854	0.089255	0.164894	0.245646	6348.265611	31660.906491	3713.879552	14504.784887
96.039000	0.155517	0.089893	0.166638	0.249224	6324.137685	31466.021840	3709.656876	14408.201494
96.537000	0.157006	0.091177	0.164730	0.248203	6344.907022	31618.747326	3707.622364	14435.689530
97.036500	0.157108	0.090934	0.167187	0.248392	6344.182991	31590.011756	3712.835054	14430.592732
97.537000	0.156104	0.090935	0.171431	0.247614	6342.310806	31641.743451	3724.474369	14451.556550
98.037500	0.157726	0.090353	0.166213	0.250227	6334.102135	31430.149060	3706.383954	14381.270608
