sample name	sample
index	223
start time	 02-22-2021  10:34:35 AM
880	0.469293
Peak Time (s)	91.038
Peak Height 	0.4693
calc peak height	90,93
Baseline Time (s)	11.536
Baseline Value 	-0.00388
subtract baseline	10,4
Abs	0.331230
Peak Time (s)	92.035
Peak Height 	0.3312
calc peak height	90,93
Baseline Time (s)	9.534
Baseline Value 	0.002946
subtract baseline	10,3
PK_550	0.160401
Peak Time (s)	92.035
Peak Height 	0.1604
calc peak height	90,93
Baseline Time (s)	11.036
Baseline Value 	3.6373E-4
subtract baseline	10,2
PK_880	0.308002
Peak Time (s)	90.538
Peak Height 	0.308
calc peak height	90,93
Baseline Time (s)	9.534
Baseline Value 	5.0907E-4
subtract baseline	10,1


Time (s)	A880-A510	A880-A775	A880-A975	A880	I510	I775	I975	I880	
0.035000	0.000681	0.000202	-0.002969	0.002292	6885.795675	47080.206509	3946.426821	24675.484844
0.538000	-0.000841	-0.000352	-0.003100	0.004787	6848.245844	46770.518829	3939.377060	24550.086705
1.034500	-0.001261	-0.000573	-0.006741	0.003569	6855.672379	46871.541313	3932.909795	24611.208168
1.538000	-0.002425	-0.000536	-0.002806	0.006606	6816.704378	46568.213023	3935.303214	24459.145986
2.035500	0.000684	-0.000249	-0.002147	0.000732	6900.498741	47193.354563	3952.857645	24754.224913
2.539000	0.000850	-0.000075	-0.003031	0.000529	6903.983420	47231.969659	3951.015237	24764.526177
3.036000	-0.000343	0.000679	-0.002672	-0.000852	6905.749970	47450.840366	3955.727938	24834.515405
3.536500	-0.000295	-0.000268	-0.004362	0.000259	6895.734729	47239.755286	3948.151107	24778.167140
4.036500	0.002927	0.000544	-0.002007	0.000975	6919.387592	47249.646001	3952.579057	24741.954813
4.534500	0.000779	0.000167	0.000907	0.000464	6903.917065	47263.293627	3961.885578	24767.784031
5.035500	-0.000358	-0.000322	-0.003836	0.000610	6891.839514	47198.450479	3948.624452	24760.421133
5.535000	0.001861	0.000529	0.000696	0.000915	6909.872611	47254.197853	3960.081489	24744.978009
6.035500	0.002155	0.000228	0.002309	0.000852	6913.251309	47229.871384	3964.657443	24748.191795
6.536000	0.001986	0.000003	-0.001629	0.000658	6913.482986	47226.613017	3954.461280	24757.957049
7.038000	-0.000339	-0.000349	-0.001379	0.000115	6896.676701	47246.224504	3956.613293	24785.482747
7.536000	0.000375	0.000522	-0.003375	0.000469	6900.062316	47299.162433	3950.247469	24767.549251
8.036500	0.001962	0.000243	0.001804	0.000057	6918.951019	47312.807166	3965.451222	24788.423250
8.537000	-0.000441	0.000468	-0.000772	0.000166	6895.226711	47324.613342	3958.122115	24782.857975
9.037000	0.000291	-0.000508	-0.005036	-0.000595	6909.303525	47302.655379	3948.635193	24821.444048
9.534500	0.000000	-0.000360	0.000000	-0.000280	6903.587313	47285.537952	3961.440792	24805.469131
10.035000	0.002264	-0.000522	0.003585	-0.000279	6924.991548	47268.817721	3971.256342	24805.439803
10.535000	0.000333	0.000502	-0.000958	0.000011	6903.985199	47344.058111	3958.040659	24790.731335
11.035500	-0.000650	0.000000	0.000288	0.002170	6874.461821	47072.067320	3955.562117	24681.643847
11.535500	-0.000495	0.000125	0.004365	0.000000	6896.286275	47306.542442	3972.632841	24791.289540
12.036000	0.000792	-0.000262	-0.005405	-0.000180	6910.115602	47285.318846	3946.522169	24800.396995
12.536500	0.000804	0.000131	0.000081	-0.000319	6911.553487	47339.889520	3961.769643	24807.470847
13.036500	0.000286	-0.000339	-0.001981	0.001044	6893.807848	47152.285963	3952.460488	24738.445221
13.536500	0.000963	-0.000110	-0.000991	-0.000270	6912.590274	47310.172736	3958.714303	24804.988174
14.034000	0.002540	0.000792	-0.000712	0.000375	6921.404050	47336.453833	3957.718349	24772.277984
14.535000	-0.000459	-0.000165	-0.002023	0.002668	6871.583581	47004.534462	3947.962083	24656.530977
15.037500	0.000764	0.000781	-0.005261	0.003152	6878.501011	47051.560533	3937.970058	24632.191539
15.541000	0.001200	0.000125	0.002405	-0.000122	6913.432292	47319.031442	3967.584679	24797.475265
16.035500	0.002799	0.000463	0.000892	-0.000331	6930.556422	47375.061477	3964.015438	24808.050773
16.536000	-0.000067	0.000054	-0.002313	-0.000457	6904.628843	47346.059193	3955.629062	24814.448168
17.036000	0.000617	0.000381	0.002210	0.002045	6887.513113	47123.645681	3961.129670	24687.942671
17.536500	0.001409	-0.000350	0.002148	-0.003386	6946.394944	47605.745300	3975.858357	24963.509173
18.037000	0.003073	0.000855	0.003517	0.000335	6926.843525	47347.012759	3969.382450	24774.333722
18.537000	0.000608	-0.000176	-0.000975	0.000768	6899.441301	47197.192133	3955.936276	24752.413549
19.037500	0.000101	0.000221	-0.004711	0.002068	6882.453391	47104.998801	3942.346297	24686.765321
19.535000	0.000483	0.000038	-0.001989	0.001266	6893.570095	47168.134057	3951.840879	24727.233421
20.038000	-0.000093	-0.000092	-0.004052	0.001132	6889.418352	47168.508419	3946.632457	24734.009407
20.535500	-0.000839	0.000172	-0.002619	0.001877	6875.429930	47119.505656	3948.488463	24696.411842
21.036000	-0.001573	-0.000362	-0.000477	0.001244	6874.482968	47129.480562	3955.997591	24728.345408
21.536000	0.000460	0.000792	-0.000561	0.001970	6886.739673	47173.151586	3953.799358	24691.689243
22.036500	0.001726	0.000170	-0.000576	0.001596	6902.174972	47147.928241	3954.773004	24710.580512
22.536500	-0.000094	0.000169	-0.000467	0.001275	6888.066389	47180.604764	3955.938376	24726.774690
23.039500	0.001070	0.000629	-0.001027	0.002620	6886.360562	47090.267768	3950.780752	24658.947562
23.537500	0.000075	0.000727	-0.001476	0.002136	6881.568535	47149.678010	3950.874825	24683.348849
24.040000	-0.001211	-0.000330	0.004877	0.001032	6879.855198	47154.398540	3971.201946	24739.049267
24.538000	-0.001355	0.000540	0.001152	0.001514	6873.995998	47194.074264	3959.691029	24714.723004
25.034500	-0.001403	0.000044	-0.002200	0.001528	6873.417820	47141.976245	3950.560691	24714.022366
25.536000	-0.000281	-0.000185	0.001430	0.001308	6886.007143	47141.113153	3961.010809	24725.146546
26.036000	0.000461	0.000081	-0.001645	0.001452	6891.614162	47153.535044	3952.267178	24717.838065
26.536000	0.001015	0.000815	0.002015	0.002204	6889.756207	47151.651535	3960.160759	24679.888856
27.036500	-0.001155	-0.000184	0.000936	0.001517	6875.838884	47119.814850	3959.094176	24714.563156
27.537000	0.000854	0.000591	-0.001670	0.001335	6896.418789	47217.549323	3952.516623	24723.740214
28.037000	0.002826	0.000505	0.005809	-0.001906	6945.793396	47541.361970	3981.893005	24888.071435
28.537500	0.001943	0.000418	0.004145	0.000368	6915.813385	47298.829234	3971.014780	24772.629597
29.042500	-0.000936	-0.000001	0.000699	0.003429	6860.016420	46943.776921	3953.261790	24618.250638
29.535000	0.000120	-0.000071	0.001116	0.000081	6901.315808	47278.182406	3963.502502	24787.196502
30.035500	0.001810	0.000425	-0.000226	0.000202	6916.134243	47316.535642	3959.510181	24781.037255
30.535500	0.001221	0.000868	0.000758	0.000676	6906.094396	47313.439251	3960.901639	24757.085794
31.035500	-0.000844	0.000226	-0.000173	0.003212	6862.894561	46988.987781	3951.489477	24629.156313
31.536000	0.001624	-0.000123	-0.003684	0.002978	6888.202855	46977.270832	3942.660879	24640.927012
32.036000	0.000481	-0.000277	-0.004000	0.001865	6887.928490	47074.928016	3944.800877	24697.020859
32.592000	0.001149	-0.000266	-0.002004	-0.000295	6914.577333	47296.613679	3956.028542	24806.223431
33.040000	-0.001079	0.000097	-0.003459	0.002328	6868.968540	47065.819772	3945.012676	24673.686259
33.539000	0.001612	0.000454	-0.000916	0.000193	6914.345707	47320.481867	3957.659598	24781.508826
34.040500	0.002111	0.000821	0.004902	0.000374	6917.352112	47339.543522	3973.083635	24772.349578
34.535000	0.001217	0.000259	0.000280	0.000751	6905.343931	47243.332699	3959.394780	24753.255354
35.035500	-0.000580	0.001189	0.007066	0.002914	6868.150978	47117.395862	3972.048002	24644.159509
35.535500	-0.000208	0.000090	-0.001726	0.002414	6876.307375	47056.276265	3949.448131	24669.312386
36.035500	-0.000387	-0.000342	0.002662	0.002143	6877.179384	47039.975330	3962.093314	24683.006652
36.536500	-0.001104	0.000074	0.003451	0.002394	6868.108042	47056.702317	3963.561855	24670.319484
37.036500	0.001089	0.000583	0.000584	0.002967	6883.281081	47050.185327	3954.200870	24641.468673
37.537000	-0.001429	-0.000001	-0.003443	0.002609	6863.064328	47027.223260	3944.299217	24659.513441
38.040000	0.000181	0.000655	-0.000695	0.002661	6877.638142	47088.676735	3951.566491	24656.865986
38.537500	-0.001099	0.000095	0.000664	0.002459	6867.551357	47052.324234	3955.797808	24667.083022
39.035500	-0.000595	0.001284	0.004194	0.003782	6859.904164	47038.566653	3961.802556	24600.514322
39.535500	0.000862	-0.000488	0.003438	0.001881	6891.359067	47051.721502	3964.928302	24696.200318
40.036500	-0.000908	-0.000163	0.002260	0.002496	6868.992898	47022.210767	3960.035356	24665.210863
40.536000	-0.002868	0.000170	0.002627	0.002625	6849.497953	47043.003367	3960.683523	24658.687035
41.036500	0.000477	0.000273	-0.001745	0.003096	6876.338403	47005.510366	3947.556062	24634.989188
41.536500	0.000336	0.000568	0.001439	0.002627	6879.411609	47083.297040	3957.443513	24658.589876
42.036000	-0.000658	0.000251	-0.000577	0.002179	6874.291164	47096.659239	3953.188907	24681.158559
42.537000	0.003388	0.000238	0.001131	0.002766	6906.815908	47035.560131	3956.229891	24651.594026
43.037500	0.000469	0.000525	0.000087	0.003490	6872.571108	46991.063864	3951.440349	24615.189666
43.535000	0.001140	0.000323	0.003550	0.002634	6886.889924	47057.638524	3963.178832	24658.258448
44.034500	0.001389	0.001083	-0.000337	0.003320	6882.790208	47065.167912	3950.752504	24623.723421
44.535500	0.002300	0.000731	0.002787	-0.001561	6937.500928	47529.109087	3972.586036	24870.515391
45.035500	-0.000345	-0.000356	0.004902	0.001810	6880.684272	47072.350477	3969.135037	24699.761294
45.536500	0.001832	0.000397	0.000629	0.000505	6913.479280	47282.680040	3961.014785	24765.722634
46.036500	0.001446	0.000498	0.001885	0.000329	6911.490639	47310.970294	3964.926942	24774.615099
46.536500	0.002806	0.001069	0.000034	0.001008	6917.935922	47299.997950	3958.026097	24740.295026
47.037000	-0.001131	0.000151	0.001609	0.004454	6848.646448	46855.170779	3952.949308	24566.799081
47.537000	0.000038	0.000229	-0.000510	0.000674	6894.963413	47248.173566	3957.455528	24757.178080
48.062500	0.002190	-0.000408	0.001552	-0.000111	6922.701022	47263.369488	3965.218904	24796.936369
48.534500	0.000101	0.000116	-0.000860	0.003384	6870.120745	46960.227271	3949.166083	24620.495194
49.035500	-0.003396	-0.000102	-0.005576	0.004574	6826.515760	46817.416651	3933.336404	24560.780970
49.585500	0.001608	0.000345	0.004465	0.000696	6909.556743	47257.829684	3970.995398	24756.076168
50.035000	0.001269	0.000160	0.001548	-0.000108	6913.952168	47321.245203	3965.201105	24796.785785
50.536000	0.001307	0.000156	0.002507	0.000239	6911.024619	47285.241319	3966.875730	24779.181852
51.036000	0.000154	0.001028	0.003076	0.004984	6855.677567	46890.442548	3955.488494	24540.233854
51.536500	0.001890	0.000617	-0.002196	-0.000263	6921.286557	47383.933330	3955.419363	24804.596402
52.039500	0.000013	0.000391	0.006278	0.001082	6890.880052	47223.024087	3974.923855	24736.532758
52.533500	-0.001591	-0.008710	0.016821	0.101429	6036.518981	37330.427238	3751.162598	20208.611174
53.034500	-0.018008	-0.016109	0.009317	0.125973	5745.894316	34882.811772	3681.869239	19251.437653
53.535000	-0.018712	-0.022577	0.002519	-0.045879	7165.185550	49745.444955	4100.211334	27242.838604
54.035500	-0.009478	-0.029613	0.009694	-0.130348	8214.523044	58905.278117	4411.061030	32493.111141
54.535500	-0.012903	-0.022232	0.009906	-0.072129	7499.028727	52709.132829	4206.761505	28766.470257
55.035500	-0.007426	-0.014750	0.008967	-0.069777	7532.920355	53302.047135	4195.971862	28626.197163
55.536500	0.012935	-0.009137	0.015922	-0.076315	7834.855109	54734.525822	4240.747580	29018.115614
56.036500	0.032152	-0.003917	0.030513	-0.061997	7891.867325	53658.105070	4241.666451	28167.429385
56.539500	0.053255	0.006875	0.048852	-0.049194	7989.977490	53423.314693	4260.454024	27430.210049
57.037500	0.063318	0.011287	0.059946	-0.004517	7592.963483	48942.127697	4150.072395	25021.328104
57.534500	0.080097	0.017601	0.078004	0.028843	7413.697612	46157.067064	4102.534815	23377.478045
58.034500	0.092543	0.027111	0.091723	0.100050	6830.801449	40417.174810	3938.199724	20263.992530
58.535000	0.110112	0.033088	0.114095	0.141868	6612.318954	37438.604474	3887.357375	18659.817221
59.035500	0.138642	0.048999	0.138326	0.164485	6664.475109	36908.004959	3891.490556	17854.434883
59.536000	0.154764	0.062317	0.157521	0.193070	6555.360199	35730.337069	3867.652876	16894.757607
60.035500	0.183261	0.081171	0.188445	0.251864	6302.824905	32838.289742	3799.864431	15108.754529
60.536500	0.202982	0.091107	0.215426	0.313919	5978.192748	29442.991913	3720.510674	13468.392769
61.036500	0.216953	0.104240	0.235248	0.347120	5840.860572	28240.578807	3691.891629	12682.396972
61.536500	0.227540	0.112325	0.247399	0.365546	5786.598036	27642.273691	3678.767765	12271.415221
62.037500	0.243229	0.123464	0.259116	0.376328	5820.447865	27662.702695	3680.709719	12038.890165
62.534500	0.253621	0.130416	0.269987	0.381584	5856.292413	27759.978632	3692.471423	11927.628930
63.034500	0.262792	0.137717	0.274018	0.385383	5894.235633	27961.857780	3692.958590	11848.021693
63.535000	0.266403	0.144192	0.282658	0.388028	5901.115069	28184.696045	3705.691151	11793.028650
64.035500	0.269067	0.146012	0.282426	0.381968	5963.880997	28649.199632	3718.235582	11919.547681
64.536000	0.269673	0.148782	0.283313	0.388946	5917.906679	28400.073257	3705.125850	11774.002774
65.042500	0.272226	0.151319	0.287480	0.397164	5877.595410	28067.543171	3696.509274	11605.576224
65.536500	0.278457	0.152826	0.287201	0.394372	5942.055703	28318.778514	3701.847523	11662.451141
66.042500	0.277345	0.152386	0.290076	0.394573	5932.591612	28281.198648	3707.558122	11658.351031
66.537000	0.280687	0.153739	0.289978	0.397289	5937.102752	28201.376084	3701.549242	11603.050504
67.034000	0.278245	0.154864	0.290965	0.404781	5866.325145	27831.897887	3687.803290	11452.291332
67.535000	0.285024	0.156568	0.297545	0.400581	5944.638579	28174.302665	3710.692732	11536.485594
68.035000	0.286882	0.158340	0.297366	0.402161	5946.645550	28185.525445	3706.920696	11504.720422
68.535500	0.286919	0.158697	0.300728	0.404110	5932.856145	28092.646159	3709.948839	11465.683828
69.035500	0.284160	0.158609	0.298659	0.410383	5868.531479	27725.164539	3692.202458	11341.269056
69.536000	0.285145	0.158669	0.299043	0.405969	5906.823623	27983.125578	3702.368790	11428.639083
70.036500	0.285625	0.160166	0.299648	0.408723	5890.635585	27910.359729	3697.802235	11374.025569
70.539000	0.289813	0.160089	0.299297	0.410321	5909.073733	27813.729994	3693.677299	11342.482240
71.036500	0.291946	0.160225	0.305203	0.416310	5881.661182	27479.084292	3693.502769	11225.334950
71.537000	0.290101	0.159619	0.301342	0.413320	5889.776669	27614.881978	3691.667953	11283.624227
72.034500	0.292342	0.161384	0.302894	0.416819	5880.858690	27516.062561	3687.576533	11215.459897
72.534500	0.292198	0.159579	0.305487	0.417429	5875.532657	27379.082005	3691.744141	11203.635956
73.035000	0.291705	0.162489	0.307699	0.425821	5813.399849	27070.940332	3678.817960	11042.583104
73.534500	0.293388	0.162628	0.309369	0.423646	5840.225674	27200.548606	3686.839560	11084.036825
74.036000	0.297619	0.161476	0.308927	0.425428	5857.373717	27036.339632	3682.191257	11050.070924
74.536000	0.297113	0.160579	0.304516	0.425911	5850.434893	26959.472704	3672.048284	11040.880538
75.038500	0.290350	0.159974	0.308235	0.431556	5764.726693	26614.524169	3668.087826	10934.312514
75.537000	0.294394	0.160936	0.312444	0.430539	5799.392157	26723.203593	3678.876264	10953.412360
76.037000	0.295622	0.160920	0.316428	0.431479	5801.371608	26670.596703	3685.218281	10935.752865
76.537500	0.295878	0.162157	0.307418	0.434113	5785.028478	26594.035271	3661.193212	10886.501884
77.037000	0.293742	0.161301	0.306817	0.441883	5717.878488	26126.403267	3644.314904	10742.910293
77.537000	0.298137	0.161860	0.316346	0.437345	5778.358633	26401.561329	3672.863321	10826.451446
78.035500	0.298380	0.160760	0.314855	0.438051	5775.196641	26303.691504	3668.345602	10813.400695
78.536000	0.300231	0.160992	0.311258	0.440189	5773.237991	26200.808141	3656.651445	10773.992546
79.036000	0.297518	0.159937	0.312872	0.444844	5723.348152	25895.355959	3650.514994	10688.864760
79.539000	0.298177	0.160740	0.311656	0.442027	5746.780555	26088.597704	3653.741337	10740.282329
80.036500	0.299935	0.161530	0.316792	0.443605	5748.000351	26046.385017	3660.952856	10711.442257
80.537000	0.300138	0.160822	0.315486	0.444326	5744.488546	25970.026265	3656.835511	10698.288208
81.037500	0.297473	0.160576	0.307714	0.451353	5679.674638	25585.492075	3627.361527	10571.340139
81.537500	0.301576	0.161520	0.314960	0.447456	5733.072674	25840.762214	3649.462458	10641.497365
82.035500	0.300686	0.161541	0.317438	0.448401	5720.740423	25791.826798	3652.547097	10624.425257
82.535500	0.301379	0.161538	0.322236	0.449639	5717.082567	25726.280740	3659.753435	10602.126304
83.036000	0.300051	0.161183	0.314166	0.456607	5662.032609	25343.194265	3629.713634	10477.770464
83.536000	0.301458	0.160412	0.323607	0.450779	5709.988749	25607.028217	3660.223474	10581.646513
84.036000	0.305607	0.160429	0.319240	0.452061	5729.209032	25540.759326	3648.810899	10558.674479
84.536500	0.303695	0.160585	0.317097	0.452091	5716.170586	25547.340514	3644.459224	10558.132696
85.036500	0.299002	0.161027	0.327541	0.456850	5653.552834	25322.496241	3655.888393	10473.468843
85.537000	0.304242	0.161026	0.323165	0.454054	5706.709312	25467.822218	3652.697218	10523.103384
86.034500	0.306395	0.160992	0.317713	0.455325	5712.600974	25399.841334	3639.245844	10500.497101
86.537500	0.304522	0.159915	0.321609	0.455912	5696.191785	25313.471713	3645.839562	10490.082135
87.037500	0.301250	0.160153	0.326166	0.460124	5646.839905	25108.556856	3646.531607	10415.756634
87.535000	0.302032	0.159035	0.319555	0.456401	5676.445647	25242.659706	3640.767060	10481.415034
88.035500	0.307035	0.161258	0.322480	0.459023	5692.217023	25222.040710	3641.369405	10435.108133
88.536000	0.305856	0.159714	0.321197	0.458705	5686.508271	25158.896939	3639.452772	10440.716996
89.036000	0.303876	0.160519	0.321949	0.461098	5657.658182	25077.341581	3636.199679	10398.669182
89.536000	0.305069	0.160383	0.323623	0.460564	5669.017828	25097.773862	3640.579533	10408.025731
90.036500	0.307457	0.160024	0.325665	0.461830	5676.412247	25014.531834	3642.122679	10385.842894
90.537500	0.308002	0.160214	0.319398	0.462376	5676.408146	24996.317653	3628.658774	10376.303636
91.037500	0.303232	0.159695	0.320726	0.469293	5600.241114	24619.796912	3617.770032	10256.420210
91.534500	0.306968	0.159195	0.322970	0.462825	5666.634858	24921.507197	3634.804400	10368.466669
92.035500	0.305880	0.160401	0.331230	0.464750	5646.864906	24884.908271	3647.406755	10334.940574
92.535000	0.307338	0.158244	0.318985	0.463752	5662.966281	24826.087157	3625.156392	10352.293396
93.036000	0.306828	0.159989	0.322645	0.468300	5629.908469	24684.506648	3623.426235	10273.516446
93.539000	0.306157	0.158711	0.328507	0.465524	5643.614324	24760.028565	3640.426709	10321.499587
94.036000	0.308840	0.159169	0.330952	0.467161	5650.453887	24700.570148	3642.036128	10293.167759
94.536000	0.308615	0.159860	0.327827	0.468007	5643.448410	24692.744952	3634.161259	10278.551700
95.037000	0.306861	0.156849	0.322125	0.472088	5605.605340	24338.391667	3615.071430	10208.511124
95.534500	0.308011	0.158396	0.327432	0.468235	5638.024597	24607.664805	3632.934795	10274.630089
96.059500	0.306436	0.158834	0.327155	0.469084	5622.270021	24587.046341	3630.717627	10260.004917
96.535000	0.307300	0.157715	0.323177	0.468672	5630.554336	24551.645116	3623.735860	10267.097688
97.035000	0.305353	0.157315	0.328537	0.474715	5579.088961	24231.555670	3622.405786	10163.765499
97.535500	0.311413	0.158064	0.331010	0.470939	5642.581885	24455.888233	3634.658255	10228.167311
