sample name	sample
index	1261
start time	 04-29-2021  01:16:48 PM
880	0.201502
Peak Time (s)	102.035
Peak Height 	0.2015
calc peak height	100,103
Baseline Time (s)	9.037
Baseline Value 	-0.002232
subtract baseline	10,4
Abs	0.115638
Peak Time (s)	102.536
Peak Height 	0.1156
calc peak height	100,103
Baseline Time (s)	8.537
Baseline Value 	6.5109E-4
subtract baseline	10,3
PK_550	0.074293
Peak Time (s)	101.035
Peak Height 	0.07429
calc peak height	100,103
Baseline Time (s)	9.037
Baseline Value 	5.1826E-4
subtract baseline	10,2
PK_880	0.112314
Peak Time (s)	101.035
Peak Height 	0.1123
calc peak height	100,103
Baseline Time (s)	8.537
Baseline Value 	5.0384E-5
subtract baseline	10,1


Time (s)	A880-A510	A880-A775	A880-A975	A880	I510	I775	I975	I880	
0.037000	-0.001631	-0.000929	-0.002006	0.001365	6201.782150	43920.422676	3911.513768	22744.327693
0.538000	-0.003558	-0.000531	-0.000119	0.005215	6158.727822	43596.248594	3907.026999	22569.510637
1.038000	-0.001790	-0.000941	-0.000438	0.003063	6187.880786	43759.485271	3911.215866	22667.046558
1.535500	-0.000715	-0.000544	-0.003972	0.000764	6213.180581	44013.526873	3908.392756	22771.780871
2.036000	-0.000996	-0.000344	0.003822	0.000686	6211.647239	44039.763878	3926.526912	22775.314230
2.536000	0.000609	-0.001177	0.001156	0.000883	6222.265066	43942.523079	3919.894876	22766.348040
3.036500	0.001889	0.000571	0.001984	-0.001005	6246.263394	44286.938791	3926.185356	22852.701910
3.537000	0.000526	-0.000604	-0.002468	-0.000087	6228.968360	44088.290709	3913.783076	22810.668233
4.037000	-0.000924	-0.000697	-0.002603	0.000119	6216.459375	44059.965774	3912.998989	22801.233413
4.537500	-0.000293	-0.000331	-0.000040	-0.000106	6222.918690	44115.949996	3919.414561	22811.519004
5.037500	-0.001774	-0.000580	-0.000911	-0.000345	6213.556629	44115.067916	3917.958861	22822.493648
5.535000	-0.001450	0.000048	0.000357	0.000365	6210.653240	44107.288203	3919.245659	22789.999442
6.035000	0.000033	-0.000470	-0.002721	0.000136	6223.561149	44079.900262	3912.691241	22800.482244
6.535500	0.000729	0.000030	-0.001042	0.000247	6227.977869	44116.716792	3916.291518	22795.386462
7.035500	0.000336	-0.000346	-0.000965	-0.000324	6229.317875	44135.162659	3917.784933	22821.505712
7.536000	0.002441	-0.000167	-0.001927	-0.000031	6243.063752	44124.433901	3914.896910	22808.121999
8.037000	0.001613	0.000214	0.001096	0.000019	6236.390942	44155.790407	3921.752535	22805.810753
8.536500	0.000000	-0.000844	0.000000	-0.000892	6231.079781	44141.883538	3921.324584	22847.552168
9.037000	0.000783	0.000000	-0.000940	0.000000	6230.249768	44137.281900	3917.096348	22806.683604
9.540000	-0.000980	-0.000468	0.003584	0.000591	6212.488418	44036.984225	3926.193998	22779.654024
10.034500	0.001672	0.000439	0.000539	0.000231	6235.229794	44156.942698	3919.973096	22796.096456
10.535500	0.001160	0.000161	0.000843	-0.000103	6233.884402	44162.301007	3921.448024	22811.379671
11.035000	-0.001578	-0.000003	-0.003834	-0.000785	6218.342084	44211.401896	3912.250070	22842.615157
11.536000	-0.000749	0.000067	-0.000868	0.000502	6214.900143	44096.114496	3916.107520	22783.736988
12.036000	0.000105	0.000400	0.001502	0.000091	6224.442645	44166.650709	3922.526621	22802.533888
12.536500	-0.001341	-0.000613	-0.000202	-0.001248	6223.626911	44197.477596	3921.678981	22863.843474
13.036000	0.000816	0.000270	0.001262	-0.001100	6238.836908	44267.374766	3924.729743	22857.070399
13.537000	-0.000391	0.000425	0.003218	0.001515	6209.969081	44034.107874	3923.202365	22737.497977
14.037000	0.000223	0.000468	0.002583	0.002246	6209.088474	43969.071566	3920.041762	22704.200316
14.534500	-0.000758	-0.000465	-0.004184	0.001234	6209.316099	43976.502553	3906.834738	22750.284381
15.037500	0.002106	0.000477	0.005244	-0.000431	6243.552055	44223.431371	3932.447054	22826.413005
15.535000	0.000181	0.001024	0.000811	0.002035	6210.361878	44041.587420	3916.443963	22713.814475
16.035500	-0.000716	0.000385	0.002665	-0.000510	6222.781631	44222.270786	3926.619470	22830.050145
16.535500	0.002423	-0.000401	0.002892	-0.000931	6249.765218	44187.532023	3928.124298	22849.319975
17.041500	0.002932	-0.000725	-0.003016	-0.004322	6279.588258	44479.673331	3922.281394	23005.418822
17.536500	-0.000431	-0.000092	0.001700	0.000794	6215.087846	44053.342308	3921.354484	22770.375745
18.039500	0.000886	-0.000852	0.006826	0.000027	6230.828193	44054.031009	3935.078128	22805.436974
18.539500	0.000959	-0.000193	0.004727	0.000555	6227.385264	44066.386908	3928.936185	22781.287821
19.040000	-0.001852	-0.000452	0.006205	0.000208	6208.806747	44074.767852	3933.199881	22797.157308
19.534500	-0.001671	-0.000055	0.004590	0.000712	6206.378569	44064.562213	3928.252850	22774.112900
20.039500	-0.001740	-0.000751	-0.002421	-0.000286	6213.368383	44093.262260	3914.346793	22819.771656
20.535500	-0.001962	-0.000170	0.004520	0.000036	6209.277214	44117.754477	3929.665343	22805.054436
21.038500	0.000378	0.000080	0.000872	0.000641	6222.351234	44084.187542	3919.797584	22777.394278
21.536000	-0.001307	0.000026	0.004357	0.000487	6210.812138	44093.647462	3928.234294	22784.412506
22.036000	-0.002288	-0.000655	0.000141	-0.000194	6208.554418	44093.578137	3920.036357	22815.560396
22.536500	-0.000087	-0.000108	0.000163	0.000483	6220.026320	44081.278232	3918.524385	22784.587759
23.040000	-0.001344	-0.000494	-0.001729	0.000006	6214.143749	44089.877641	3915.266111	22806.387096
23.537500	0.000184	-0.000398	0.001741	0.000408	6222.639137	44060.902073	3922.344052	22788.015505
24.037500	0.000410	0.000538	0.003911	0.000777	6221.565689	44114.702966	3926.523675	22771.176849
24.535000	-0.000156	-0.000087	0.000178	0.000150	6222.025682	44114.850476	3919.329129	22799.843479
25.035500	-0.002366	0.000281	0.000949	0.000567	6202.255681	44110.181107	3920.145974	22780.774587
25.535500	0.000506	0.000379	0.002606	0.000585	6223.737685	44117.709506	3923.938219	22779.932539
26.035500	-0.001087	-0.000211	0.001502	0.002017	6200.970122	43926.685862	3918.076672	22714.628852
26.536000	-0.001108	0.000032	0.002664	0.000273	6213.917014	44114.398825	3924.794948	22794.178693
27.036500	-0.000836	-0.000004	0.002877	-0.002068	6233.648428	44333.341017	3930.740567	22901.511129
27.539500	0.001452	0.000430	0.004551	-0.002257	6252.473542	44392.769349	3935.099834	22910.235833
28.037000	-0.002878	-0.000737	-0.000675	0.002728	6182.261019	43810.189133	3911.439611	22682.278036
28.537000	0.000405	-0.000083	-0.001096	-0.001661	6239.973006	44287.183184	3920.568968	22882.831001
29.034500	0.000900	-0.000202	0.003878	-0.001512	6242.606378	44261.648522	3931.781604	22875.998032
29.538000	-0.000627	-0.000284	0.002706	-0.001817	6233.332806	44282.814897	3929.757609	22889.995421
30.035000	-0.004986	-0.000528	0.002891	0.002925	6165.118262	43811.303667	3919.185480	22673.318612
30.535500	-0.001262	0.000245	-0.000538	0.000781	6208.935407	44086.499376	3916.223679	22770.978347
31.036000	-0.001270	-0.000142	0.003551	0.000494	6211.034574	44076.997983	3926.342156	22784.087005
31.541500	0.000646	-0.000318	0.003908	-0.002097	6245.115635	44306.218160	3933.217611	22902.847219
32.042000	-0.004313	-0.000590	-0.000766	0.002860	6170.594201	43811.544489	3910.929687	22676.275177
32.537000	-0.001508	-0.000019	0.003917	-0.002058	6228.489790	44331.008621	3933.148343	22901.065817
33.037000	-0.001484	0.000538	0.000303	-0.001364	6223.423892	44317.919910	3923.117019	22869.174243
33.537000	-0.003080	-0.000209	0.007907	0.000088	6200.486265	44109.133315	3937.471926	22802.657159
34.035000	0.000379	-0.000969	0.001891	0.001768	6213.854117	43878.617200	3919.546866	22725.939346
34.535000	-0.001390	0.000186	-0.000230	0.000209	6212.273096	44135.108459	3918.250153	22797.111436
35.035000	-0.001162	-0.000505	-0.003578	-0.000051	6215.952494	44094.255431	3911.155084	22809.016114
35.535000	-0.000378	0.000071	0.007340	0.000525	6217.520570	44094.305859	3935.115085	22782.673632
36.036000	-0.001076	-0.000189	-0.001346	0.001677	6203.603642	43960.772709	3912.311075	22730.103046
36.539500	-0.001643	-0.000389	0.004447	0.000118	6211.056561	44089.279889	3929.304784	22801.285815
37.037500	-0.001314	0.000158	0.003934	0.000385	6211.524410	44115.708130	3927.486424	22789.066192
37.538000	0.000821	-0.000008	0.003112	0.000470	6226.989305	44092.021217	3925.379544	22785.208202
38.037000	-0.001483	-0.000607	-0.000236	0.001759	6199.936942	43913.614033	3914.669482	22726.377562
38.537500	-0.001883	-0.000163	0.004535	0.000590	6205.705576	44066.044590	3928.410029	22779.725704
39.035000	-0.003197	-0.000632	0.001902	0.000111	6199.442166	44066.879411	3923.403645	22801.598652
39.535500	0.001195	-0.000434	-0.001293	0.000568	6229.073106	44042.495886	3914.977230	22780.732382
40.040000	-0.001225	-0.000444	-0.000278	0.000478	6211.491207	44049.927348	3917.518224	22784.803706
40.536000	0.000696	-0.000480	-0.000663	0.000072	6229.048945	44085.044208	3917.569383	22803.395550
41.038500	0.000578	-0.000194	0.006228	0.000264	6226.703526	44093.902237	3933.123848	22794.617452
41.536500	-0.002651	0.000257	0.002629	0.001061	6196.408981	44061.120501	3922.887180	22758.194806
42.037000	-0.000572	0.000226	-0.003080	0.000800	6213.991571	44082.918960	3910.347707	22770.132601
42.537000	-0.000130	-0.000308	-0.002115	0.000544	6219.243344	44056.561581	3913.145203	22781.809540
43.034500	-0.001804	-0.000272	0.004525	0.000395	6207.763093	44074.032385	3928.839565	22788.604184
43.535000	0.002280	0.000520	0.007471	-0.002378	6259.704666	44412.841918	3942.253429	22915.769344
44.035000	-0.000230	-0.001096	0.004998	-0.002484	6241.407037	44269.106315	3936.682502	22920.678745
44.535000	0.003611	0.000272	0.007001	-0.001133	6260.357797	44270.647488	3938.210844	22858.567933
45.036000	0.000722	-0.000211	0.008618	-0.001497	6241.137662	44259.390578	3942.883642	22875.302840
45.539000	-0.002811	-0.000864	0.002197	0.000767	6197.417605	43982.989861	3922.570275	22771.631578
46.036500	-0.003229	-0.000328	-0.003814	0.005074	6162.212205	43628.422397	3898.959111	22575.905413
46.536500	-0.001343	0.000048	0.000280	-0.001384	6224.641859	44273.245316	3923.111080	22870.092150
47.037000	-0.001435	-0.000545	-0.001527	0.000520	6209.598518	44036.396800	3914.548229	22782.900446
47.534500	0.001534	0.000799	0.000656	0.002705	6215.501938	43957.058151	3914.544613	22683.316509
48.037500	-0.001947	-0.000292	0.002863	0.004563	6175.526795	43679.615154	3915.347481	22599.010074
48.537500	0.001792	0.000671	0.003563	-0.000729	6243.430856	44270.171465	3929.218457	22840.057459
49.035000	0.000643	0.000153	0.006615	-0.001243	6238.606467	44269.821017	3937.563726	22863.635318
49.535500	-0.005499	-0.001198	-0.002974	0.001024	6175.430053	43927.232692	3910.077761	22759.902811
50.038500	-0.003788	-0.001230	0.001476	0.009346	6126.604077	43146.894530	3901.262228	22383.637382
50.538500	0.018506	-0.004064	0.043517	0.315311	4600.123974	22702.850926	3452.990241	12550.318469
51.036500	-0.000736	-0.023254	-0.024138	0.107460	5500.918367	33437.936463	3657.238004	18451.212762
51.536500	-0.011398	-0.056850	-0.041896	-0.204921	8066.100895	60862.159436	4375.872160	34787.350848
52.037000	-0.003244	-0.112681	-0.016713	-0.294465	9358.281623	65535.000000	4816.981532	42080.391033
52.534500	-0.007131	-0.096487	-0.011406	-0.276173	9038.941901	65233.611324	4761.016176	40466.001995
53.037500	-0.005672	-0.058308	-0.009327	-0.219310	8308.925402	62611.791469	4542.467229	35860.276785
53.535000	-0.001076	-0.066195	-0.005391	-0.239393	8622.635475	64310.317044	4634.901936	37418.537293
54.035000	-0.007401	-0.040046	-0.012488	-0.199943	8054.547271	62460.252112	4460.294356	34424.370165
54.538000	-0.003241	-0.056392	-0.011931	-0.228321	8452.149239	64131.422229	4566.624311	36550.551302
55.036000	-0.002491	-0.051679	-0.007087	-0.220654	8365.124008	63716.917103	4555.939707	35962.373625
55.536000	0.004341	-0.022476	-0.001500	-0.150539	7630.019674	58255.635480	4329.637834	31038.625491
56.036500	0.007560	-0.010418	0.009593	-0.084304	6997.086089	51771.856388	4161.185175	27063.591057
56.537000	0.014718	-0.002253	0.012658	-0.025879	6545.772291	46438.713900	4012.269783	24026.672047
57.037500	0.015698	0.002356	0.012721	-0.002750	6366.683254	44624.080844	3955.612381	22932.885583
57.537500	0.022318	0.006875	0.014446	0.015929	6272.951517	43287.992883	3915.845768	22091.114831
58.038000	0.025425	0.009547	0.022045	0.040674	6111.141307	41290.003523	3877.175619	21030.231095
58.535500	0.033246	0.014212	0.034559	0.055624	6059.574694	40393.211112	3871.803942	20417.974393
59.038000	0.039275	0.020205	0.034713	0.070018	6000.142502	39676.344390	3841.003723	19848.118166
59.535500	0.044678	0.020823	0.048870	0.116950	5721.419098	35963.448118	3773.831290	18115.843722
60.036000	0.050378	0.023587	0.048487	0.110451	5800.550143	36674.758227	3785.986311	18344.728813
60.536500	0.057247	0.025297	0.057588	0.123742	5758.621093	35787.900531	3777.640439	17880.323446
61.036500	0.060979	0.033914	0.061482	0.110595	5870.165812	37474.304163	3812.084813	18339.601266
61.537000	0.068805	0.037211	0.068767	0.122226	5844.638540	36818.497620	3803.171765	17932.554454
62.037500	0.071549	0.039951	0.074662	0.144277	5718.510373	35346.483286	3770.809912	17190.183268
62.537500	0.073427	0.043229	0.079522	0.142773	5740.199053	35704.920107	3783.413628	17239.625295
63.035000	0.078599	0.043373	0.075996	0.149031	5733.219862	35247.330175	3764.112448	17035.011538
63.538500	0.075875	0.041516	0.079360	0.179094	5530.387000	32960.136137	3713.597057	16092.090584
64.036000	0.075438	0.049307	0.075222	0.189244	5468.097567	32797.687699	3687.813584	15788.202786
64.535500	0.077497	0.050965	0.082886	0.182411	5520.309702	33386.560014	3713.979564	15991.996393
65.048500	0.083339	0.055577	0.082481	0.178433	5579.230615	33994.132750	3720.563504	16112.116822
65.536500	0.084665	0.058542	0.083759	0.175956	5602.407675	34385.313185	3727.543911	16187.482600
66.037000	0.079463	0.058077	0.080168	0.176205	5569.247538	34333.702468	3720.407667	16179.885768
66.537000	0.084514	0.061583	0.082340	0.171637	5628.053379	34922.324331	3732.974717	16319.939547
67.034500	0.082433	0.061779	0.086693	0.170411	5622.773740	35027.108799	3743.525967	16357.771831
67.535000	0.086634	0.062769	0.089691	0.171174	5644.064336	35043.814986	3747.790333	16334.211722
68.038000	0.087551	0.063881	0.088074	0.170525	5653.813711	35174.123753	3745.940800	16354.237509
68.535000	0.087802	0.066334	0.089875	0.170676	5654.436751	35345.283973	3749.095396	16349.568213
69.035500	0.087254	0.068333	0.085490	0.169453	5658.654849	35586.303789	3743.058269	16387.387804
69.536000	0.094276	0.070409	0.090587	0.169936	5699.840846	35706.221411	3751.883717	16372.459753
70.036000	0.090634	0.073083	0.096325	0.168815	5683.885770	35993.450440	3765.174141	16407.159410
70.536500	0.092202	0.073415	0.093730	0.168615	5695.063543	36033.933958	3760.509537	16413.365345
71.036500	0.095620	0.074962	0.096296	0.169251	5712.745395	36103.411575	3764.268490	16393.662958
71.537000	0.095259	0.074364	0.095604	0.170909	5699.900482	35931.685647	3759.694120	16342.365406
72.037500	0.096649	0.074435	0.091853	0.173662	5691.266849	35728.807907	3747.165612	16257.654360
72.538000	0.094522	0.075822	0.102070	0.169702	5702.887865	36134.664589	3774.716645	16379.702085
73.035000	0.095815	0.075251	0.098635	0.168477	5718.933161	36184.578638	3770.362870	16417.665340
73.536000	0.098595	0.076267	0.096469	0.169397	5730.840993	36191.889909	3764.318599	16389.119636
74.036000	0.095138	0.075338	0.097220	0.168163	5716.611952	36215.272627	3768.202284	16427.413838
74.536500	0.098092	0.076314	0.095698	0.165063	5755.536573	36528.793116	3771.299919	16524.057423
75.036000	0.098646	0.077140	0.099889	0.164730	5761.285642	36618.447544	3780.246191	16534.470555
75.537000	0.100512	0.077380	0.099618	0.163505	5781.403577	36732.097641	3782.143957	16572.867002
76.037000	0.097757	0.077675	0.094141	0.166023	5747.163915	36559.773173	3766.362511	16494.051726
76.537500	0.101258	0.077249	0.099620	0.161341	5800.483788	36890.540069	3786.471895	16641.000224
77.040000	0.100648	0.077645	0.102140	0.160695	5800.724258	36972.021636	3792.833966	16661.400698
77.535500	0.102683	0.079086	0.100166	0.161680	5807.635118	37007.737676	3786.884818	16630.293685
78.035500	0.099097	0.079101	0.098165	0.164001	5768.948102	36827.468113	3778.272374	16557.324551
78.536000	0.101955	0.079156	0.099536	0.161529	5803.831507	37025.036250	3785.925753	16635.057917
79.036000	0.098794	0.078516	0.096036	0.161786	5781.413014	36954.800132	3778.442257	16626.960484
79.536500	0.104267	0.079569	0.100716	0.164012	5802.708304	36863.185875	3783.323393	16556.980971
80.039500	0.102149	0.078098	0.095817	0.164660	5784.563495	36698.218766	3772.328115	16536.677541
80.537000	0.099790	0.079147	0.107890	0.168084	5746.983575	36514.223712	3789.533845	16429.863096
81.037000	0.101002	0.077189	0.101450	0.169178	5747.742340	36279.349198	3774.527845	16395.920535
81.537500	0.101313	0.077015	0.103884	0.170725	5739.776116	36147.535952	3776.279105	16348.046491
82.035000	0.099445	0.076593	0.101047	0.173703	5708.754575	35888.883868	3764.851968	16256.419881
82.535000	0.100736	0.076356	0.108266	0.173384	5719.021998	35895.142586	3779.696210	16266.203933
83.035500	0.097513	0.076276	0.102829	0.174119	5693.845427	35833.422599	3767.521738	16243.663768
83.535000	0.099326	0.074499	0.096930	0.174627	5702.119020	35660.883182	3755.064752	16228.086787
84.036000	0.103700	0.075353	0.098935	0.176569	5717.605210	35579.100057	3755.185645	16168.785898
84.536500	0.099286	0.075537	0.104913	0.175202	5698.211108	35695.736314	3769.483746	16210.502011
85.036500	0.101746	0.075887	0.104518	0.175932	5709.212740	35667.161841	3767.278748	16188.226826
85.537000	0.102152	0.074456	0.103553	0.176125	5710.566680	35545.148159	3765.015533	16182.348560
86.039500	0.100043	0.074561	0.105776	0.177837	5686.332624	35424.845335	3766.013071	16130.237303
86.537500	0.103603	0.075139	0.105297	0.177165	5713.187403	35518.350078	3766.390156	16150.654106
87.035000	0.102967	0.074673	0.106896	0.177129	5709.363189	35486.120922	3769.593966	16151.743264
87.535500	0.103132	0.074527	0.102745	0.179308	5696.570599	35312.611167	3757.257941	16085.624841
88.035000	0.103623	0.074418	0.108613	0.180169	5694.222117	35240.423845	3767.000608	16059.573214
88.536000	0.104382	0.075816	0.104459	0.180115	5699.379124	35348.472082	3759.014400	16061.201931
89.036500	0.107045	0.074951	0.110253	0.180807	5711.913109	35232.636167	3768.966076	16040.314634
89.536500	0.105598	0.074457	0.105546	0.182294	5693.274364	35085.764677	3756.898742	15995.507703
90.037000	0.105186	0.073929	0.112168	0.182804	5687.446093	35009.104275	3768.804026	15980.197114
90.540000	0.104614	0.075350	0.110253	0.183719	5678.065009	35046.521634	3763.271107	15952.749985
91.035000	0.106719	0.075329	0.110977	0.184893	5683.935524	34958.351414	3762.395288	15917.612234
91.535000	0.108121	0.075158	0.101239	0.185662	5687.929852	34889.188704	3742.184325	15894.642423
92.035000	0.106208	0.075223	0.109301	0.187443	5664.692958	34763.339064	3754.207713	15841.619873
92.535000	0.106187	0.073891	0.107906	0.186336	5671.499071	34746.820927	3753.650675	15874.532927
93.036000	0.107983	0.074647	0.108226	0.188097	5671.719482	34673.373097	3750.881066	15822.192120
93.536000	0.106673	0.074539	0.115727	0.189393	5655.396016	34571.030962	3762.879666	15783.781384
94.036500	0.109303	0.075254	0.112235	0.191118	5661.057434	34497.665677	3752.778608	15732.858489
94.536500	0.107872	0.075473	0.105910	0.190650	5655.040424	34547.572383	3741.583565	15746.666159
95.039500	0.110338	0.075046	0.114903	0.191520	5665.025625	34453.424331	3757.152610	15721.039482
95.537500	0.110636	0.073867	0.109746	0.191417	5667.532956	34375.539677	3747.431358	15724.069896
96.035000	0.108701	0.074641	0.110996	0.193559	5642.088986	34276.786618	3745.727505	15661.157705
96.535000	0.110926	0.074811	0.117250	0.193601	5655.680411	34285.970943	3757.667491	15659.916369
97.035000	0.110507	0.073904	0.120129	0.192974	5656.979952	34265.807096	3764.480443	15678.290098
