sample name	sample
index	1028
start time	 04-19-2021  12:29:03 PM
880	0.253477
Peak Time (s)	101.537
Peak Height 	0.2535
calc peak height	100,103
Baseline Time (s)	9.039
Baseline Value 	-0.005209
subtract baseline	10,4
Abs	0.160892
Peak Time (s)	102.535
Peak Height 	0.1609
calc peak height	100,103
Baseline Time (s)	10.037
Baseline Value 	7.7165E-4
subtract baseline	10,3
PK_550	0.100132
Peak Time (s)	101.037
Peak Height 	0.1001
calc peak height	100,103
Baseline Time (s)	10.037
Baseline Value 	4.9305E-4
subtract baseline	10,2
PK_880	0.147051
Peak Time (s)	102.535
Peak Height 	0.1471
calc peak height	100,103
Baseline Time (s)	10.037
Baseline Value 	8.7742E-4
subtract baseline	10,1


Time (s)	A880-A510	A880-A775	A880-A975	A880	I510	I775	I975	I880	
0.039000	-0.000372	-0.000587	0.001589	0.005917	6546.010885	45681.277690	3974.505372	24178.494843
0.537000	-0.001992	-0.000423	-0.003704	0.004522	6544.057077	45835.447871	3963.635565	24247.341008
1.037000	-0.000760	0.000147	0.001081	0.004747	6552.792639	45869.591153	3976.360465	24236.198360
1.535000	-0.001137	-0.000094	-0.002831	0.005260	6545.073804	45794.976402	3964.012581	24210.895472
2.038000	-0.000209	-0.000372	0.000026	0.001884	6582.538207	46102.543028	3981.440403	24378.111336
2.535500	-0.001207	-0.001017	0.002536	0.000978	6581.733442	46128.582698	3991.101408	24423.220512
3.035000	0.003130	-0.000303	0.000869	-0.001239	6639.507388	46421.986234	3992.664384	24534.005541
3.536000	-0.002866	-0.000738	-0.000046	0.004363	6537.871880	45820.072175	3974.277943	24255.212054
4.036000	-0.000679	-0.000590	0.000475	0.000171	6593.438651	46251.885177	3987.547109	24463.496610
4.536500	0.001500	-0.000638	0.004851	-0.000303	6616.790370	46294.584068	4001.355272	24487.201138
5.036500	0.001016	0.000095	-0.001347	0.000234	6607.787359	46314.214452	3982.224112	24460.356642
5.537000	-0.002082	-0.000463	-0.003169	0.004758	6541.234520	45808.106916	3964.466301	24235.677092
6.037500	0.000701	0.000633	-0.001267	0.000651	6601.337530	46326.233746	3981.273241	24439.535549
6.535000	0.000473	-0.000390	0.000424	-0.000330	6607.972048	46322.087750	3988.823837	24488.532958
7.035000	-0.000682	-0.000749	0.003148	-0.000460	6598.949274	46299.138025	3996.937255	24495.023395
7.535500	0.001143	-0.000287	0.001148	0.000314	6608.203131	46267.890669	3989.051110	24456.372372
8.035500	0.002879	-0.000048	0.001058	0.000059	6625.777471	46317.334958	3989.516106	24469.094643
8.538500	0.002438	-0.000803	-0.000216	-0.000556	6627.314271	46303.368378	3987.649669	24499.822967
9.038500	0.001549	0.000479	0.002403	0.000000	6614.546238	46376.073618	3993.503090	24472.036017
9.536500	-0.000701	-0.000080	-0.000458	-0.000618	6600.174406	46382.044804	3987.138987	24502.926267
10.037000	0.000000	0.000000	0.000000	-0.000264	6603.225328	46354.537679	3987.434410	24485.227873
10.537500	0.001090	-0.000093	-0.002629	0.000063	6609.944236	46312.481639	3979.096869	24468.902610
11.037500	-0.000557	0.000615	0.004132	0.000522	6591.425849	46337.390790	3996.940938	24445.982435
11.535000	-0.001873	0.000281	0.002355	0.000095	6583.641399	46346.716327	3993.097826	24467.296210
12.035000	0.001042	0.000171	0.002363	-0.000224	6612.050666	46367.622086	3994.027749	24483.220176
12.535500	0.001635	0.000739	-0.000239	0.000198	6613.559996	46382.272277	3985.450231	24462.145299
13.036000	0.001783	0.000100	0.005827	-0.000112	6617.601261	46349.258234	4003.602943	24477.613780
13.539000	-0.001904	-0.000544	0.003270	0.001818	6568.322160	46092.028468	3990.800873	24381.416292
14.036500	-0.000173	0.000347	0.000497	0.002661	6576.071580	46096.909912	3980.581867	24339.539966
14.536500	-0.000135	0.000438	0.000680	0.002345	6579.160695	46137.422966	3981.987973	24355.230862
15.039500	0.000916	0.000510	0.002163	0.000122	6607.888251	46367.014264	3992.475876	24465.952781
15.537000	-0.001569	-0.000518	0.001844	0.001855	6570.918229	46091.033137	3986.657312	24379.585583
16.035000	-0.000168	-0.000218	0.000771	-0.000748	6606.000206	46381.234245	3990.991257	24509.419140
16.535000	0.001504	0.000188	0.000341	-0.000169	6615.641178	46363.881801	3988.131413	24480.489516
17.035500	0.003185	-0.000163	0.003339	-0.003094	6656.510961	46622.698736	4005.018741	24627.120487
17.536000	-0.001996	0.000282	0.000048	0.003082	6556.513442	46048.413348	3978.134499	24318.633415
18.038500	-0.000427	-0.000192	0.003692	0.000899	6589.260425	46218.893399	3994.614979	24427.178012
18.536500	-0.000961	-0.000012	-0.001558	0.000907	6584.517016	46236.042192	3979.733692	24426.774058
19.036500	0.001450	-0.000069	0.001755	0.001321	6602.036215	46189.034616	3987.915707	24406.151443
19.537500	-0.000582	0.000092	0.001409	0.001965	6578.570610	46140.758457	3985.113340	24374.083387
20.037500	0.000260	0.000049	0.001228	0.001302	6591.757973	46202.726224	3986.478271	24407.101145
20.537000	0.000439	0.000180	0.004232	0.001227	6593.981254	46223.249254	3995.217840	24410.823207
21.035000	0.000471	0.000021	-0.000802	0.001064	6595.692368	46223.635902	3981.417939	24418.936763
21.534500	0.000736	0.000233	-0.000488	0.001929	6590.431504	46158.468051	3979.867358	24375.889908
22.035500	0.000809	-0.000215	0.000574	0.000737	6601.536647	46232.737279	3986.223800	24435.230956
22.538000	0.000255	-0.000924	0.000335	0.000790	6596.207648	46156.689846	3985.402290	24432.619748
23.035500	-0.000660	0.000453	0.001950	0.001341	6583.346381	46239.181283	3988.409261	24405.137181
23.536500	-0.001173	-0.000026	-0.000597	0.001070	6581.233775	46218.382056	3981.982190	24418.658845
24.036500	0.000810	0.000449	0.005066	0.001652	6593.503870	46207.705612	3996.382472	24389.672160
24.536000	-0.000014	0.000932	-0.001476	0.001787	6585.097565	46242.463967	3977.489792	24382.942673
25.037500	-0.001441	-0.000177	0.000763	0.000637	6582.674031	46246.609999	3987.043951	24440.236523
25.535000	0.000124	0.000043	0.001656	0.001154	6591.859112	46216.899293	3988.109999	24414.478211
26.035500	0.000949	-0.000003	0.001633	0.000861	6601.682105	46241.606899	3988.875306	24429.094989
26.535000	0.001097	0.000059	0.003204	0.001167	6600.283648	46217.160623	3992.462053	24413.821191
27.038000	0.002216	0.000225	0.000077	-0.001570	6634.339313	46508.277723	3991.356326	24550.611524
27.536000	0.001937	0.000396	-0.001309	-0.000753	6624.625068	46443.410131	3985.115887	24509.687068
28.036500	-0.001144	-0.000646	-0.000107	-0.000546	6595.653335	46318.067440	3987.930287	24499.347425
28.536500	-0.000256	0.000260	0.004479	-0.000534	6603.342575	46407.650163	4000.948803	24498.711218
29.037000	0.000269	-0.000162	-0.002537	-0.000277	6605.709586	46339.553885	3980.310337	24485.868295
29.537000	-0.001477	-0.000140	0.000661	0.004201	6551.298626	45895.284422	3976.712762	24263.183091
30.035000	0.000490	-0.000141	0.002841	-0.000451	6609.182407	46359.108060	3996.033480	24494.559882
30.535000	-0.000902	0.000017	0.002648	0.002016	6575.330601	46128.251000	3988.475895	24371.563953
31.035500	-0.002128	-0.000429	-0.001476	0.001500	6569.139179	46135.320607	3978.299269	24397.257894
31.538000	-0.003331	-0.000204	-0.000304	0.005348	6525.354051	45775.369821	3970.804790	24206.558176
32.036000	0.000103	0.000560	0.002179	0.000285	6599.305213	46355.623941	3992.058665	24457.813776
32.536000	0.001913	0.000794	0.002100	0.000557	6612.846241	46351.854999	3991.060009	24444.243262
33.042000	0.000970	0.000348	0.000596	-0.000199	6611.195011	46382.963395	3988.938790	24481.981635
33.536500	-0.002604	0.000301	-0.000100	0.004767	6536.639732	45882.878571	3972.996102	24235.211776
34.037000	0.002073	0.000965	0.002759	0.002384	6598.171042	46186.069824	3987.747632	24353.261965
34.537000	-0.001235	-0.000303	-0.000648	0.001633	6575.770732	46134.584573	3980.253239	24390.642085
35.034500	0.001321	0.000081	0.003395	0.002201	6593.171598	46116.172966	3990.068789	24362.363494
35.537500	-0.002749	-0.000132	-0.002248	0.003905	6542.845433	45925.519161	3969.404622	24277.860244
36.038500	0.001660	0.000495	0.007090	0.003508	6584.687080	46027.210351	3996.861066	24297.490105
36.535500	0.002504	-0.000522	0.001580	0.002733	6598.891713	46003.201445	3983.431193	24335.973605
37.035500	-0.000398	0.000177	0.000344	0.002330	6576.990330	46112.902257	3981.081341	24355.941880
37.536500	-0.000834	0.000761	0.004656	0.003721	6561.070828	46032.521876	3989.336842	24286.975483
38.036000	0.000276	-0.000291	-0.000536	0.001259	6592.276564	46173.117234	3981.621475	24409.261808
38.536500	-0.001136	0.000103	-0.002109	0.000790	6584.009986	46259.335444	3978.513925	24432.609247
39.037000	-0.000065	0.000360	0.002714	0.001000	6591.551347	46264.069432	3991.545816	24422.155567
39.537000	-0.001313	-0.000569	0.001808	0.000661	6583.586457	46205.019087	3989.938050	24439.061091
40.037500	-0.003288	0.000296	0.003277	0.001018	6563.237636	46255.825928	3993.093695	24421.259497
40.538000	0.000946	-0.000246	0.003183	0.000733	6602.776749	46230.080052	3993.637805	24435.432650
41.035500	-0.000931	-0.000323	0.001071	0.000304	6590.058075	46265.291285	3988.856818	24456.840551
41.536000	-0.003315	-0.001081	0.000231	0.001023	6562.955167	46117.755137	3984.448716	24420.988261
42.036000	-0.000054	-0.000026	0.002399	0.001474	6587.496790	46178.088510	3989.305736	24398.535449
42.536000	-0.001876	-0.001119	-0.001985	0.000591	6579.275323	46157.096050	3979.421745	24442.518562
43.037000	0.000896	0.000536	0.001810	0.001642	6594.349495	46217.383464	3987.161675	24390.161243
43.537000	0.000644	0.000481	-0.000834	0.002926	6580.890386	46083.744058	3976.097353	24326.370336
44.037000	0.001064	-0.000320	0.003853	-0.000591	6615.477933	46355.242548	3999.324512	24501.575224
44.537500	0.000745	-0.000077	0.005391	-0.000321	6610.287081	46352.566058	4002.954173	24488.087402
45.037500	0.001623	-0.000063	-0.001513	-0.000390	6618.643730	46360.852500	3983.514370	24491.531004
45.535000	-0.003066	0.000013	0.001766	0.004252	6537.106148	45905.455656	3979.675613	24260.685646
46.035500	0.000851	0.000222	0.003281	0.000498	6604.007267	46300.460568	3994.587179	24447.193840
46.536000	0.002871	-0.000104	0.002521	-0.000025	6626.453477	46320.151726	3993.910093	24473.292186
47.036000	0.000620	-0.000183	-0.001468	-0.000515	6610.898264	46361.401180	3983.996649	24497.793037
47.536500	-0.000880	-0.000576	0.001855	0.003209	6565.120345	45950.474766	3982.864774	24312.343680
48.036500	0.001203	0.000950	0.003750	0.000738	6604.996473	46349.303131	3995.235949	24435.194495
48.537000	0.003209	0.000418	0.002651	0.000120	6628.164294	46358.040932	3993.868160	24466.067360
49.037500	0.000969	0.000343	0.005412	-0.000194	6611.136215	46381.881179	4002.648680	24481.717197
49.537500	-0.000480	0.000135	0.001818	0.003627	6564.962781	45979.558715	3981.579250	24291.606906
50.034500	0.001978	0.000673	0.005604	0.001000	6609.509491	46295.338687	3999.779971	24422.152802
50.535500	0.003752	-0.000543	0.009990	0.039569	6298.633240	42489.218504	3905.800535	22582.916399
51.035500	0.062677	-0.019038	0.119754	0.620173	3840.282507	12801.479252	3146.264499	7980.495483
51.536000	0.003084	-0.015103	-0.016323	0.027217	6394.509847	42287.976036	3869.491289	23154.243237
52.036500	-0.016790	-0.084470	-0.048484	-0.239740	9162.644015	65029.233702	4666.446428	40454.836220
52.536500	-0.000248	-0.112483	-0.026496	-0.271269	9909.412302	65535.000000	4916.708680	43291.836754
53.037000	-0.006250	-0.095207	-0.024552	-0.253994	9537.475603	65535.000000	4841.836064	41711.911674
53.537000	-0.013754	-0.083848	-0.027481	-0.241740	9237.049537	65405.839661	4770.244856	40628.717590
54.037500	-0.010932	-0.081819	-0.028111	-0.240404	9259.174987	65505.771982	4761.158998	40512.449016
54.535000	-0.010787	-0.059210	-0.021749	-0.210967	8836.745519	64528.068218	4657.511655	38039.613611
55.035000	-0.012554	-0.064349	-0.026305	-0.219240	8928.132627	64974.943200	4673.841584	38717.764908
55.535500	-0.008137	-0.059522	-0.020828	-0.212016	8888.531309	64632.740222	4666.147855	38124.851883
56.036000	-0.005189	-0.035458	-0.018024	-0.174821	8425.535920	62791.727943	4520.882384	35223.673421
56.536000	-0.001208	-0.018611	-0.013681	-0.136837	8000.571453	59942.629631	4389.495275	32506.574659
57.036500	-0.000153	-0.009361	-0.009877	-0.099544	7582.836529	56370.373798	4268.425222	30060.333955
57.537000	0.007841	-0.002761	-0.002718	-0.067011	7319.133146	53265.952705	4182.715624	28091.342089
58.037000	0.010765	0.001127	0.004692	-0.048345	7157.629021	51578.082937	4146.266172	27026.428456
58.540000	0.017698	0.005229	0.010375	-0.028101	7025.572828	49799.045767	4100.497066	25922.128302
59.035000	0.021773	0.008350	0.016099	-0.000056	6797.727283	47178.452124	4033.248376	24474.828404
59.535000	0.026685	0.011792	0.023178	0.019358	6665.868526	45576.623832	3997.541165	23526.325625
60.035500	0.034104	0.017529	0.033355	0.047173	6487.711431	43457.081414	3948.213852	22239.188796
60.536000	0.040586	0.020563	0.034889	0.069097	6358.282384	41727.249596	3893.632741	21281.160599
61.036000	0.046625	0.025102	0.050962	0.088331	6251.280130	40432.590845	3885.397828	20479.603912
61.536500	0.054332	0.030898	0.054361	0.088196	6314.476554	40949.844677	3894.606007	20485.103374
62.036500	0.064229	0.037941	0.066932	0.132340	6046.660757	37827.352207	3814.918820	18773.776449
62.536500	0.070166	0.043592	0.072346	0.138570	6044.460451	37780.676072	3812.934795	18545.976032
63.039500	0.077941	0.048127	0.086086	0.142600	6072.704397	37821.328451	3836.782768	18400.320584
63.534500	0.081456	0.050353	0.094596	0.159374	5973.780079	36668.114399	3816.451740	17808.463173
64.034500	0.086974	0.053365	0.092979	0.171682	5924.275083	35951.248464	3783.056821	17388.510774
64.535000	0.095207	0.055854	0.100965	0.189703	5854.252931	34787.048957	3759.646937	16794.668647
65.038500	0.097705	0.058156	0.111661	0.198920	5807.104718	34282.055095	3763.064335	16500.356805
65.539000	0.097680	0.061303	0.111695	0.211285	5722.027909	33621.192132	3734.931476	16115.181254
66.035500	0.099235	0.061366	0.113052	0.230145	5607.207904	32316.318091	3696.346914	15548.412594
66.544500	0.099881	0.063270	0.116863	0.231080	5605.327369	32382.158127	3702.579538	15520.946637
67.036500	0.101742	0.066082	0.117904	0.227897	5638.305485	32793.175746	3711.812505	15614.690925
67.541000	0.105348	0.067431	0.120591	0.228623	5657.304912	32836.225781	3716.126844	15593.244974
68.039500	0.108361	0.069205	0.124533	0.223261	5713.279796	33333.554463	3736.870417	15752.437971
68.534000	0.109980	0.069289	0.122690	0.221676	5734.974850	33451.081168	3736.290623	15799.865015
69.045500	0.109685	0.072814	0.122220	0.222021	5730.635602	33676.245109	3734.458218	15789.547598
69.535000	0.109788	0.072952	0.128317	0.225812	5705.704542	33417.734566	3739.653557	15676.462306
70.035500	0.112760	0.074523	0.125152	0.222844	5745.960671	33739.279564	3739.209528	15764.912950
70.535000	0.114436	0.073523	0.127253	0.220818	5771.327366	33812.435650	3748.577949	15825.639358
71.036000	0.116947	0.077930	0.130328	0.220931	5787.871292	34120.348623	3755.354012	15822.224397
71.536500	0.115080	0.077076	0.129698	0.222415	5764.777485	33952.286441	3750.513517	15777.742370
72.039500	0.119794	0.077470	0.133619	0.216433	5839.133203	34412.809946	3773.400705	15958.023961
72.537000	0.121230	0.080033	0.129901	0.216772	5846.867701	34575.059934	3763.961879	15947.747757
73.037000	0.123090	0.080344	0.134823	0.216560	5861.518888	34613.300797	3775.921024	15954.171356
73.535000	0.118403	0.080765	0.132068	0.218008	5818.333282	34538.208101	3766.121036	15910.331157
74.035000	0.122972	0.082130	0.135765	0.213364	5883.422199	34980.177835	3785.663846	16051.481165
74.535500	0.123947	0.082726	0.133658	0.212596	5895.890619	35081.356400	3782.501814	16074.976331
75.035500	0.124341	0.083129	0.136026	0.211422	5907.148730	35198.723143	3790.891117	16110.970451
75.535500	0.121448	0.084249	0.135727	0.214805	5862.320787	35030.418088	3782.173031	16007.520643
76.036500	0.125496	0.085533	0.134318	0.211608	5914.131824	35364.548070	3786.395259	16105.257205
76.539500	0.126774	0.086177	0.137030	0.211352	5925.214733	35432.123904	3793.448859	16113.136432
77.037000	0.126029	0.087177	0.136287	0.211828	5916.393298	35471.501548	3790.547014	16098.523747
77.537000	0.125366	0.086485	0.142737	0.215251	5887.039539	35163.473860	3797.768448	15993.945074
78.035000	0.130709	0.088891	0.140882	0.212858	5942.839419	35522.908906	3799.055557	16066.957918
78.535000	0.129203	0.088757	0.141992	0.212556	5934.089232	35535.553070	3802.444707	16076.202118
79.035000	0.128622	0.088614	0.144213	0.213143	5925.623044	35480.668368	3806.381427	16058.247741
79.535500	0.128422	0.089127	0.146716	0.214053	5917.608203	35450.804751	3810.235280	16030.466175
80.036000	0.127925	0.089863	0.140668	0.214545	5910.472585	35469.143536	3794.509434	16015.441051
80.536500	0.127294	0.090172	0.140715	0.215465	5899.326582	35423.221215	3792.430510	15987.451360
81.039000	0.127478	0.091008	0.145779	0.217215	5888.103748	35354.717158	3800.350910	15934.327497
81.537000	0.129577	0.091072	0.142904	0.218670	5892.711877	35250.567063	3790.010943	15890.311748
82.037000	0.129891	0.090722	0.145980	0.220585	5881.263692	35081.848078	3792.772358	15832.618366
82.537500	0.126543	0.089825	0.144600	0.222429	5844.438436	34878.893177	3785.122749	15777.324820
83.037500	0.129418	0.089969	0.142151	0.224713	5848.609744	34721.218845	3773.989743	15709.124784
83.535000	0.127195	0.089884	0.144294	0.225664	5826.284387	34645.266279	3776.783245	15680.858442
84.035000	0.127644	0.090371	0.147701	0.225739	5828.904369	34675.455259	3784.626493	15678.622098
84.535000	0.129120	0.091724	0.147986	0.226814	5831.720256	34695.906328	3782.764100	15646.748213
85.035000	0.131966	0.091484	0.147561	0.227045	5850.129499	34661.267047	3781.214121	15639.881256
85.539000	0.132200	0.091871	0.145245	0.227390	5849.352798	34664.394365	3774.966693	15629.691295
86.036500	0.132558	0.091778	0.144605	0.227680	5849.831862	34636.364067	3772.792508	15621.109110
86.537000	0.131605	0.092973	0.142038	0.229207	5832.365876	34611.978821	3763.270815	15576.012322
87.037000	0.135258	0.094055	0.148292	0.232274	5836.480859	34466.951601	3770.672718	15485.955857
87.537500	0.131815	0.093338	0.148135	0.235978	5786.635389	34146.406879	3761.713158	15378.053455
88.034500	0.132687	0.093043	0.148481	0.233020	5813.244360	34339.141308	3769.375179	15464.152877
88.535000	0.133016	0.093179	0.141950	0.234389	5806.003008	34249.808873	3751.149446	15424.250023
89.035000	0.135043	0.093830	0.149493	0.237564	5798.011636	34067.577486	3761.184144	15332.112243
89.535500	0.135001	0.094525	0.147727	0.238428	5791.733106	34055.480224	3755.130268	15307.186052
90.039000	0.133441	0.094553	0.150925	0.239262	5775.189328	33997.483714	3760.570542	15283.135148
90.536500	0.136015	0.094899	0.146854	0.240301	5785.786255	33947.835225	3748.846553	15253.264514
91.036500	0.136859	0.095053	0.150405	0.242981	5773.115853	33767.216441	3750.834330	15176.520137
91.537000	0.131979	0.095405	0.148870	0.246756	5714.106943	33524.264702	3738.771799	15069.220099
92.037500	0.136510	0.094522	0.148185	0.242190	5776.167319	33785.775467	3747.573957	15199.124526
92.535000	0.138739	0.094729	0.152165	0.242015	5792.773796	33813.030033	3757.083256	15204.111412
93.035000	0.136687	0.095336	0.147616	0.244978	5758.221626	33645.364241	3739.956037	15119.651025
93.535000	0.139052	0.095622	0.148458	0.248073	5753.217291	33446.518770	3734.873173	15031.998061
94.035500	0.139163	0.097032	0.152247	0.244426	5779.042496	33805.332352	3751.744044	15135.343036
94.538500	0.139224	0.095433	0.154080	0.243209	5787.869563	33778.062204	3758.743989	15169.997722
95.036500	0.139623	0.096241	0.154527	0.246371	5768.810598	33610.696157	3752.508817	15080.109407
95.536500	0.138189	0.096564	0.149476	0.249310	5738.890865	33425.716558	3734.382253	14997.147188
96.037000	0.140428	0.096537	0.153342	0.244699	5785.888382	33750.588899	3753.625061	15127.563252
96.537000	0.140246	0.098071	0.152267	0.245584	5778.521829	33796.854050	3749.143629	15102.439040
97.037500	0.142307	0.096321	0.150363	0.247613	5778.743575	33528.433384	3740.207737	15044.993347
97.537500	0.139421	0.097763	0.149052	0.250405	5739.820337	33433.081423	3730.971981	14966.375428
