sample name	sample
index	1457
start time	 05-10-2021  01:45:12 PM


Wavelength (nm)	Absorbance
494.344910	-0.002390
494.563924	-0.002390
494.782919	-0.002390
495.001897	0.031476
495.220856	0.007887
495.439797	0.012633
495.658719	0.015071
495.877624	0.008066
496.096510	0.007299
496.315378	0.000216
496.534227	-0.002250
496.753059	-0.002845
496.971872	-0.008320
497.190667	0.052823
497.409444	0.092450
497.628203	0.108048
497.846943	0.115720
498.065665	0.119384
498.284369	0.125461
498.503055	0.127496
498.721723	0.129648
498.940372	0.132381
499.159003	0.133289
499.377616	0.133813
499.596210	0.133420
499.814787	0.134465
500.033345	0.134650
500.251885	0.135256
500.470406	0.135746
500.688910	0.135704
500.907395	0.135176
501.125862	0.135063
501.344311	0.134972
501.562742	0.136142
501.781154	0.136855
501.999548	0.137584
502.217924	0.136703
502.436282	0.136200
502.654621	0.136891
502.872942	0.135417
503.091245	0.135553
503.309530	0.136205
503.527797	0.135491
503.746045	0.134339
503.964275	0.134884
504.182487	0.135505
504.400681	0.136892
504.618856	0.137782
504.837013	0.141225
505.055152	0.142544
505.273273	0.141315
505.491376	0.140988
505.709460	0.142068
505.927526	0.142879
506.145574	0.143457
506.363604	0.143415
506.581615	0.142816
506.799608	0.140502
507.017583	0.140533
507.235540	0.140456
507.453478	0.140330
507.671399	0.139917
507.889301	0.139453
508.107185	0.139041
508.325050	0.138908
508.542898	0.139786
508.760727	0.140945
508.978538	0.139816
509.196330	0.140582
509.414105	0.141525
509.631861	0.142615
509.849599	0.142993
510.067319	0.142798
510.285021	0.141307
510.502704	0.141851
510.720369	0.141386
510.938016	0.142008
511.155645	0.142002
511.373255	0.142371
511.590848	0.142456
511.808422	0.141608
512.025977	0.141731
512.243515	0.143100
512.461034	0.142579
512.678536	0.142963
512.896018	0.142901
513.113483	0.143209
513.330930	0.143254
513.548358	0.143225
513.765768	0.143764
513.983160	0.143969
514.200533	0.144637
514.417889	0.144964
514.635226	0.144729
514.852545	0.145366
515.069845	0.145618
515.287128	0.145672
515.504392	0.145459
515.721638	0.145859
515.938866	0.146713
516.156075	0.146559
516.373267	0.146405
516.590440	0.147170
516.807594	0.147077
517.024731	0.147176
517.241850	0.147473
517.458950	0.147392
517.676032	0.147719
517.893095	0.147444
518.110141	0.147349
518.327168	0.147733
518.544177	0.147632
518.761168	0.147860
518.978141	0.148000
519.195095	0.148102
519.412031	0.148439
519.628949	0.147489
519.845849	0.147447
520.062731	0.148284
520.279594	0.148747
520.496439	0.149219
520.713266	0.149366
520.930074	0.149888
521.146865	0.150442
521.363637	0.150625
521.580391	0.151473
521.797127	0.151924
522.013844	0.151492
522.230543	0.151219
522.447224	0.151472
522.663887	0.151657
522.880532	0.151917
523.097158	0.151503
523.313766	0.151716
523.530356	0.151983
523.746928	0.152768
523.963481	0.153871
524.180017	0.154537
524.396534	0.154578
524.613032	0.154701
524.829513	0.154951
525.045975	0.155307
525.262420	0.155233
525.478845	0.155379
525.695253	0.155039
525.911643	0.154552
526.128014	0.153999
526.344367	0.154430
526.560702	0.154827
526.777018	0.155462
526.993316	0.155628
527.209597	0.156602
527.425858	0.156588
527.642102	0.156245
527.858328	0.156888
528.074535	0.157840
528.290724	0.158032
528.506894	0.158121
528.723047	0.157508
528.939181	0.157088
529.155297	0.156787
529.371395	0.157649
529.587475	0.157911
529.803536	0.157691
530.019579	0.157269
530.235604	0.157117
530.451611	0.156873
530.667600	0.157637
530.883570	0.158510
531.099522	0.159348
531.315456	0.158882
531.531372	0.159377
531.747269	0.159753
531.963148	0.160326
532.179009	0.161079
532.394852	0.161711
532.610676	0.161174
532.826482	0.161511
533.042271	0.160964
533.258040	0.161294
533.473792	0.161496
533.689525	0.161496
533.905240	0.161833
534.120937	0.161642
534.336616	0.161552
534.552277	0.161982
534.767919	0.162401
534.983543	0.162666
535.199149	0.163281
535.414736	0.163200
535.630306	0.163843
535.845857	0.163856
536.061390	0.163666
536.276904	0.164248
536.492401	0.164417
536.707879	0.164151
536.923339	0.164271
537.138781	0.164157
537.354204	0.164621
537.569610	0.164622
537.784997	0.164441
538.000366	0.164643
538.215716	0.164623
538.431049	0.165245
538.646363	0.165658
538.861659	0.166067
539.076937	0.166348
539.292196	0.166697
539.507438	0.166564
539.722661	0.167056
539.937866	0.167331
540.153052	0.167605
540.368221	0.167095
540.583371	0.167233
540.798503	0.167360
541.013617	0.167276
541.228712	0.167303
541.443789	0.167878
541.658848	0.167755
541.873889	0.168107
542.088912	0.168176
542.303916	0.169051
542.518902	0.168916
542.733870	0.168969
542.948820	0.169548
543.163752	0.170226
543.378665	0.170118
543.593560	0.170822
543.808437	0.171071
544.023295	0.171415
544.238136	0.171373
544.452958	0.171715
544.667762	0.171961
544.882548	0.171812
545.097315	0.171206
545.312064	0.171499
545.526795	0.171560
545.741508	0.171923
545.956203	0.172288
546.170879	0.172399
546.385537	0.172769
546.600177	0.172718
546.814799	0.172691
547.029402	0.172942
547.243988	0.173009
547.458555	0.173115
547.673103	0.172986
547.887634	0.173394
548.102146	0.173828
548.316640	0.173715
548.531116	0.174834
548.745574	0.175534
548.960013	0.175918
549.174435	0.175751
549.388838	0.175712
549.603222	0.176028
549.817589	0.175642
550.031937	0.175369
550.246267	0.175438
550.460579	0.174886
550.674873	0.174963
550.889148	0.175305
551.103405	0.175781
551.317644	0.175928
551.531865	0.176336
551.746068	0.176325
551.960252	0.176438
552.174418	0.177280
552.388566	0.177750
552.602696	0.177660
552.816807	0.177564
553.030900	0.177489
553.244975	0.177950
553.459032	0.177833
553.673070	0.178464
553.887091	0.178785
554.101093	0.178524
554.315077	0.178723
554.529042	0.179195
554.742990	0.179200
554.956919	0.179504
555.170830	0.179446
555.384722	0.179383
555.598597	0.179386
555.812453	0.179532
556.026291	0.179657
556.240111	0.179246
556.453913	0.179242
556.667696	0.179527
556.881461	0.179722
557.095208	0.179980
557.308937	0.179940
557.522647	0.179949
557.736339	0.179756
557.950013	0.179990
558.163669	0.179978
558.377307	0.179747
558.590926	0.179944
558.804527	0.179854
559.018110	0.179434
559.231675	0.179385
559.445221	0.179357
559.658749	0.179120
559.872259	0.178737
560.085751	0.179214
560.299225	0.179481
560.512680	0.179333
560.726117	0.179409
560.939536	0.179754
561.152937	0.180332
561.366319	0.180209
561.579683	0.180804
561.793029	0.181599
562.006357	0.181492
562.219667	0.181752
562.432958	0.181777
562.646231	0.182073
562.859486	0.182350
563.072723	0.182337
563.285941	0.182910
563.499141	0.183063
563.712323	0.182993
563.925487	0.183812
564.138632	0.183698
564.351760	0.184267
564.564869	0.184406
564.777960	0.184403
564.991032	0.184578
565.204087	0.184269
565.417123	0.184235
565.630141	0.183821
565.843140	0.183308
566.056122	0.183360
566.269085	0.182984
566.482030	0.183024
566.694957	0.182849
566.907866	0.182838
567.120756	0.182858
567.333628	0.182950
567.546482	0.183563
567.759318	0.183384
567.972135	0.183500
568.184935	0.183965
568.397716	0.184133
568.610478	0.184549
568.823223	0.184750
569.035949	0.185119
569.248657	0.185215
569.461347	0.184954
569.674019	0.185097
569.886672	0.185526
570.099308	0.185492
570.311925	0.185408
570.524523	0.185659
570.737104	0.185458
570.949666	0.185577
571.162210	0.186053
571.374736	0.186173
571.587244	0.186605
571.799733	0.186350
572.012205	0.186807
572.224658	0.187064
572.437092	0.186911
572.649509	0.187025
572.861907	0.187098
573.074287	0.186741
573.286649	0.187282
573.498993	0.187597
573.711318	0.188382
573.923625	0.188103
574.135914	0.188317
574.348185	0.188635
574.560438	0.188978
574.772672	0.189309
574.984888	0.189796
575.197086	0.189834
575.409266	0.189719
575.621427	0.189569
575.833570	0.189457
576.045695	0.189430
576.257802	0.189355
576.469890	0.189777
576.681961	0.189863
576.894013	0.189975
577.106046	0.190088
577.318062	0.190173
577.530059	0.190397
577.742039	0.191050
577.954000	0.191270
578.165942	0.191428
578.377867	0.191462
578.589773	0.191773
578.801661	0.192194
579.013531	0.192627
579.225382	0.192656
579.437216	0.192450
579.649031	0.192310
579.860828	0.192460
580.072606	0.192577
580.284367	0.192109
580.496109	0.192347
580.707833	0.191940
580.919539	0.191457
581.131227	0.191895
581.342896	0.192184
581.554547	0.192603
581.766180	0.192889
581.977795	0.193070
582.189391	0.193635
582.400969	0.193420
582.612529	0.193947
582.824071	0.194572
583.035595	0.194449
583.247100	0.194800
583.458587	0.194899
583.670056	0.194861
583.881506	0.195022
584.092939	0.195428
584.304353	0.195848
584.515749	0.195803
584.727127	0.196029
584.938486	0.196498
585.149828	0.196629
585.361151	0.196558
585.572456	0.196739
585.783742	0.197373
585.995011	0.197378
586.206261	0.197312
586.417493	0.197557
586.628706	0.197396
586.839902	0.197856
587.051079	0.197509
587.262238	0.197683
587.473379	0.197734
587.684502	0.197629
587.895606	0.197690
588.106692	0.197643
588.317760	0.197282
588.528810	0.197523
588.739841	0.197123
588.950855	0.197417
589.161850	0.197890
589.372827	0.198078
589.583785	0.198170
589.794726	0.198479
590.005648	0.198681
590.216552	0.199318
590.427437	0.199175
590.638305	0.199214
590.849154	0.199593
591.059985	0.199604
591.270798	0.199836
591.481592	0.200224
591.692369	0.200164
591.903127	0.200104
592.113867	0.200112
592.324588	0.200351
592.535292	0.200680
592.745977	0.200511
592.956644	0.200658
593.167293	0.200477
593.377923	0.199852
593.588536	0.200192
593.799130	0.200562
594.009706	0.200276
594.220263	0.200255
594.430803	0.200167
594.641324	0.200407
594.851827	0.200210
595.062312	0.200279
595.272778	0.200401
595.483227	0.200411
595.693657	0.200440
595.904069	0.200658
596.114462	0.201148
596.324838	0.201284
596.535195	0.201301
596.745534	0.201133
596.955855	0.201464
597.166157	0.202204
597.376441	0.202262
597.586707	0.202283
597.796955	0.202472
598.007185	0.202476
598.217396	0.202969
598.427589	0.203252
598.637764	0.203755
598.847921	0.204009
599.058060	0.203736
599.268180	0.203731
599.478282	0.203808
599.688366	0.204163
599.898431	0.204098
600.108479	0.204062
600.318508	0.204172
600.528519	0.204074
600.738511	0.203898
600.948486	0.204212
601.158442	0.204592
601.368380	0.204746
601.578300	0.204808
601.788202	0.204994
601.998085	0.204977
602.207950	0.205131
602.417797	0.205085
602.627626	0.205336
602.837436	0.205147
603.047228	0.205237
603.257002	0.205377
603.466758	0.205425
603.676496	0.205349
603.886215	0.205330
604.095916	0.205410
604.305599	0.205869
604.515264	0.206111
604.724910	0.206178
604.934538	0.206040
605.144148	0.206245
605.353740	0.206321
605.563314	0.206554
605.772869	0.206666
605.982406	0.206534
606.191925	0.206720
606.401425	0.206772
606.610908	0.207020
606.820372	0.207176
607.029818	0.207112
607.239246	0.207115
607.448655	0.207047
607.658047	0.207160
607.867420	0.207502
608.076775	0.207630
608.286111	0.207485
608.495430	0.207719
608.704730	0.207606
608.914012	0.207745
609.123275	0.207726
609.332521	0.207800
609.541748	0.208226
609.750957	0.208280
609.960148	0.208313
610.169321	0.208567
610.378475	0.208607
610.587611	0.208851
610.796729	0.209231
611.005829	0.209736
611.214910	0.209952
611.423974	0.209999
611.633019	0.210181
611.842045	0.210259
612.051054	0.210076
612.260044	0.210236
612.469017	0.210656
612.677970	0.210856
612.886906	0.210767
613.095824	0.211078
613.304723	0.211103
613.513604	0.210912
613.722467	0.211018
613.931311	0.211373
614.140138	0.211509
614.348946	0.211174
614.557736	0.210969
614.766507	0.210799
614.975261	0.210713
615.183996	0.210731
615.392713	0.211069
615.601412	0.210976
615.810092	0.211074
616.018754	0.210825
616.227399	0.211243
616.436024	0.211404
616.644632	0.211730
616.853222	0.211969
617.061793	0.212125
617.270346	0.212349
617.478880	0.212637
617.687397	0.213046
617.895895	0.213559
618.104375	0.213660
618.312837	0.213696
618.521281	0.213828
618.729706	0.213593
618.938113	0.213830
619.146502	0.213700
619.354873	0.213927
619.563226	0.213745
619.771560	0.213707
619.979876	0.213542
620.188174	0.213937
620.396453	0.214266
620.604715	0.214284
620.812958	0.214371
621.021183	0.214741
621.229390	0.214556
621.437578	0.214867
621.645748	0.215124
621.853900	0.215423
622.062034	0.215403
622.270150	0.215328
622.478247	0.215551
622.686326	0.215393
622.894387	0.215299
623.102430	0.215516
623.310454	0.215519
623.518461	0.215274
623.726449	0.215431
623.934418	0.215511
624.142370	0.215643
624.350303	0.216048
624.558218	0.216093
624.766115	0.216189
624.973994	0.216457
625.181855	0.216394
625.389697	0.216872
625.597521	0.216839
625.805327	0.216815
626.013114	0.216917
626.220883	0.216915
626.428634	0.217153
626.636367	0.217271
626.844082	0.217123
627.051778	0.217235
627.259457	0.217050
627.467117	0.217160
627.674758	0.217011
627.882382	0.216954
628.089987	0.217025
628.297574	0.217202
628.505143	0.217168
628.712694	0.217696
628.920226	0.217870
629.127740	0.217772
629.335236	0.217908
629.542714	0.218431
629.750174	0.218768
629.957615	0.218718
630.165038	0.218840
630.372443	0.219061
630.579829	0.218643
630.787198	0.218648
630.994548	0.218893
631.201880	0.218808
631.409194	0.218729
631.616489	0.218490
631.823766	0.218707
632.031025	0.218686
632.238266	0.218740
632.445489	0.218889
632.652693	0.219077
632.859879	0.219408
633.067047	0.219639
633.274197	0.219781
633.481329	0.220111
633.688442	0.220293
633.895537	0.220683
634.102614	0.220777
634.309672	0.220954
634.516713	0.221097
634.723735	0.221049
634.930739	0.221193
635.137724	0.221088
635.344692	0.220924
635.551641	0.221115
635.758572	0.220645
635.965485	0.220577
636.172379	0.220732
636.379256	0.220896
636.586114	0.221159
636.792954	0.221390
636.999775	0.221679
637.206579	0.222143
637.413364	0.222322
637.620131	0.222883
637.826880	0.223356
638.033610	0.223474
638.240323	0.223563
638.447017	0.223634
638.653692	0.223676
638.860350	0.223862
639.066990	0.224140
639.273611	0.224171
639.480214	0.224243
639.686798	0.224454
639.893365	0.224653
640.099913	0.224772
640.306443	0.225034
640.512955	0.225065
640.719449	0.225133
640.925924	0.225077
641.132381	0.225323
641.338820	0.225383
641.545241	0.225347
641.751644	0.225561
641.958028	0.225671
642.164394	0.225606
642.370742	0.225861
642.577071	0.226081
642.783383	0.226254
642.989676	0.226208
643.195951	0.226496
643.402207	0.226373
643.608446	0.226359
643.814666	0.226466
644.020868	0.226463
644.227052	0.226544
644.433218	0.226605
644.639365	0.226357
644.845494	0.226295
645.051605	0.226332
645.257698	0.226734
645.463772	0.226905
645.669828	0.226975
645.875866	0.227126
646.081886	0.227018
646.287888	0.227087
646.493871	0.227317
646.699836	0.227530
646.905783	0.227396
647.111712	0.227386
647.317622	0.227383
647.523514	0.227346
647.729388	0.227493
647.935244	0.227776
648.141082	0.227981
648.346901	0.228295
648.552702	0.228558
648.758485	0.228960
648.964250	0.229068
649.169996	0.229343
649.375724	0.229355
649.581434	0.229431
649.787126	0.229594
649.992800	0.229605
650.198455	0.229654
650.404092	0.229405
650.609711	0.229291
650.815311	0.229287
651.020894	0.229307
651.226458	0.229478
651.432004	0.229573
651.637532	0.229623
651.843041	0.229722
652.048532	0.229713
652.254006	0.230060
652.459460	0.230421
652.664897	0.230741
652.870315	0.230796
653.075716	0.231163
653.281097	0.231432
653.486461	0.231605
653.691807	0.231886
653.897134	0.232275
654.102443	0.232296
654.307734	0.232311
654.513006	0.232533
654.718261	0.232757
654.923497	0.233003
655.128715	0.232966
655.333915	0.233070
655.539096	0.233126
655.744259	0.233378
655.949404	0.233696
656.154531	0.233888
656.359640	0.233959
656.564730	0.234060
656.769802	0.233914
656.974856	0.234000
657.179892	0.234255
657.384909	0.234365
657.589908	0.234194
657.794889	0.234322
657.999852	0.234477
658.204797	0.234623
658.409723	0.234919
658.614631	0.235265
658.819521	0.235757
659.024393	0.235867
659.229246	0.236198
659.434081	0.236296
659.638898	0.236396
659.843697	0.236368
660.048478	0.236483
660.253240	0.236409
660.457984	0.236568
660.662710	0.236611
660.867417	0.236863
661.072107	0.236802
661.276778	0.236919
661.481431	0.237089
661.686066	0.237296
661.890682	0.237343
662.095281	0.237458
662.299861	0.237467
662.504422	0.237567
662.708966	0.237546
662.913491	0.237749
663.117999	0.238126
663.322488	0.238401
663.526958	0.238331
663.731411	0.238327
663.935845	0.238627
664.140261	0.238948
664.344659	0.238981
664.549038	0.238870
664.753400	0.238945
664.957743	0.238895
665.162068	0.238930
665.366375	0.239057
665.570663	0.239176
665.774933	0.239139
665.979185	0.239025
666.183419	0.239131
666.387635	0.239457
666.591832	0.239766
666.796011	0.239990
667.000172	0.240073
667.204315	0.240506
667.408439	0.240767
667.612545	0.241027
667.816634	0.241111
668.020703	0.241358
668.224755	0.241636
668.428788	0.241492
668.632803	0.241643
668.836800	0.241620
669.040779	0.241594
669.244739	0.241699
669.448681	0.241567
669.652605	0.241807
669.856511	0.241858
670.060399	0.241819
670.264268	0.242079
670.468119	0.242159
670.671952	0.242429
670.875767	0.242572
671.079563	0.242750
671.283341	0.243334
671.487101	0.243440
671.690843	0.243732
671.894567	0.243587
672.098272	0.243693
672.301959	0.243886
672.505628	0.243863
672.709278	0.243864
672.912911	0.243926
673.116525	0.243813
673.320121	0.243980
673.523699	0.244080
673.727258	0.244562
673.930799	0.244685
674.134322	0.244812
674.337827	0.245112
674.541314	0.245317
674.744782	0.245477
674.948232	0.245519
675.151664	0.245718
675.355078	0.245724
675.558474	0.245765
675.761851	0.245790
675.965210	0.245765
676.168551	0.245737
676.371873	0.245825
676.575178	0.245968
676.778464	0.246205
676.981732	0.246440
677.184981	0.246658
677.388213	0.246892
677.591426	0.247089
677.794621	0.247292
677.997798	0.247616
678.200956	0.247837
678.404097	0.247984
678.607219	0.248166
678.810323	0.248149
679.013408	0.248061
679.216476	0.248266
679.419525	0.248605
679.622556	0.248814
679.825569	0.248988
680.028563	0.249287
680.231540	0.249637
680.434498	0.249767
680.637438	0.250047
680.840359	0.250442
681.043263	0.250573
681.246148	0.250565
681.449015	0.250771
681.651864	0.250675
681.854694	0.250761
682.057506	0.250908
682.260301	0.250885
682.463076	0.250728
682.665834	0.250671
682.868573	0.250614
683.071295	0.250746
683.273998	0.250853
683.476682	0.250865
683.679349	0.250930
683.881997	0.250929
684.084627	0.251228
684.287239	0.251574
684.489833	0.251656
684.692408	0.251815
684.894965	0.251838
685.097504	0.251792
685.300025	0.252078
685.502527	0.251963
685.705012	0.251791
685.907478	0.251684
686.109925	0.251631
686.312355	0.251874
686.514766	0.252011
686.717159	0.252117
686.919534	0.252323
687.121891	0.252587
687.324230	0.253078
687.526550	0.253037
687.728852	0.253145
687.931136	0.253234
688.133401	0.253126
688.335649	0.252914
688.537878	0.252868
688.740089	0.252761
688.942281	0.252717
689.144456	0.252781
689.346612	0.253322
689.548750	0.253547
689.750870	0.253810
689.952971	0.254154
690.155055	0.254645
690.357120	0.255027
690.559167	0.255313
690.761195	0.255167
690.963206	0.255293
691.165198	0.255187
691.367172	0.255300
691.569128	0.255336
691.771065	0.255369
691.972984	0.255230
692.174885	0.255223
692.376768	0.255304
692.578633	0.255447
692.780479	0.255215
692.982308	0.255146
693.184118	0.255213
693.385909	0.255118
