sample name	sample
index	875
start time	 04-08-2021  01:44:56 PM


Wavelength (nm)	Absorbance
494.344910	-0.008706
494.563924	-0.008706
494.782919	-0.008706
495.001897	-0.041400
495.220856	-0.013458
495.439797	-0.014217
495.658719	-0.011703
495.877624	-0.012322
496.096510	-0.008227
496.315378	-0.000127
496.534227	-0.002116
496.753059	0.004633
496.971872	-0.000179
497.190667	0.068694
497.409444	0.115361
497.628203	0.133937
497.846943	0.147046
498.065665	0.153683
498.284369	0.160167
498.503055	0.165171
498.721723	0.166602
498.940372	0.168385
499.159003	0.170047
499.377616	0.170248
499.596210	0.170451
499.814787	0.169782
500.033345	0.170103
500.251885	0.169438
500.470406	0.169906
500.688910	0.170892
500.907395	0.172011
501.125862	0.171565
501.344311	0.171941
501.562742	0.172905
501.781154	0.173423
501.999548	0.173980
502.217924	0.174330
502.436282	0.173685
502.654621	0.172858
502.872942	0.172426
503.091245	0.173654
503.309530	0.174057
503.527797	0.174847
503.746045	0.175226
503.964275	0.175434
504.182487	0.175301
504.400681	0.176438
504.618856	0.177933
504.837013	0.178534
505.055152	0.177961
505.273273	0.178376
505.491376	0.178321
505.709460	0.178848
505.927526	0.179224
506.145574	0.180450
506.363604	0.179705
506.581615	0.178879
506.799608	0.178941
507.017583	0.180460
507.235540	0.180571
507.453478	0.180533
507.671399	0.180500
507.889301	0.180470
508.107185	0.180315
508.325050	0.181365
508.542898	0.181935
508.760727	0.182513
508.978538	0.182326
509.196330	0.182106
509.414105	0.181601
509.631861	0.182363
509.849599	0.183276
510.067319	0.183524
510.285021	0.183691
510.502704	0.185207
510.720369	0.185673
510.938016	0.186140
511.155645	0.186322
511.373255	0.187808
511.590848	0.188156
511.808422	0.188394
512.025977	0.189739
512.243515	0.189948
512.461034	0.189708
512.678536	0.189793
512.896018	0.189816
513.113483	0.190302
513.330930	0.190320
513.548358	0.190831
513.765768	0.191487
513.983160	0.190856
514.200533	0.191010
514.417889	0.191123
514.635226	0.191033
514.852545	0.191211
515.069845	0.191891
515.287128	0.191910
515.504392	0.192354
515.721638	0.191805
515.938866	0.191874
516.156075	0.191505
516.373267	0.192247
516.590440	0.193342
516.807594	0.193884
517.024731	0.194131
517.241850	0.194655
517.458950	0.194514
517.676032	0.195609
517.893095	0.196207
518.110141	0.197660
518.327168	0.198354
518.544177	0.197950
518.761168	0.198009
518.978141	0.199071
519.195095	0.199642
519.412031	0.200182
519.628949	0.200724
519.845849	0.200611
520.062731	0.201381
520.279594	0.200879
520.496439	0.202094
520.713266	0.203029
520.930074	0.203592
521.146865	0.203705
521.363637	0.203800
521.580391	0.203385
521.797127	0.204225
522.013844	0.204204
522.230543	0.204734
522.447224	0.205264
522.663887	0.205087
522.880532	0.204740
523.097158	0.205137
523.313766	0.205348
523.530356	0.205972
523.746928	0.206236
523.963481	0.206790
524.180017	0.207115
524.396534	0.207462
524.613032	0.208361
524.829513	0.208056
525.045975	0.207920
525.262420	0.209569
525.478845	0.210351
525.695253	0.210490
525.911643	0.210401
526.128014	0.211356
526.344367	0.211741
526.560702	0.212417
526.777018	0.213816
526.993316	0.214924
527.209597	0.214112
527.425858	0.214220
527.642102	0.214066
527.858328	0.214785
528.074535	0.215418
528.290724	0.215647
528.506894	0.215852
528.723047	0.215665
528.939181	0.216573
529.155297	0.216942
529.371395	0.216701
529.587475	0.217701
529.803536	0.217782
530.019579	0.217921
530.235604	0.218653
530.451611	0.218402
530.667600	0.219365
530.883570	0.219242
531.099522	0.219890
531.315456	0.220098
531.531372	0.220454
531.747269	0.220912
531.963148	0.221206
532.179009	0.221209
532.394852	0.221691
532.610676	0.221686
532.826482	0.221566
533.042271	0.221745
533.258040	0.222561
533.473792	0.223927
533.689525	0.225111
533.905240	0.225109
534.120937	0.225187
534.336616	0.225866
534.552277	0.225887
534.767919	0.226480
534.983543	0.227329
535.199149	0.228258
535.414736	0.227862
535.630306	0.227226
535.845857	0.227899
536.061390	0.228857
536.276904	0.228777
536.492401	0.230009
536.707879	0.230683
536.923339	0.230934
537.138781	0.231447
537.354204	0.231729
537.569610	0.233053
537.784997	0.233088
538.000366	0.233221
538.215716	0.234442
538.431049	0.234393
538.646363	0.234501
538.861659	0.234946
539.076937	0.235284
539.292196	0.235910
539.507438	0.236139
539.722661	0.237219
539.937866	0.237574
540.153052	0.237618
540.368221	0.238411
540.583371	0.239155
540.798503	0.239412
541.013617	0.239757
541.228712	0.239374
541.443789	0.239636
541.658848	0.239715
541.873889	0.240133
542.088912	0.240373
542.303916	0.239710
542.518902	0.240522
542.733870	0.240598
542.948820	0.241264
543.163752	0.241701
543.378665	0.242334
543.593560	0.242300
543.808437	0.242723
544.023295	0.243632
544.238136	0.245308
544.452958	0.245305
544.667762	0.245693
544.882548	0.245605
545.097315	0.247054
545.312064	0.247025
545.526795	0.247847
545.741508	0.248307
545.956203	0.248408
546.170879	0.248272
546.385537	0.248663
546.600177	0.249342
546.814799	0.249585
547.029402	0.249286
547.243988	0.250111
547.458555	0.250206
547.673103	0.250214
547.887634	0.250572
548.102146	0.251284
548.316640	0.251286
548.531116	0.251223
548.745574	0.251937
548.960013	0.252272
549.174435	0.252229
549.388838	0.252832
549.603222	0.253085
549.817589	0.253441
550.031937	0.253119
550.246267	0.253353
550.460579	0.253730
550.674873	0.253798
550.889148	0.254352
551.103405	0.254902
551.317644	0.254716
551.531865	0.255064
551.746068	0.255228
551.960252	0.256124
552.174418	0.256456
552.388566	0.257104
552.602696	0.257911
552.816807	0.258039
553.030900	0.257818
553.244975	0.258578
553.459032	0.259023
553.673070	0.259014
553.887091	0.259042
554.101093	0.259412
554.315077	0.259630
554.529042	0.259475
554.742990	0.260178
554.956919	0.260843
555.170830	0.260581
555.384722	0.260804
555.598597	0.261091
555.812453	0.261240
556.026291	0.261378
556.240111	0.261386
556.453913	0.261398
556.667696	0.261066
556.881461	0.261223
557.095208	0.261568
557.308937	0.261552
557.522647	0.262240
557.736339	0.262411
557.950013	0.263128
558.163669	0.263590
558.377307	0.264391
558.590926	0.264744
558.804527	0.264523
559.018110	0.265079
559.231675	0.265913
559.445221	0.266273
559.658749	0.266776
559.872259	0.266789
560.085751	0.266939
560.299225	0.266840
560.512680	0.267228
560.726117	0.267970
560.939536	0.268033
561.152937	0.267892
561.366319	0.267998
561.579683	0.268020
561.793029	0.267742
562.006357	0.268391
562.219667	0.268871
562.432958	0.269088
562.646231	0.268783
562.859486	0.269025
563.072723	0.268933
563.285941	0.268763
563.499141	0.269273
563.712323	0.269802
563.925487	0.270097
564.138632	0.270033
564.351760	0.269975
564.564869	0.270700
564.777960	0.270844
564.991032	0.271407
565.204087	0.271753
565.417123	0.271821
565.630141	0.272188
565.843140	0.271671
566.056122	0.272213
566.269085	0.272581
566.482030	0.272499
566.694957	0.273350
566.907866	0.273488
567.120756	0.273610
567.333628	0.273738
567.546482	0.273864
567.759318	0.274709
567.972135	0.274790
568.184935	0.275355
568.397716	0.275909
568.610478	0.275308
568.823223	0.275625
569.035949	0.276099
569.248657	0.276086
569.461347	0.276025
569.674019	0.275601
569.886672	0.275442
570.099308	0.275633
570.311925	0.275457
570.524523	0.276195
570.737104	0.276738
570.949666	0.277072
571.162210	0.277490
571.374736	0.277889
571.587244	0.278425
571.799733	0.278668
572.012205	0.278706
572.224658	0.279143
572.437092	0.278894
572.649509	0.278926
572.861907	0.279224
573.074287	0.279474
573.286649	0.279707
573.498993	0.280286
573.711318	0.280850
573.923625	0.281141
574.135914	0.281402
574.348185	0.281874
574.560438	0.282064
574.772672	0.282150
574.984888	0.282309
575.197086	0.282775
575.409266	0.282666
575.621427	0.282456
575.833570	0.282509
576.045695	0.282462
576.257802	0.282444
576.469890	0.282502
576.681961	0.282262
576.894013	0.282247
577.106046	0.282440
577.318062	0.282672
577.530059	0.282980
577.742039	0.282927
577.954000	0.283264
578.165942	0.283722
578.377867	0.283801
578.589773	0.283807
578.801661	0.284323
579.013531	0.284167
579.225382	0.284227
579.437216	0.284567
579.649031	0.285164
579.860828	0.285100
580.072606	0.285735
580.284367	0.286100
580.496109	0.286657
580.707833	0.286735
580.919539	0.286925
581.131227	0.287121
581.342896	0.287239
581.554547	0.287231
581.766180	0.287698
581.977795	0.287529
582.189391	0.287341
582.400969	0.287402
582.612529	0.287593
582.824071	0.287962
583.035595	0.288524
583.247100	0.288408
583.458587	0.288626
583.670056	0.288743
583.881506	0.288481
584.092939	0.288762
584.304353	0.288875
584.515749	0.288915
584.727127	0.289056
584.938486	0.288959
585.149828	0.289277
585.361151	0.289347
585.572456	0.289809
585.783742	0.290202
585.995011	0.290796
586.206261	0.291630
586.417493	0.291883
586.628706	0.292257
586.839902	0.292121
587.051079	0.292338
587.262238	0.292785
587.473379	0.293044
587.684502	0.293180
587.895606	0.293445
588.106692	0.293038
588.317760	0.293232
588.528810	0.293544
588.739841	0.293914
588.950855	0.294619
589.161850	0.294671
589.372827	0.294533
589.583785	0.295267
589.794726	0.295194
590.005648	0.295646
590.216552	0.295673
590.427437	0.296189
590.638305	0.296230
590.849154	0.296061
591.059985	0.296263
591.270798	0.296649
591.481592	0.296668
591.692369	0.296722
591.903127	0.296739
592.113867	0.297019
592.324588	0.296973
592.535292	0.297607
592.745977	0.297525
592.956644	0.297852
593.167293	0.298382
593.377923	0.298345
593.588536	0.298568
593.799130	0.298724
594.009706	0.299382
594.220263	0.299187
594.430803	0.299513
594.641324	0.299867
594.851827	0.299922
595.062312	0.299927
595.272778	0.300535
595.483227	0.300719
595.693657	0.300976
595.904069	0.300993
596.114462	0.301262
596.324838	0.300952
596.535195	0.301287
596.745534	0.301449
596.955855	0.301400
597.166157	0.301125
597.376441	0.301546
597.586707	0.301686
597.796955	0.301732
598.007185	0.302080
598.217396	0.302767
598.427589	0.302930
598.637764	0.303072
598.847921	0.303447
599.058060	0.303737
599.268180	0.304088
599.478282	0.304281
599.688366	0.304372
599.898431	0.304272
600.108479	0.304307
600.318508	0.304798
600.528519	0.305186
600.738511	0.305358
600.948486	0.305206
601.158442	0.305288
601.368380	0.305703
601.578300	0.305791
601.788202	0.306273
601.998085	0.306381
602.207950	0.305921
602.417797	0.306391
602.627626	0.306669
602.837436	0.307244
603.047228	0.307460
603.257002	0.307862
603.466758	0.307972
603.676496	0.307935
603.886215	0.307915
604.095916	0.308360
604.305599	0.308541
604.515264	0.308449
604.724910	0.308753
604.934538	0.308500
605.144148	0.308561
605.353740	0.308910
605.563314	0.309361
605.772869	0.309641
605.982406	0.309946
606.191925	0.310102
606.401425	0.310315
606.610908	0.310136
606.820372	0.310278
607.029818	0.310287
607.239246	0.310473
607.448655	0.310754
607.658047	0.311026
607.867420	0.311101
608.076775	0.310720
608.286111	0.310931
608.495430	0.311225
608.704730	0.311657
608.914012	0.311746
609.123275	0.311894
609.332521	0.311747
609.541748	0.311901
609.750957	0.312257
609.960148	0.312790
610.169321	0.312799
610.378475	0.312914
610.587611	0.313455
610.796729	0.313731
611.005829	0.314242
611.214910	0.314335
611.423974	0.314802
611.633019	0.314947
611.842045	0.315013
612.051054	0.314727
612.260044	0.314837
612.469017	0.314303
612.677970	0.314659
612.886906	0.314168
613.095824	0.314662
613.304723	0.314484
613.513604	0.314250
613.722467	0.314462
613.931311	0.315122
614.140138	0.315412
614.348946	0.315923
614.557736	0.315870
614.766507	0.316274
614.975261	0.315962
615.183996	0.316379
615.392713	0.316827
615.601412	0.317012
615.810092	0.317245
616.018754	0.317550
616.227399	0.317870
616.436024	0.318453
616.644632	0.318498
616.853222	0.318850
617.061793	0.318542
617.270346	0.318771
617.478880	0.319007
617.687397	0.319096
617.895895	0.319115
618.104375	0.319271
618.312837	0.319008
618.521281	0.319436
618.729706	0.319883
618.938113	0.320346
619.146502	0.320521
619.354873	0.320530
619.563226	0.320670
619.771560	0.321056
619.979876	0.320990
620.188174	0.321107
620.396453	0.321166
620.604715	0.321347
620.812958	0.321413
621.021183	0.321604
621.229390	0.321712
621.437578	0.322043
621.645748	0.322028
621.853900	0.322198
622.062034	0.322459
622.270150	0.322884
622.478247	0.322744
622.686326	0.323115
622.894387	0.323214
623.102430	0.323417
623.310454	0.323361
623.518461	0.323677
623.726449	0.324017
623.934418	0.323907
624.142370	0.324242
624.350303	0.324510
624.558218	0.324354
624.766115	0.324497
624.973994	0.324942
625.181855	0.325288
625.389697	0.325388
625.597521	0.325502
625.805327	0.326030
626.013114	0.326157
626.220883	0.326289
626.428634	0.326529
626.636367	0.326686
626.844082	0.326599
627.051778	0.326733
627.259457	0.326844
627.467117	0.327089
627.674758	0.327016
627.882382	0.327172
628.089987	0.327383
628.297574	0.327799
628.505143	0.328028
628.712694	0.328637
628.920226	0.328349
629.127740	0.328595
629.335236	0.328703
629.542714	0.328939
629.750174	0.329022
629.957615	0.329214
630.165038	0.329204
630.372443	0.329487
630.579829	0.329368
630.787198	0.330013
630.994548	0.330049
631.201880	0.330328
631.409194	0.330653
631.616489	0.330799
631.823766	0.330994
632.031025	0.331071
632.238266	0.331310
632.445489	0.331377
632.652693	0.331393
632.859879	0.331669
633.067047	0.331465
633.274197	0.331350
633.481329	0.331539
633.688442	0.332060
633.895537	0.332317
634.102614	0.332250
634.309672	0.332430
634.516713	0.332850
634.723735	0.333089
634.930739	0.333598
635.137724	0.334282
635.344692	0.334749
635.551641	0.334685
635.758572	0.334788
635.965485	0.335134
636.172379	0.335600
636.379256	0.335582
636.586114	0.335784
636.792954	0.335988
636.999775	0.336047
637.206579	0.336125
637.413364	0.336431
637.620131	0.336860
637.826880	0.336811
638.033610	0.336738
638.240323	0.337171
638.447017	0.337121
638.653692	0.337429
638.860350	0.337393
639.066990	0.337435
639.273611	0.337436
639.480214	0.337707
639.686798	0.338023
639.893365	0.338244
640.099913	0.338425
640.306443	0.338804
640.512955	0.338882
640.719449	0.339455
640.925924	0.339583
641.132381	0.339628
641.338820	0.339715
641.545241	0.339940
641.751644	0.339976
641.958028	0.340098
642.164394	0.340268
642.370742	0.340172
642.577071	0.340142
642.783383	0.340208
642.989676	0.340442
643.195951	0.340732
643.402207	0.340786
643.608446	0.341285
643.814666	0.341617
644.020868	0.341816
644.227052	0.342050
644.433218	0.342275
644.639365	0.342592
644.845494	0.343284
645.051605	0.343376
645.257698	0.343727
645.463772	0.343784
645.669828	0.343930
645.875866	0.344066
646.081886	0.344330
646.287888	0.344389
646.493871	0.344447
646.699836	0.344376
646.905783	0.344521
647.111712	0.344645
647.317622	0.344819
647.523514	0.344785
647.729388	0.344973
647.935244	0.345276
648.141082	0.345711
648.346901	0.345798
648.552702	0.345883
648.758485	0.346114
648.964250	0.346357
649.169996	0.346707
649.375724	0.347192
649.581434	0.347291
649.787126	0.347508
649.992800	0.347372
650.198455	0.348000
650.404092	0.348376
650.609711	0.348419
650.815311	0.348576
651.020894	0.348626
651.226458	0.348868
651.432004	0.349028
651.637532	0.349167
651.843041	0.349613
652.048532	0.349768
652.254006	0.349663
652.459460	0.350069
652.664897	0.350696
652.870315	0.351213
653.075716	0.351254
653.281097	0.351724
653.486461	0.352206
653.691807	0.352576
653.897134	0.352694
654.102443	0.353143
654.307734	0.353114
654.513006	0.352820
654.718261	0.352998
654.923497	0.353377
655.128715	0.353523
655.333915	0.353392
655.539096	0.353713
655.744259	0.354071
655.949404	0.354320
656.154531	0.354809
656.359640	0.355339
656.564730	0.355461
656.769802	0.355716
656.974856	0.355879
657.179892	0.356508
657.384909	0.356545
657.589908	0.356616
657.794889	0.356662
657.999852	0.356823
658.204797	0.357182
658.409723	0.357421
658.614631	0.357406
658.819521	0.358004
659.024393	0.358087
659.229246	0.358231
659.434081	0.358450
659.638898	0.359034
659.843697	0.359451
660.048478	0.359426
660.253240	0.359562
660.457984	0.359961
660.662710	0.360048
660.867417	0.360340
661.072107	0.360634
661.276778	0.360910
661.481431	0.360837
661.686066	0.360893
661.890682	0.361338
662.095281	0.361460
662.299861	0.361519
662.504422	0.361722
662.708966	0.361699
662.913491	0.361912
663.117999	0.362291
663.322488	0.362516
663.526958	0.362719
663.731411	0.362947
663.935845	0.363585
664.140261	0.363908
664.344659	0.364266
664.549038	0.364951
664.753400	0.365095
664.957743	0.365255
665.162068	0.365702
665.366375	0.366073
665.570663	0.366030
665.774933	0.366179
665.979185	0.366500
666.183419	0.366552
666.387635	0.366619
666.591832	0.367043
666.796011	0.367320
667.000172	0.367394
667.204315	0.367553
667.408439	0.368008
667.612545	0.368096
667.816634	0.368384
668.020703	0.368604
668.224755	0.368752
668.428788	0.368778
668.632803	0.368828
668.836800	0.369355
669.040779	0.369784
669.244739	0.370154
669.448681	0.370426
669.652605	0.370672
669.856511	0.370932
670.060399	0.371452
670.264268	0.371878
670.468119	0.372175
670.671952	0.372249
670.875767	0.372467
671.079563	0.372757
671.283341	0.372874
671.487101	0.372973
671.690843	0.373491
671.894567	0.373465
672.098272	0.373775
672.301959	0.374066
672.505628	0.374288
672.709278	0.374417
672.912911	0.374395
673.116525	0.374758
673.320121	0.375018
673.523699	0.375218
673.727258	0.375488
673.930799	0.375698
674.134322	0.375959
674.337827	0.376146
674.541314	0.376430
674.744782	0.376600
674.948232	0.376765
675.151664	0.377129
675.355078	0.377150
675.558474	0.377480
675.761851	0.377690
675.965210	0.377974
676.168551	0.378387
676.371873	0.378871
676.575178	0.379291
676.778464	0.379700
676.981732	0.380035
677.184981	0.380315
677.388213	0.380434
677.591426	0.380704
677.794621	0.380897
677.997798	0.380976
678.200956	0.380935
678.404097	0.381208
678.607219	0.381259
678.810323	0.381307
679.013408	0.381371
679.216476	0.381659
679.419525	0.381832
679.622556	0.382076
679.825569	0.382264
680.028563	0.382767
680.231540	0.382982
680.434498	0.383393
680.637438	0.383657
680.840359	0.384432
681.043263	0.384898
681.246148	0.385162
681.449015	0.385517
681.651864	0.385910
681.854694	0.386094
682.057506	0.386207
682.260301	0.386356
682.463076	0.386799
682.665834	0.386794
682.868573	0.386854
683.071295	0.387093
683.273998	0.387350
683.476682	0.387336
683.679349	0.387544
683.881997	0.387826
684.084627	0.388239
684.287239	0.388264
684.489833	0.388605
684.692408	0.389093
684.894965	0.389465
685.097504	0.389956
685.300025	0.390368
685.502527	0.390715
685.705012	0.390925
685.907478	0.390950
686.109925	0.391333
686.312355	0.391467
686.514766	0.391463
686.717159	0.391631
686.919534	0.391645
687.121891	0.392000
687.324230	0.392117
687.526550	0.392498
687.728852	0.392707
687.931136	0.392944
688.133401	0.392951
688.335649	0.393241
688.537878	0.393404
688.740089	0.393618
688.942281	0.393971
689.144456	0.394170
689.346612	0.394284
689.548750	0.394757
689.750870	0.394740
689.952971	0.394945
690.155055	0.395258
690.357120	0.395625
690.559167	0.395816
690.761195	0.395659
690.963206	0.395944
691.165198	0.396248
691.367172	0.396093
691.569128	0.396434
691.771065	0.396808
691.972984	0.396845
692.174885	0.397106
692.376768	0.397259
692.578633	0.397627
692.780479	0.397411
692.982308	0.397409
693.184118	0.397815
693.385909	0.398019
