sample name	sample
index	119
start time	 02-15-2021  12:38:49 PM
880	0.417462
Peak Time (s)	92.535
Peak Height 	0.4175
calc peak height	90,93
Baseline Time (s)	11.036
Baseline Value 	2.3047E-4
subtract baseline	10,4
Abs	0.311622
Peak Time (s)	90.038
Peak Height 	0.3116
calc peak height	90,93
Baseline Time (s)	11.536
Baseline Value 	0.001236
subtract baseline	10,3
PK_550	0.153031
Peak Time (s)	92.535
Peak Height 	0.153
calc peak height	90,93
Baseline Time (s)	10.538
Baseline Value 	6.69E-4
subtract baseline	10,2
PK_880	0.292317
Peak Time (s)	90.038
Peak Height 	0.2923
calc peak height	90,93
Baseline Time (s)	9.037
Baseline Value 	8.7199E-4
subtract baseline	10,1


Time (s)	A880-A510	A880-A775	A880-A975	A880	I510	I775	I975	I880	
0.034500	0.000649	0.000075	0.002109	0.000247	4358.754496	16696.946885	3277.250786	9351.493521
0.535000	-0.004705	-0.001952	-0.005885	0.005037	4327.947683	16484.842102	3268.271619	9281.897508
1.037500	0.002981	0.000631	0.016605	0.003120	4357.094470	16624.490175	3285.647457	9309.661507
1.536000	-0.002469	-0.000144	0.022126	0.000104	4349.642490	16694.533318	3291.958438	9353.579885
2.036000	0.003323	0.000196	-0.003823	-0.000899	4370.544143	16736.758823	3273.858624	9368.265578
2.536500	-0.003150	-0.000758	-0.000497	0.005615	4330.881508	16503.866805	3271.619078	9273.551005
3.039500	0.005066	0.001328	0.021075	-0.001516	4377.880112	16791.864040	3292.384065	9377.306731
3.537000	0.000469	0.000821	-0.009213	-0.000300	4359.883429	16737.530288	3269.665625	9359.490488
4.037000	-0.000447	0.001038	-0.000461	0.000214	4355.491215	16728.211343	3275.447610	9351.978541
4.534500	0.001331	-0.000766	0.001804	0.001417	4357.256481	16634.034049	3276.201263	9334.423818
5.035000	0.004392	0.000960	0.011227	-0.000110	4371.411558	16735.943247	3284.078232	9356.707488
5.535000	-0.000013	0.000606	0.015558	0.000310	4356.528941	16711.623937	3286.940486	9350.578349
6.035500	-0.001454	-0.001451	0.012069	-0.002611	4361.075408	16738.775762	3286.523121	9393.386994
6.535500	-0.000780	-0.000359	0.014170	-0.000600	4356.967491	16709.878710	3286.589015	9363.877025
7.036500	0.001597	0.000946	-0.000336	0.000394	4361.217655	16719.665237	3275.408913	9349.349195
7.536500	-0.002010	0.000387	0.005710	-0.001027	4354.504825	16746.779635	3280.745199	9370.134758
8.036500	0.001651	0.000489	-0.009460	-0.001073	4365.907604	16751.403795	3270.030918	9370.803662
8.536500	0.001045	-0.000278	-0.003661	-0.000659	4362.760879	16714.295411	3273.803402	9364.738985
9.037000	0.000000	0.000957	0.001941	0.000211	4356.870947	16725.747678	3277.156868	9352.015240
9.537500	0.000493	-0.000395	-0.000193	-0.000857	4361.671669	16716.861487	3276.398481	9367.650160
10.035000	-0.001987	0.000515	0.001778	0.000028	4351.349354	16717.621967	3277.171069	9354.701410
10.538000	-0.001557	0.000000	-0.011315	0.003917	4340.820710	16580.003906	3265.303277	9298.102090
11.035500	0.000540	0.000585	0.007194	0.000000	4359.177383	16720.689774	3281.074963	9355.104792
11.535500	-0.003924	-0.000512	0.000000	-0.001500	4350.101692	16733.370413	3276.993234	9377.073937
12.036500	0.000192	-0.001370	-0.009986	-0.001260	4361.985512	16698.896643	3269.795382	9373.547917
12.536500	-0.003644	-0.000662	-0.010207	0.002922	4337.516025	16590.369343	3266.748528	9312.538237
13.036500	-0.001861	-0.001021	0.013801	-0.002408	4359.199765	16745.909053	3287.647559	9390.395295
13.537000	0.003187	-0.000483	-0.007538	-0.001626	4372.375516	16738.240285	3271.758819	9378.915263
14.037500	0.000585	-0.000126	0.014488	0.001537	4354.599245	16650.275072	3285.256308	9332.674961
14.535000	-0.003885	0.000602	0.000012	0.004517	4331.977832	16580.066657	3272.745908	9289.423440
15.035000	0.002044	0.000691	-0.001982	-0.000122	4364.183842	16727.867194	3274.609351	9356.887851
15.535500	-0.002312	-0.000478	0.011712	-0.001297	4354.407194	16728.047554	3285.299136	9374.089547
16.035500	-0.001259	-0.000982	0.008079	-0.001573	4358.482601	16720.883263	3282.853421	9378.137018
16.536000	-0.003167	0.000416	0.005646	0.004118	4335.343882	16586.696642	3277.012995	9295.189264
17.036000	0.001472	0.000090	0.011260	-0.004415	4375.711674	16844.372804	3287.254465	9419.964281
17.536500	0.004166	0.000009	-0.005899	-0.000453	4371.773771	16716.832721	3272.085192	9361.724786
18.037000	-0.000002	-0.001049	0.004486	-0.000730	4359.756845	16692.340303	3279.651195	9365.790755
18.537000	0.000869	-0.000363	0.002975	0.001957	4354.183473	16629.745743	3276.650026	9326.560112
19.037500	0.005988	-0.000068	0.001580	0.000314	4375.049008	16690.343853	3276.826432	9350.511390
19.535000	-0.003360	-0.001195	-0.011041	-0.000881	4349.934296	16692.489919	3268.800031	9368.001590
20.037500	-0.002605	-0.001189	-0.006483	-0.001386	4353.785685	16708.529415	3272.330351	9375.402418
20.535500	-0.002915	-0.000708	-0.007138	0.001772	4343.207484	16624.743559	3269.666830	9329.248506
21.036000	0.002151	-0.000209	0.007772	-0.000440	4365.496328	16709.591013	3281.810284	9361.541475
21.536500	-0.003101	0.000380	0.002616	0.000755	4345.735023	16690.558582	3277.249736	9344.071095
22.036500	0.000544	0.000737	-0.002854	0.000960	4356.244645	16695.341753	3273.231715	9341.093296
22.537000	0.001866	-0.000053	-0.003821	0.001566	4358.442876	16651.663790	3272.127349	9332.261474
23.037000	0.003460	0.000658	0.016173	0.001079	4364.848089	16689.131979	3286.827185	9339.346242
23.537000	-0.003053	-0.000925	0.013091	-0.001462	4352.642225	16719.192821	3286.429581	9376.504482
24.035000	-0.001910	0.000724	0.001891	0.000704	4349.520105	16702.971336	3276.769937	9344.821820
24.535500	-0.000520	-0.000781	0.007272	0.000824	4353.400349	16652.079131	3280.537084	9343.075308
25.035500	0.002644	0.000177	0.008749	0.000567	4363.908489	16690.096604	3281.788422	9346.816166
25.536000	0.000058	0.000165	0.005722	0.000793	4355.266259	16682.651592	3279.444957	9343.522758
26.036000	0.001589	0.000981	0.006798	0.000857	4359.768950	16706.222965	3280.172170	9342.593297
26.536500	-0.003621	0.000161	0.006469	0.000391	4345.260158	16695.122958	3280.270443	9349.386886
27.036500	-0.000824	-0.000909	0.007415	-0.002656	4363.154615	16757.247337	3283.157485	9394.048405
27.536500	0.001720	0.000208	-0.001750	-0.002503	4370.545427	16787.655715	3276.461294	9391.801414
28.037000	0.004691	0.000948	-0.001961	-0.000581	4373.803124	16750.390885	3274.949254	9363.610571
28.537500	-0.000976	-0.001551	-0.009034	-0.001495	4359.114584	16700.598748	3270.622814	9377.002647
29.035000	0.001690	0.000398	0.012676	-0.001232	4366.518787	16753.542482	3285.956926	9373.134247
29.538000	0.003421	-0.001924	0.011857	-0.002477	4375.750213	16719.696145	3286.269253	9391.418639
30.035000	-0.002719	0.000139	0.010160	-0.001347	4353.316305	16749.037707	3284.202877	9374.827487
30.536000	0.000027	0.000120	0.001513	0.002357	4350.386631	16632.342289	3275.328593	9320.750097
31.035500	-0.002444	-0.000778	0.013845	0.000528	4348.425906	16661.425835	3285.524086	9347.388569
31.536500	0.001018	0.001304	0.008497	-0.000442	4362.009228	16757.240891	3282.336887	9361.572156
32.036500	-0.000681	-0.002207	-0.003685	-0.002303	4362.508303	16705.357273	3274.947670	9388.864791
32.536000	0.000812	0.000358	-0.000326	0.000322	4359.026291	16703.475979	3275.467440	9350.401056
33.034500	0.001972	0.001640	0.002544	-0.000956	4366.538550	16784.036390	3278.420978	9369.098301
33.538000	-0.000062	0.000558	0.003815	0.001299	4353.346691	16679.108769	3277.717211	9336.139047
34.037000	-0.001524	-0.001301	0.010673	-0.000915	4355.652238	16690.257481	3284.262006	9368.498403
34.535500	-0.000616	0.001013	0.011213	0.001883	4349.870461	16675.055224	3282.619314	9327.632604
35.036000	-0.000016	-0.000318	0.011737	0.000706	4355.304155	16670.251600	3283.855693	9344.791949
35.536000	-0.001787	0.001489	-0.002549	0.002094	4345.657649	16683.344724	3272.648995	9324.564170
36.036000	0.000801	0.000023	0.001620	0.001490	4355.404405	16656.393127	3276.018384	9333.355145
36.536500	-0.000950	0.001111	0.014367	0.004020	4342.350593	16611.391943	3283.358542	9296.618907
37.037000	-0.003500	0.000124	-0.012400	0.001420	4342.503314	16661.727485	3266.272791	9334.379841
37.537000	-0.002296	-0.000353	0.011025	-0.000154	4350.961597	16696.077549	3283.963210	9357.355365
38.034500	-0.000450	0.001615	0.002640	0.002007	4349.997836	16690.030319	3276.375570	9325.829092
38.535000	-0.002664	0.000043	0.002186	0.002540	4341.641829	16624.244831	3275.675330	9318.085014
39.035500	0.003230	0.000855	-0.000507	0.001542	4362.711866	16680.815946	3274.475617	9332.607009
39.537500	-0.000841	0.000463	0.006806	0.001067	4351.674758	16683.380027	3280.026111	9339.521342
40.036000	-0.001815	0.000361	-0.013576	0.000959	4349.031505	16683.614862	3265.781871	9341.107945
40.536500	-0.000119	0.000347	-0.004909	0.003393	4346.781741	16607.093694	3270.090650	9305.697271
41.036500	0.002181	0.000918	0.002904	0.001991	4358.101563	16668.707498	3276.575198	9326.065194
41.536500	0.000679	-0.000216	-0.005924	0.000772	4357.233209	16671.376078	3271.210578	9343.826751
42.037000	-0.001556	0.000504	0.001561	0.001064	4349.501528	16684.758217	3276.279620	9339.565922
42.537000	-0.000187	0.000211	-0.002683	0.002633	4348.889703	16626.544322	3272.176184	9316.727204
43.034000	-0.003001	0.000697	0.000542	0.001497	4343.784031	16677.257229	3275.249479	9333.259308
43.540000	0.004042	0.002539	0.021162	-0.002102	4376.512536	16848.713021	3292.887758	9385.904077
44.035500	0.007245	0.002269	0.008145	0.001142	4376.385161	16737.736192	3280.936943	9338.427580
44.535500	-0.000551	-0.000675	0.001808	0.004185	4343.059654	16550.701859	3274.243610	9294.217902
45.036000	-0.001418	0.000721	0.008846	-0.000267	4353.993003	16733.369131	3282.463185	9359.016145
45.535500	0.001899	0.000104	0.007438	-0.001178	4366.997406	16742.597622	3282.102470	9372.346738
46.036500	0.002733	-0.000133	0.016889	-0.001243	4369.780535	16737.185828	3289.066886	9373.293706
46.537000	-0.005283	0.000273	-0.003399	0.003973	4329.407604	16586.752234	3270.738593	9297.293165
47.037000	0.000402	-0.000236	-0.005150	0.000695	4356.619853	16673.146702	3271.805933	9344.949842
47.537000	-0.002330	0.000609	-0.007753	0.002632	4342.375544	16639.049582	3268.643678	9316.754248
48.034000	-0.003477	-0.001210	0.011157	-0.001507	4351.487451	16711.656604	3285.047144	9377.177144
48.541000	-0.001639	0.000527	-0.000288	0.004627	4338.425437	16574.338051	3272.458077	9287.831544
49.035500	-0.000662	-0.000085	0.004197	-0.001598	4360.397178	16749.887030	3280.066752	9378.505626
49.536000	0.002404	0.000256	0.010546	-0.002943	4374.032182	16803.057908	3285.650004	9398.264234
50.035500	-0.001538	-0.000618	0.007923	-0.006405	4372.543554	16885.096668	3286.264966	9449.426691
50.536500	0.008007	0.000857	0.021303	0.080560	4152.417389	14418.050094	3236.613982	8280.290481
51.036500	-0.050855	-0.024041	-0.005291	0.183473	3801.607646	11527.053855	3167.275179	7167.675948
51.536500	-0.023379	-0.016406	-0.008799	-0.026544	4367.270487	17024.117711	3288.781310	9755.216007
52.037000	-0.005495	-0.012075	0.010059	-0.144813	4861.737429	21572.840001	3407.992741	11867.558848
52.535000	0.005681	-0.011017	0.026673	-0.114345	4781.903894	20361.856362	3394.168948	11267.231188
53.037500	0.003341	-0.013022	0.028127	-0.066092	4588.636706	18473.163222	3350.603324	10398.591332
53.535500	0.000963	-0.014997	0.022439	-0.047530	4515.004624	17762.098476	3329.808350	10089.319194
54.035500	0.008227	-0.015918	0.029117	-0.034579	4495.610868	17300.474591	3324.615334	9881.226342
54.536000	0.018127	-0.012234	0.050823	-0.006673	4435.862907	16528.991034	3319.557189	9453.403773
55.036500	0.040625	-0.007698	0.056897	0.026629	4401.182571	15666.955697	3298.174537	8977.548963
55.536500	0.058544	-0.002230	0.071470	0.061084	4349.745951	14854.127488	3283.386634	8522.156926
56.036000	0.074104	0.007170	0.087924	0.079779	4340.212096	14604.787446	3281.761603	8289.771501
56.537000	0.096886	0.017238	0.116752	0.105631	4330.943367	14193.389404	3283.920829	7984.471750
57.037500	0.123386	0.027688	0.128432	0.141040	4304.415821	13572.616902	3267.106832	7594.738954
57.535000	0.133536	0.039603	0.138328	0.170836	4247.799961	13149.304358	3253.697702	7290.525021
58.035500	0.157046	0.055238	0.168177	0.205863	4215.784124	12709.512752	3250.308018	6958.595100
58.535500	0.181269	0.068471	0.193363	0.231471	4211.989406	12438.952392	3250.032959	6732.313395
59.036000	0.192054	0.077914	0.210494	0.255861	4175.361883	12122.266828	3245.353327	6528.858618
59.536000	0.205608	0.089947	0.244524	0.272915	4166.124331	12018.323626	3256.421557	6393.236468
60.036000	0.222769	0.099710	0.240666	0.293607	4156.880899	11796.162966	3240.553629	6235.671913
60.536500	0.232767	0.112796	0.254767	0.318948	4117.567433	11553.580681	3233.582000	6052.654606
61.036500	0.230440	0.106385	0.277880	0.329257	4086.220142	11233.509638	3241.537636	5981.208454
61.537000	0.247559	0.125103	0.253678	0.336790	4109.918659	11446.256155	3222.241569	5930.062570
62.037500	0.247188	0.124066	0.263083	0.336261	4110.314569	11436.489642	3228.131208	5933.624571
62.539000	0.254189	0.126495	0.262244	0.338352	4122.660160	11442.993101	3226.380172	5919.566990
63.053000	0.255520	0.128679	0.272182	0.337672	4127.758520	11498.338811	3232.781922	5924.130162
63.535500	0.257042	0.131390	0.258337	0.340271	4125.024355	11500.503151	3222.933011	5906.723494
64.035500	0.259901	0.132595	0.265719	0.342423	4126.817832	11482.154863	3226.024725	5892.388331
64.536000	0.260484	0.134507	0.279393	0.342677	4127.651451	11514.300248	3234.131757	5890.699964
65.036500	0.271294	0.139053	0.271266	0.346700	4145.031023	11524.459323	3226.781684	5864.111366
65.537000	0.268397	0.139390	0.271258	0.346379	4138.402039	11537.261545	3226.968384	5866.223057
66.036500	0.267976	0.140303	0.278889	0.349260	4129.964261	11499.017789	3229.819586	5847.314976
66.537500	0.270488	0.140679	0.277174	0.350391	4133.484712	11484.399972	3228.107471	5839.928798
67.038000	0.271384	0.142868	0.290155	0.351237	4133.612087	11510.429755	3235.486394	5834.415229
67.535000	0.273672	0.141097	0.292038	0.350519	4141.317632	11490.020581	3237.095055	5839.097189
68.035500	0.269849	0.142346	0.280207	0.351657	4128.631962	11492.177231	3229.169027	5831.684631
68.535500	0.273195	0.145588	0.289028	0.362705	4109.219727	11342.292097	3227.831878	5760.727256
69.036000	0.273748	0.144624	0.295306	0.358238	4121.832766	11409.225042	3234.348357	5789.201639
69.536000	0.281229	0.144361	0.296625	0.358320	4140.688810	11402.583338	3235.108621	5788.671770
70.036000	0.276771	0.145150	0.300545	0.359451	4126.415252	11396.045345	3236.831117	5781.437108
70.537000	0.274459	0.143950	0.290269	0.358745	4122.347849	11386.583723	3230.965439	5785.952209
71.037000	0.278899	0.146049	0.297427	0.363575	4121.363435	11334.501342	3232.380634	5755.216185
71.537500	0.285760	0.148092	0.292094	0.365560	4133.748949	11335.605055	3227.958331	5742.683542
72.037500	0.282600	0.148463	0.293744	0.367189	4121.580882	11311.720460	3227.970656	5732.435886
72.534500	0.281211	0.147362	0.283725	0.373340	4102.698404	11175.379423	3218.458568	5694.107300
73.035500	0.276587	0.146047	0.298528	0.366385	4108.500834	11281.208845	3231.341181	5737.487775
73.536000	0.284049	0.147625	0.286719	0.369693	4118.921027	11248.605785	3222.322560	5716.769293
74.036000	0.288569	0.148782	0.305421	0.376479	4113.224233	11143.401654	3229.405010	5674.753213
74.536500	0.275763	0.147547	0.286206	0.379501	4074.255540	11064.727700	3216.342617	5656.254799
75.036500	0.286732	0.150288	0.312123	0.376073	4109.643454	11178.997192	3233.724083	5677.252131
75.537000	0.289857	0.150758	0.304142	0.379063	4109.979283	11132.115263	3227.087848	5658.927703
76.037000	0.285674	0.149122	0.286113	0.383861	4087.760154	11013.681374	3213.806065	5629.787487
76.537500	0.280691	0.147257	0.297629	0.386167	4070.062738	10937.827723	3219.080518	5615.894779
77.035000	0.289543	0.150289	0.291354	0.383302	4098.657238	11045.263358	3217.114671	5633.163526
77.535000	0.281891	0.150343	0.292360	0.385139	4075.442380	11012.633967	3216.638108	5622.082155
78.035500	0.287688	0.150210	0.297119	0.392913	4070.666510	10869.493791	3214.916215	5575.683808
78.536000	0.286454	0.154170	0.319091	0.398791	4053.673955	10835.166469	3224.249263	5541.149773
79.036500	0.288742	0.148732	0.312731	0.389983	4080.309508	10895.576143	3225.699024	5593.073810
79.536500	0.287563	0.151808	0.297999	0.393750	4068.352514	10883.150132	3214.940486	5570.736478
80.037000	0.285654	0.154168	0.304885	0.401576	4045.210831	10785.544603	3214.406067	5524.949340
80.537000	0.276676	0.150838	0.287940	0.401991	4023.370368	10719.368530	3204.739210	5522.544456
81.037500	0.280042	0.149851	0.318631	0.396266	4044.501523	10803.180954	3225.472043	5555.927423
81.537500	0.288086	0.153775	0.301292	0.401868	4050.253803	10773.398819	3212.208816	5523.256734
82.035500	0.286557	0.152370	0.297546	0.407476	4033.533044	10650.136898	3206.998673	5490.970745
82.535500	0.286805	0.152947	0.310077	0.404576	4040.873856	10710.986377	3215.654169	5507.614115
83.035500	0.293304	0.151853	0.297808	0.404016	4057.532014	10701.612354	3209.058351	5510.839029
83.535500	0.288817	0.152761	0.300980	0.405635	4043.106722	10689.134853	3209.922603	5501.521103
84.036500	0.285150	0.152960	0.314713	0.413066	4017.405631	10563.464181	3213.463527	5459.201450
84.536500	0.283411	0.148507	0.305556	0.404434	4033.289757	10635.819504	3213.166160	5508.428638
85.037000	0.290645	0.151116	0.320524	0.409424	4038.517665	10594.502466	3218.871646	5479.853064
85.537500	0.286978	0.151130	0.303188	0.408160	4032.922257	10616.661096	3209.746421	5487.062729
86.040000	0.280811	0.148851	0.315738	0.408105	4018.827211	10578.152037	3216.874178	5487.375177
86.535000	0.290557	0.151241	0.299612	0.410566	4035.651530	10576.932546	3206.435472	5473.360100
87.035500	0.286438	0.151950	0.316610	0.412257	4022.210504	10559.983651	3214.999615	5463.770938
87.535500	0.289276	0.153173	0.315359	0.413823	4025.139191	10554.084719	3213.400869	5454.931173
88.036000	0.290005	0.150029	0.311836	0.411782	4031.542625	10535.131226	3212.563902	5466.462462
88.536000	0.290423	0.148896	0.316429	0.411952	4032.117986	10512.785790	3215.070536	5465.500365
89.036500	0.286301	0.149299	0.311770	0.412183	4022.067170	10515.724177	3212.300703	5464.191977
89.537000	0.290035	0.153643	0.298901	0.415781	4022.378197	10528.520430	3203.199594	5443.917181
90.037500	0.292317	0.150962	0.311622	0.413425	4033.094742	10522.939555	3211.519026	5457.173322
90.534500	0.286278	0.151315	0.307768	0.414539	4016.615640	10509.913229	3208.745801	5450.897754
91.035000	0.290155	0.150246	0.307117	0.413635	4027.600028	10507.083936	3208.886455	5455.990161
91.535500	0.289182	0.150786	0.304941	0.414219	4024.008330	10506.332649	3207.358182	5452.696845
92.035500	0.289090	0.152780	0.305118	0.415537	4020.767234	10517.892858	3206.729398	5445.283415
92.535500	0.287532	0.153031	0.291834	0.417462	4012.809657	10489.276728	3198.503436	5434.498728
93.070500	0.289243	0.152466	0.306442	0.417518	4016.583919	10478.696726	3206.368080	5434.187662
93.536000	0.291797	0.150775	0.301617	0.415880	4026.208686	10477.797233	3204.623431	5443.363429
94.036500	0.288437	0.152587	0.313474	0.424339	3999.311762	10365.404897	3206.483792	5396.360854
94.536500	0.288946	0.151532	0.311996	0.424696	3999.652483	10341.750778	3205.477388	5394.398273
95.034000	0.289737	0.153884	0.323259	0.420382	4011.184662	10454.093785	3214.160685	5418.232748
95.540000	0.290691	0.151652	0.326287	0.419047	4016.398786	10438.881584	3216.649297	5425.657489
96.035000	0.282737	0.147436	0.296009	0.422859	3989.883740	10304.066560	3197.854959	5404.519380
