sample name	sample
index	534
start time	 03-11-2021  04:53:24 PM


Wavelength (nm)	Absorbance
494.344910	0.544386
494.563924	0.544386
494.782919	0.544386
495.001897	NaN
495.220856	NaN
495.439797	NaN
495.658719	NaN
495.877624	NaN
496.096510	NaN
496.315378	NaN
496.534227	2.137565
496.753059	-0.351701
496.971872	0.182878
497.190667	0.159659
497.409444	0.168434
497.628203	0.172024
497.846943	0.174662
498.065665	0.175677
498.284369	0.175348
498.503055	0.175085
498.721723	0.177197
498.940372	0.177635
499.159003	0.178985
499.377616	0.180377
499.596210	0.180080
499.814787	0.180666
500.033345	0.180800
500.251885	0.181683
500.470406	0.182666
500.688910	0.181223
500.907395	0.180289
501.125862	0.179133
501.344311	0.177911
501.562742	0.178878
501.781154	0.178370
501.999548	0.178053
502.217924	0.178048
502.436282	0.177183
502.654621	0.177975
502.872942	0.178601
503.091245	0.180220
503.309530	0.180668
503.527797	0.181136
503.746045	0.182049
503.964275	0.182963
504.182487	0.183457
504.400681	0.184242
504.618856	0.184965
504.837013	0.184504
505.055152	0.184090
505.273273	0.185077
505.491376	0.184932
505.709460	0.185241
505.927526	0.185338
506.145574	0.184965
506.363604	0.184824
506.581615	0.184437
506.799608	0.185608
507.017583	0.185169
507.235540	0.184290
507.453478	0.183531
507.671399	0.182643
507.889301	0.181777
508.107185	0.181597
508.325050	0.182197
508.542898	0.183060
508.760727	0.182447
508.978538	0.182776
509.196330	0.182708
509.414105	0.182971
509.631861	0.183113
509.849599	0.183734
510.067319	0.184024
510.285021	0.183008
510.502704	0.182134
510.720369	0.182327
510.938016	0.182822
511.155645	0.183719
511.373255	0.185476
511.590848	0.186840
511.808422	0.187689
512.025977	0.188398
512.243515	0.189754
512.461034	0.189972
512.678536	0.189793
512.896018	0.189853
513.113483	0.189981
513.330930	0.189489
513.548358	0.189067
513.765768	0.188212
513.983160	0.187819
514.200533	0.186970
514.417889	0.187996
514.635226	0.188697
514.852545	0.188289
515.069845	0.189108
515.287128	0.189447
515.504392	0.190250
515.721638	0.190799
515.938866	0.190712
516.156075	0.191494
516.373267	0.191075
516.590440	0.190602
516.807594	0.191721
517.024731	0.192142
517.241850	0.191432
517.458950	0.190802
517.676032	0.190891
517.893095	0.191096
518.110141	0.191163
518.327168	0.192002
518.544177	0.192497
518.761168	0.192617
518.978141	0.192045
519.195095	0.193011
519.412031	0.193836
519.628949	0.194373
519.845849	0.195205
520.062731	0.195948
520.279594	0.195387
520.496439	0.196361
520.713266	0.196189
520.930074	0.196326
521.146865	0.195619
521.363637	0.194913
521.580391	0.195470
521.797127	0.195128
522.013844	0.195523
522.230543	0.195516
522.447224	0.196173
522.663887	0.196329
522.880532	0.196833
523.097158	0.197417
523.313766	0.198534
523.530356	0.198103
523.746928	0.198893
523.963481	0.198957
524.180017	0.200120
524.396534	0.199385
524.613032	0.199708
524.829513	0.199545
525.045975	0.200275
525.262420	0.199847
525.478845	0.200861
525.695253	0.200903
525.911643	0.201472
526.128014	0.201648
526.344367	0.202412
526.560702	0.202491
526.777018	0.203210
526.993316	0.203533
527.209597	0.203598
527.425858	0.203673
527.642102	0.203967
527.858328	0.204688
528.074535	0.204840
528.290724	0.204089
528.506894	0.205016
528.723047	0.205423
528.939181	0.205594
529.155297	0.206637
529.371395	0.206612
529.587475	0.207383
529.803536	0.207368
530.019579	0.207646
530.235604	0.208915
530.451611	0.209049
530.667600	0.208519
530.883570	0.208691
531.099522	0.208881
531.315456	0.209536
531.531372	0.210218
531.747269	0.209906
531.963148	0.210244
532.179009	0.209861
532.394852	0.210118
532.610676	0.211166
532.826482	0.212086
533.042271	0.211723
533.258040	0.212191
533.473792	0.211759
533.689525	0.212436
533.905240	0.212741
534.120937	0.213131
534.336616	0.213887
534.552277	0.213817
534.767919	0.214132
534.983543	0.215815
535.199149	0.215423
535.414736	0.215964
535.630306	0.216305
535.845857	0.216113
536.061390	0.217244
536.276904	0.217406
536.492401	0.217350
536.707879	0.217531
536.923339	0.217080
537.138781	0.217566
537.354204	0.217231
537.569610	0.217424
537.784997	0.218377
538.000366	0.218032
538.215716	0.218048
538.431049	0.218703
538.646363	0.218493
538.861659	0.218287
539.076937	0.218456
539.292196	0.219111
539.507438	0.218624
539.722661	0.218592
539.937866	0.219222
540.153052	0.219417
540.368221	0.219364
540.583371	0.219986
540.798503	0.220645
541.013617	0.220847
541.228712	0.220845
541.443789	0.222100
541.658848	0.222514
541.873889	0.222417
542.088912	0.222396
542.303916	0.223134
542.518902	0.223500
542.733870	0.223855
542.948820	0.224435
543.163752	0.224935
543.378665	0.224784
543.593560	0.224952
543.808437	0.225533
544.023295	0.225807
544.238136	0.225883
544.452958	0.225724
544.667762	0.226203
544.882548	0.226425
545.097315	0.226666
545.312064	0.227532
545.526795	0.227788
545.741508	0.228446
545.956203	0.228826
546.170879	0.229020
546.385537	0.229436
546.600177	0.229337
546.814799	0.230133
547.029402	0.230265
547.243988	0.229929
547.458555	0.230111
547.673103	0.229136
547.887634	0.229511
548.102146	0.229918
548.316640	0.229792
548.531116	0.229982
548.745574	0.229568
548.960013	0.230114
549.174435	0.230070
549.388838	0.230035
549.603222	0.231061
549.817589	0.231713
550.031937	0.231867
550.246267	0.232393
550.460579	0.232948
550.674873	0.233512
550.889148	0.234172
551.103405	0.235116
551.317644	0.236095
551.531865	0.236172
551.746068	0.236076
551.960252	0.236507
552.174418	0.236575
552.388566	0.236544
552.602696	0.236596
552.816807	0.236322
553.030900	0.236149
553.244975	0.236066
553.459032	0.236794
553.673070	0.236562
553.887091	0.236557
554.101093	0.236803
554.315077	0.237336
554.529042	0.237459
554.742990	0.237955
554.956919	0.238272
555.170830	0.238537
555.384722	0.238454
555.598597	0.238970
555.812453	0.239562
556.026291	0.239835
556.240111	0.239896
556.453913	0.240258
556.667696	0.239947
556.881461	0.239832
557.095208	0.240136
557.308937	0.239929
557.522647	0.240070
557.736339	0.240003
557.950013	0.240354
558.163669	0.240870
558.377307	0.241436
558.590926	0.241981
558.804527	0.242588
559.018110	0.242853
559.231675	0.243175
559.445221	0.243766
559.658749	0.243747
559.872259	0.244079
560.085751	0.243914
560.299225	0.243434
560.512680	0.243457
560.726117	0.243050
560.939536	0.243279
561.152937	0.243968
561.366319	0.243939
561.579683	0.244011
561.793029	0.244105
562.006357	0.244141
562.219667	0.244769
562.432958	0.245019
562.646231	0.245812
562.859486	0.245761
563.072723	0.245811
563.285941	0.245881
563.499141	0.246597
563.712323	0.246814
563.925487	0.246815
564.138632	0.246604
564.351760	0.246733
564.564869	0.247050
564.777960	0.247042
564.991032	0.247144
565.204087	0.247315
565.417123	0.247084
565.630141	0.246887
565.843140	0.247089
566.056122	0.247506
566.269085	0.247171
566.482030	0.247161
566.694957	0.247340
566.907866	0.247406
567.120756	0.247799
567.333628	0.248432
567.546482	0.249023
567.759318	0.249743
567.972135	0.249534
568.184935	0.250163
568.397716	0.250391
568.610478	0.250628
568.823223	0.251367
569.035949	0.251430
569.248657	0.251769
569.461347	0.252085
569.674019	0.252136
569.886672	0.252827
570.099308	0.253165
570.311925	0.253174
570.524523	0.253632
570.737104	0.253456
570.949666	0.253757
571.162210	0.253615
571.374736	0.253337
571.587244	0.253720
571.799733	0.253709
572.012205	0.253700
572.224658	0.253927
572.437092	0.254410
572.649509	0.254248
572.861907	0.254387
573.074287	0.254496
573.286649	0.255002
573.498993	0.254962
573.711318	0.255390
573.923625	0.255710
574.135914	0.256239
574.348185	0.255708
574.560438	0.255899
574.772672	0.256264
574.984888	0.256584
575.197086	0.257008
575.409266	0.257103
575.621427	0.257287
575.833570	0.257519
576.045695	0.257374
576.257802	0.257401
576.469890	0.258060
576.681961	0.257919
576.894013	0.258039
577.106046	0.258018
577.318062	0.258020
577.530059	0.258117
577.742039	0.258205
577.954000	0.258311
578.165942	0.258796
578.377867	0.258662
578.589773	0.258915
578.801661	0.259227
579.013531	0.258990
579.225382	0.259711
579.437216	0.259884
579.649031	0.260521
579.860828	0.260565
580.072606	0.260889
580.284367	0.260690
580.496109	0.260980
580.707833	0.261260
580.919539	0.261595
581.131227	0.261596
581.342896	0.261466
581.554547	0.261172
581.766180	0.261583
581.977795	0.261770
582.189391	0.262515
582.400969	0.262267
582.612529	0.262319
582.824071	0.262734
583.035595	0.262665
583.247100	0.263140
583.458587	0.263199
583.670056	0.263558
583.881506	0.263676
584.092939	0.263545
584.304353	0.264711
584.515749	0.264945
584.727127	0.264738
584.938486	0.265086
585.149828	0.265485
585.361151	0.265625
585.572456	0.265895
585.783742	0.266205
585.995011	0.266382
586.206261	0.266124
586.417493	0.266442
586.628706	0.267117
586.839902	0.267005
587.051079	0.267033
587.262238	0.267726
587.473379	0.268018
587.684502	0.268352
587.895606	0.268909
588.106692	0.268952
588.317760	0.268865
588.528810	0.269040
588.739841	0.269562
588.950855	0.269663
589.161850	0.269739
589.372827	0.269383
589.583785	0.269294
589.794726	0.269429
590.005648	0.269236
590.216552	0.269437
590.427437	0.269142
590.638305	0.269503
590.849154	0.269601
591.059985	0.269621
591.270798	0.269741
591.481592	0.270022
591.692369	0.270162
591.903127	0.270400
592.113867	0.270489
592.324588	0.270962
592.535292	0.270494
592.745977	0.270605
592.956644	0.270889
593.167293	0.271166
593.377923	0.271500
593.588536	0.271720
593.799130	0.272183
594.009706	0.272490
594.220263	0.272646
594.430803	0.273361
594.641324	0.273839
594.851827	0.274094
595.062312	0.274132
595.272778	0.274181
595.483227	0.274076
595.693657	0.274117
595.904069	0.274284
596.114462	0.274341
596.324838	0.274294
596.535195	0.274586
596.745534	0.274463
596.955855	0.274886
597.166157	0.274818
597.376441	0.275281
597.586707	0.275549
597.796955	0.275664
598.007185	0.276088
598.217396	0.276554
598.427589	0.276652
598.637764	0.276876
598.847921	0.276865
599.058060	0.277122
599.268180	0.277176
599.478282	0.277366
599.688366	0.277407
599.898431	0.277770
600.108479	0.277882
600.318508	0.277528
600.528519	0.277928
600.738511	0.278423
600.948486	0.278655
601.158442	0.278671
601.368380	0.278832
601.578300	0.279104
601.788202	0.279200
601.998085	0.279584
602.207950	0.279820
602.417797	0.279903
602.627626	0.279911
602.837436	0.279907
603.047228	0.280093
603.257002	0.280138
603.466758	0.279914
603.676496	0.279809
603.886215	0.279453
604.095916	0.279697
604.305599	0.280102
604.515264	0.280079
604.724910	0.280599
604.934538	0.280784
605.144148	0.281193
605.353740	0.281798
605.563314	0.281931
605.772869	0.282290
605.982406	0.282591
606.191925	0.282537
606.401425	0.283123
606.610908	0.283391
606.820372	0.283768
607.029818	0.284146
607.239246	0.284427
607.448655	0.284618
607.658047	0.284713
607.867420	0.284890
608.076775	0.285013
608.286111	0.284665
608.495430	0.284419
608.704730	0.284455
608.914012	0.284738
609.123275	0.284788
609.332521	0.285030
609.541748	0.285351
609.750957	0.285659
609.960148	0.286101
610.169321	0.286601
610.378475	0.286907
610.587611	0.287108
610.796729	0.286892
611.005829	0.286999
611.214910	0.287475
611.423974	0.287605
611.633019	0.287745
611.842045	0.287748
612.051054	0.287726
612.260044	0.287571
612.469017	0.287831
612.677970	0.288103
612.886906	0.288510
613.095824	0.288336
613.304723	0.288278
613.513604	0.288338
613.722467	0.288305
613.931311	0.288510
614.140138	0.288980
614.348946	0.289057
614.557736	0.289246
614.766507	0.289124
614.975261	0.289391
615.183996	0.289883
615.392713	0.290137
615.601412	0.290524
615.810092	0.290985
616.018754	0.291098
616.227399	0.291263
616.436024	0.291501
616.644632	0.291811
616.853222	0.291992
617.061793	0.291945
617.270346	0.292262
617.478880	0.292509
617.687397	0.292516
617.895895	0.292819
618.104375	0.293179
618.312837	0.293248
618.521281	0.293420
618.729706	0.293459
618.938113	0.293605
619.146502	0.293660
619.354873	0.293607
619.563226	0.293687
619.771560	0.293625
619.979876	0.293689
620.188174	0.293814
620.396453	0.293800
620.604715	0.293800
620.812958	0.294159
621.021183	0.294270
621.229390	0.294594
621.437578	0.294874
621.645748	0.294904
621.853900	0.294811
622.062034	0.294869
622.270150	0.295119
622.478247	0.295447
622.686326	0.295433
622.894387	0.295680
623.102430	0.295941
623.310454	0.295755
623.518461	0.296020
623.726449	0.296321
623.934418	0.296367
624.142370	0.296291
624.350303	0.296438
624.558218	0.296287
624.766115	0.296335
624.973994	0.296379
625.181855	0.296793
625.389697	0.296974
625.597521	0.297218
625.805327	0.297486
626.013114	0.298005
626.220883	0.298377
626.428634	0.298878
626.636367	0.299073
626.844082	0.299137
627.051778	0.299466
627.259457	0.299874
627.467117	0.299785
627.674758	0.300114
627.882382	0.300300
628.089987	0.300216
628.297574	0.300118
628.505143	0.300240
628.712694	0.300453
628.920226	0.300460
629.127740	0.300474
629.335236	0.300662
629.542714	0.300721
629.750174	0.300909
629.957615	0.301257
630.165038	0.301859
630.372443	0.302191
630.579829	0.302291
630.787198	0.302412
630.994548	0.302389
631.201880	0.302683
631.409194	0.302773
631.616489	0.302870
631.823766	0.302772
632.031025	0.302899
632.238266	0.302909
632.445489	0.302945
632.652693	0.303184
632.859879	0.303408
633.067047	0.303852
633.274197	0.304035
633.481329	0.304368
633.688442	0.304769
633.895537	0.304918
634.102614	0.305257
634.309672	0.305542
634.516713	0.305739
634.723735	0.306266
634.930739	0.306339
635.137724	0.306453
635.344692	0.306554
635.551641	0.306667
635.758572	0.306965
635.965485	0.306950
636.172379	0.307281
636.379256	0.307475
636.586114	0.307540
636.792954	0.307505
636.999775	0.307854
637.206579	0.307776
637.413364	0.307837
637.620131	0.307641
637.826880	0.307865
638.033610	0.307938
638.240323	0.308060
638.447017	0.308096
638.653692	0.308191
638.860350	0.308056
639.066990	0.308016
639.273611	0.308280
639.480214	0.308674
639.686798	0.308658
639.893365	0.308644
640.099913	0.308667
640.306443	0.308954
640.512955	0.309231
640.719449	0.309508
640.925924	0.310118
641.132381	0.310449
641.338820	0.310402
641.545241	0.310674
641.751644	0.310981
641.958028	0.311376
642.164394	0.311588
642.370742	0.311569
642.577071	0.311876
642.783383	0.311957
642.989676	0.311589
643.195951	0.311607
643.402207	0.311502
643.608446	0.311554
643.814666	0.311791
644.020868	0.312089
644.227052	0.312405
644.433218	0.313038
644.639365	0.313144
644.845494	0.313661
645.051605	0.314169
645.257698	0.314593
645.463772	0.315029
645.669828	0.315105
645.875866	0.315151
646.081886	0.315211
646.287888	0.314758
646.493871	0.314930
646.699836	0.315053
646.905783	0.314999
647.111712	0.315106
647.317622	0.315197
647.523514	0.315240
647.729388	0.315296
647.935244	0.315655
648.141082	0.315886
648.346901	0.316131
648.552702	0.316544
648.758485	0.317051
648.964250	0.317366
649.169996	0.317442
649.375724	0.317708
649.581434	0.317926
649.787126	0.318405
649.992800	0.318899
650.198455	0.319037
650.404092	0.319087
650.609711	0.319292
650.815311	0.319498
651.020894	0.319832
651.226458	0.320119
651.432004	0.320351
651.637532	0.320199
651.843041	0.320345
652.048532	0.320587
652.254006	0.320881
652.459460	0.321151
652.664897	0.321339
652.870315	0.321515
653.075716	0.321688
653.281097	0.321506
653.486461	0.321566
653.691807	0.321630
653.897134	0.321971
654.102443	0.321930
654.307734	0.321892
654.513006	0.322082
654.718261	0.322314
654.923497	0.322454
655.128715	0.322952
655.333915	0.323357
655.539096	0.323521
655.744259	0.323518
655.949404	0.323926
656.154531	0.324269
656.359640	0.324529
656.564730	0.324819
656.769802	0.325199
656.974856	0.325195
657.179892	0.325521
657.384909	0.325814
657.589908	0.326192
657.794889	0.326470
657.999852	0.326728
658.204797	0.326843
658.409723	0.326867
658.614631	0.327068
658.819521	0.327644
659.024393	0.327809
659.229246	0.327843
659.434081	0.327636
659.638898	0.327858
659.843697	0.327974
660.048478	0.328277
660.253240	0.328652
660.457984	0.328956
660.662710	0.329285
660.867417	0.329402
661.072107	0.329797
661.276778	0.330331
661.481431	0.330193
661.686066	0.330419
661.890682	0.330748
662.095281	0.330944
662.299861	0.330923
662.504422	0.330818
662.708966	0.331251
662.913491	0.331342
663.117999	0.331426
663.322488	0.331848
663.526958	0.332035
663.731411	0.332098
663.935845	0.332220
664.140261	0.332456
664.344659	0.332988
664.549038	0.333014
664.753400	0.333375
664.957743	0.333723
665.162068	0.333989
665.366375	0.334233
665.570663	0.334474
665.774933	0.334610
665.979185	0.334567
666.183419	0.334700
666.387635	0.334878
666.591832	0.334903
666.796011	0.335297
667.000172	0.335512
667.204315	0.335639
667.408439	0.336153
667.612545	0.336378
667.816634	0.336877
668.020703	0.336878
668.224755	0.337245
668.428788	0.337236
668.632803	0.337525
668.836800	0.337534
669.040779	0.338137
669.244739	0.337938
669.448681	0.338011
669.652605	0.338431
669.856511	0.338643
670.060399	0.338913
670.264268	0.339550
670.468119	0.339456
670.671952	0.340150
670.875767	0.339937
671.079563	0.340232
671.283341	0.340643
671.487101	0.340818
671.690843	0.341088
671.894567	0.341160
672.098272	0.341379
672.301959	0.341547
672.505628	0.341318
672.709278	0.341687
672.912911	0.342275
673.116525	0.342365
673.320121	0.342455
673.523699	0.342642
673.727258	0.342942
673.930799	0.343235
674.134322	0.343513
674.337827	0.344108
674.541314	0.344579
674.744782	0.344398
674.948232	0.344565
675.151664	0.344596
675.355078	0.345162
675.558474	0.345439
675.761851	0.345489
675.965210	0.345555
676.168551	0.345808
676.371873	0.345695
676.575178	0.346121
676.778464	0.346294
676.981732	0.346580
677.184981	0.346360
677.388213	0.346437
677.591426	0.346607
677.794621	0.347153
677.997798	0.347194
678.200956	0.347381
678.404097	0.347642
678.607219	0.348244
678.810323	0.348485
679.013408	0.348897
679.216476	0.349253
679.419525	0.349869
679.622556	0.350050
679.825569	0.350236
680.028563	0.350413
680.231540	0.350466
680.434498	0.350564
680.637438	0.350966
680.840359	0.351254
681.043263	0.351441
681.246148	0.351222
681.449015	0.351331
681.651864	0.351620
681.854694	0.351857
682.057506	0.352014
682.260301	0.352145
682.463076	0.352072
682.665834	0.352351
682.868573	0.352619
683.071295	0.352998
683.273998	0.353278
683.476682	0.353351
683.679349	0.353913
683.881997	0.354328
684.084627	0.354507
684.287239	0.354898
684.489833	0.354970
684.692408	0.354871
684.894965	0.354937
685.097504	0.355234
685.300025	0.355651
685.502527	0.355773
685.705012	0.355987
685.907478	0.356300
686.109925	0.356706
686.312355	0.357128
686.514766	0.357623
686.717159	0.358208
686.919534	0.358291
687.121891	0.358182
687.324230	0.358431
687.526550	0.358557
687.728852	0.359039
687.931136	0.359186
688.133401	0.359396
688.335649	0.359473
688.537878	0.359263
688.740089	0.359490
688.942281	0.359954
689.144456	0.360023
689.346612	0.360216
689.548750	0.360029
689.750870	0.360212
689.952971	0.360034
690.155055	0.360346
690.357120	0.360728
690.559167	0.360926
690.761195	0.361233
690.963206	0.361606
691.165198	0.361593
691.367172	0.361835
691.569128	0.361893
691.771065	0.362290
691.972984	0.362341
692.174885	0.362749
692.376768	0.362844
692.578633	0.362927
692.780479	0.362784
692.982308	0.363179
693.184118	0.363450
693.385909	0.363558
693.587683	0.364045
693.789438	0.364328
