sample name	sample
index	1242
start time	 04-29-2021  11:41:41 AM
880	0.447295
Peak Time (s)	92.537
Peak Height 	0.4473
calc peak height	90,93
Baseline Time (s)	11.534
Baseline Value 	-0.005356
subtract baseline	10,4
Abs	0.306134
Peak Time (s)	91.037
Peak Height 	0.3061
calc peak height	90,93
Baseline Time (s)	10.537
Baseline Value 	0.002362
subtract baseline	10,3
PK_550	0.159846
Peak Time (s)	90.05
Peak Height 	0.1598
calc peak height	90,93
Baseline Time (s)	9.536
Baseline Value 	3.6137E-4
subtract baseline	10,2
PK_880	0.286476
Peak Time (s)	91.037
Peak Height 	0.2865
calc peak height	90,93
Baseline Time (s)	9.041
Baseline Value 	0.002211
subtract baseline	10,1


Time (s)	A880-A510	A880-A775	A880-A975	A880	I510	I775	I975	I880	
0.035500	-0.001424	0.000461	-0.001942	0.003076	6195.443045	44076.685511	3892.575471	22750.835276
0.536000	-0.001987	-0.000276	-0.005474	0.004760	6178.323214	43847.724760	3880.202781	22673.901363
1.036500	-0.002721	-0.000501	-0.003331	0.006265	6161.354672	43684.992085	3881.707695	22605.419658
1.538000	0.001742	0.000502	-0.001939	0.002320	6225.537783	44152.366713	3894.388046	22785.480790
2.037000	0.000072	0.000415	-0.000668	0.001105	6222.034279	44259.731760	3900.347935	22841.305800
2.534500	-0.002122	0.000242	-0.002321	0.001512	6202.066594	44204.454312	3895.405862	22822.578899
3.035000	-0.002995	0.000277	-0.006597	0.004867	6169.863154	43889.843294	3877.305979	22669.035039
3.535500	0.000919	0.000519	-0.003781	0.001053	6228.965741	44274.556690	3893.013803	22843.682623
4.035500	0.001418	-0.000456	0.000931	0.000079	6240.350585	44274.375194	3906.678678	22888.511422
4.536000	0.002076	0.000718	-0.000244	0.001006	6238.269452	44298.060698	3901.608293	22845.856339
5.039000	-0.002563	-0.000196	0.000104	0.004334	6177.187512	43895.521215	3894.457091	22693.348309
5.536500	-0.000391	0.000512	-0.002131	0.000846	6220.465363	44293.623892	3897.457365	22853.200672
6.037000	0.000800	0.000599	0.002458	0.000881	6229.370298	44298.529213	3908.432503	22851.578789
6.537000	-0.000593	0.000286	-0.003878	0.000082	6224.793445	44344.927886	3895.104208	22888.404785
7.037000	0.000539	-0.000541	0.002043	-0.000542	6238.352458	44325.539258	3910.877994	22917.161478
7.535000	-0.000039	0.001094	-0.000656	0.000444	6226.275254	44387.562067	3901.967045	22871.718851
8.035500	0.001256	0.000919	-0.005251	0.000780	6233.680593	44338.770244	3890.161085	22856.253738
8.537500	-0.001339	-0.000015	0.002430	-0.000361	6222.455635	44358.413756	3911.376574	22908.793948
9.041000	0.000000	0.000730	-0.003559	0.000144	6228.883477	44381.317833	3895.717741	22885.506762
9.536000	0.000587	0.000000	0.001486	0.000010	6234.448845	44324.459569	3908.187344	22891.683636
10.039000	-0.002802	-0.001317	-0.001304	0.001941	6193.587116	44015.780826	3896.815205	22802.867003
10.536500	0.003064	0.000128	0.000000	-0.000137	6254.797864	44350.726256	3904.949882	22898.474728
11.039500	0.000065	-0.000713	0.001585	-0.000813	6236.781763	44334.999452	3910.424566	22929.702813
11.534000	-0.001691	0.000402	-0.001209	0.000000	6216.971247	44363.800227	3901.703778	22892.164264
12.037000	-0.002517	0.000308	-0.002791	0.002544	6191.163631	44112.708914	3891.818513	22775.223266
12.535000	0.001069	0.000881	-0.001970	0.000114	6237.375060	44398.696589	3899.601874	22886.912758
13.037500	0.000313	-0.000651	-0.002353	-0.000837	6238.890763	44343.187072	3900.966202	22930.803793
13.535500	0.000366	-0.000256	-0.002551	-0.000568	6237.213791	44355.266645	3899.844553	22918.372523
14.038000	-0.000741	0.000220	0.000011	0.003477	6197.596562	44015.822904	3896.284694	22732.496321
14.535000	-0.001710	0.000370	-0.006144	0.001908	6202.189128	44179.058500	3885.361094	22804.416366
15.039000	-0.004787	-0.000529	-0.002738	0.004592	6158.387201	43839.774044	3887.074415	22681.587990
15.536500	-0.001912	0.000155	0.001169	-0.000254	6217.226145	44364.531811	3908.059842	22903.879284
16.036500	-0.002473	0.000555	-0.002944	0.003176	6186.676949	44076.131851	3889.947789	22746.261969
16.537000	0.000476	0.000415	0.000802	0.000443	6230.259897	44322.781011	3905.487382	22871.771855
17.037500	-0.002380	0.000081	-0.000508	0.003279	6186.602589	44021.487330	3895.517132	22741.546137
17.538000	-0.000969	0.000675	0.001680	0.001295	6212.565693	44266.306795	3905.547940	22832.533391
18.035000	-0.000740	0.000112	-0.002759	0.002069	6208.384799	44139.189195	3893.028451	22796.997430
18.535500	0.000137	0.000029	-0.001700	0.001040	6223.034899	44229.085654	3898.025436	22844.268987
19.036000	0.000056	0.000037	0.003265	0.001169	6221.416031	44217.556885	3909.690898	22838.331163
19.536000	-0.002560	-0.000046	0.000602	0.001396	6199.604374	44188.081545	3902.703795	22827.909577
20.037000	-0.003193	-0.000312	0.000351	0.001835	6191.414083	44121.090609	3901.041633	22807.737025
20.537000	0.001002	0.000921	0.000276	0.001814	6223.732250	44240.303563	3900.912254	22808.695273
21.037000	0.000302	0.000190	-0.000448	0.001303	6222.279148	44219.404597	3900.401281	22832.187704
21.534500	-0.001667	0.000471	0.002356	0.001646	6204.526740	44213.583211	3906.336382	22816.446660
22.038000	-0.001472	0.000570	-0.003983	0.002695	6197.987630	44123.147448	3888.621623	22768.289655
22.535000	-0.000215	0.000157	0.000064	0.000867	6221.662530	44257.790865	3902.682381	22852.246700
23.035500	-0.001399	-0.000504	0.000768	0.000491	6215.438992	44230.582845	3905.288511	22869.523207
23.535500	-0.002145	0.000095	0.000208	0.000677	6208.292356	44270.033440	3903.488485	22860.993637
24.035500	-0.000384	0.000384	0.003325	0.001428	6216.042318	44225.989318	3909.209446	22826.451056
24.536500	0.000090	0.000697	-0.001462	0.001461	6219.426995	44252.633369	3897.585091	22824.909125
25.036500	0.000372	0.000384	-0.002700	0.001403	6222.048311	44228.376939	3894.760105	22827.584794
25.537000	-0.002371	0.000217	-0.001103	0.001309	6201.714856	44221.395609	3898.810952	22831.888492
26.037000	-0.001215	0.000063	-0.001890	0.001361	6210.167505	44201.809280	3896.800401	22829.497654
26.537500	-0.003915	0.000172	-0.000206	0.000957	6192.609273	44250.631719	3901.816339	22848.109983
27.040500	0.001077	0.000766	0.000369	-0.001365	6248.899680	44529.301385	3908.813271	22955.202040
27.535500	0.000832	0.000616	0.001810	-0.000987	6244.073314	44478.720974	3911.395285	22937.733707
28.041500	0.000504	0.000256	-0.000134	-0.000852	6240.475836	44431.253012	3906.353062	22931.467404
28.535500	0.001207	0.000882	0.002822	0.000480	6235.617552	44363.855378	3910.288577	22870.065380
29.036000	-0.003054	0.000429	-0.001401	0.003771	6177.729918	44007.801563	3892.207028	22719.050163
29.536500	-0.000424	-0.000275	0.005894	-0.000324	6229.228841	44330.111252	3919.737182	22907.107299
30.036000	0.001321	0.000536	0.003196	0.000232	6238.417282	44354.528779	3911.799636	22881.483204
30.537000	-0.001112	0.000847	-0.004168	0.002326	6203.565153	44184.593507	3889.057992	22785.202214
31.037000	-0.000662	0.000542	-0.001666	0.002561	6205.215247	44133.293761	3894.464906	22774.449956
31.537500	-0.000807	0.000276	-0.001431	-0.000197	6225.299486	44370.646223	3901.646680	22901.267023
32.038000	-0.001777	0.000053	0.000029	0.002935	6193.827192	44051.368343	3897.627540	22757.300539
32.535500	-0.001196	0.000169	-0.003212	-0.000611	6225.486744	44399.920182	3898.359108	22920.364464
33.039000	-0.000989	0.000363	-0.004387	0.002556	6202.743144	44116.759145	3887.991410	22774.661870
33.535500	0.001283	0.000713	-0.005022	0.000791	6233.796208	44318.027614	3890.679202	22855.730247
34.036000	-0.001895	-0.000495	-0.001907	0.002038	6199.782442	44084.501260	3895.140494	22798.449603
34.536500	-0.001601	0.000279	0.004642	0.001613	6205.284666	44198.400820	3911.956523	22817.928375
35.034000	-0.001545	-0.000663	-0.003349	0.000903	6211.156317	44176.357712	3894.404193	22850.570789
35.537000	-0.000851	-0.000188	0.005032	0.001570	6211.365364	44158.131500	3913.011159	22819.934598
36.042500	0.001398	0.000580	0.003707	0.003076	6217.077277	44088.011087	3906.143364	22750.866377
36.535000	0.000298	0.001027	0.000081	0.002036	6216.608539	44229.291722	3899.909466	22798.518907
37.035000	-0.000727	-0.000591	-0.004885	0.001156	6215.497590	44159.118721	3890.138397	22838.947062
37.535500	0.000169	0.001027	0.000208	0.001839	6217.129206	44247.984471	3900.689336	22807.540570
38.036000	-0.000259	-0.000033	0.005216	0.001421	6217.055044	44186.991180	3913.820792	22826.758211
38.536500	-0.001580	0.000798	-0.001267	0.001921	6203.084705	44218.508088	3896.951573	22803.812259
39.036500	-0.001363	-0.000260	0.001609	0.001117	6210.916439	44194.281760	3905.808195	22840.744861
39.536500	-0.000301	0.001319	-0.001857	0.002257	6210.316175	44236.140813	3894.735523	22788.403032
40.037000	-0.001631	-0.000462	0.000738	0.000968	6209.999220	44189.279008	3904.065129	22847.588684
40.539500	-0.000992	-0.000431	0.001941	0.001023	6214.484223	44186.941302	3906.838938	22845.056977
41.038000	-0.001741	0.000382	0.002563	0.001953	6201.605861	44175.825603	3906.093995	22802.329131
41.535000	0.000946	0.000909	-0.002453	0.002183	6220.467043	44204.035291	3893.486234	22791.771464
42.035500	-0.000729	0.001229	-0.000191	0.002210	6207.386106	44231.940875	3898.838082	22790.516349
42.536000	-0.001885	-0.001399	0.000348	0.000512	6211.542938	44143.562078	3904.222153	22868.564027
43.036000	-0.001239	0.000762	-0.002793	0.001845	6206.278418	44222.260056	3893.483377	22807.297395
43.536500	0.001066	0.000392	-0.000512	-0.002735	6259.458958	44624.789834	3909.999249	23018.640609
44.036500	-0.001897	0.000032	-0.003405	0.003413	6189.265210	44004.196502	3888.288037	22735.435168
44.537000	0.000880	0.000720	0.001765	0.000568	6232.406151	44339.947565	3907.514303	22866.007146
45.034500	0.000353	0.000430	0.000779	0.000150	6231.561118	44352.217239	3906.139612	22885.248067
45.537000	-0.002075	0.000755	0.004228	0.000029	6213.804906	44394.795774	3914.805471	22890.848026
46.037500	-0.001360	0.001550	0.003759	0.004310	6186.519879	44062.993683	3903.289304	22694.449923
46.535000	0.000620	0.001059	0.004249	0.000432	6231.452963	44385.313900	3913.875032	22872.271104
47.035500	-0.003275	0.001032	-0.003783	0.003206	6180.344317	44118.555148	3887.881345	22744.891617
47.536000	-0.000093	-0.000118	0.002672	0.001808	6215.355146	44142.097187	3906.704981	22808.964316
48.035500	-0.001095	0.000125	-0.004040	0.002981	6198.685080	44053.842336	3887.805604	22755.197571
48.536000	-0.001131	0.001297	0.002828	0.000801	6215.124062	44372.858684	3909.524630	22855.284301
49.037000	-0.000924	0.001120	0.001932	0.002005	6207.465061	44241.057139	3904.442058	22799.927012
49.536500	0.002146	0.000472	0.001859	-0.002602	6266.849870	44619.809659	3915.445823	23012.501634
50.037000	0.000189	-0.000411	0.002389	0.009473	6159.103129	43393.213347	3887.656843	22460.187588
50.537500	0.033286	-0.012588	0.080972	0.468355	4108.926686	16582.743312	3285.890584	9680.322701
51.035000	0.003308	-0.023602	-0.022089	0.031971	6015.912000	39348.884292	3781.910453	21471.168279
51.535500	0.003567	-0.072941	-0.021162	-0.236359	8702.128783	63254.349393	4577.002062	37373.877821
52.035500	0.008809	-0.095640	-0.011616	-0.272079	9278.181480	65091.530219	4766.036985	40331.666878
52.535500	0.016983	-0.083526	0.002855	-0.257709	9187.509609	64769.191746	4766.483424	39112.396037
53.036500	0.012119	-0.050987	0.002390	-0.208849	8453.348778	62487.079984	4561.391462	35256.032418
53.535500	0.013864	-0.029686	0.009663	-0.166760	7958.758266	59701.676575	4430.026059	32264.700417
54.037500	0.010810	-0.018914	0.003426	-0.136532	7583.944365	57212.998864	4303.279662	30288.388522
54.540000	0.019807	-0.019621	0.010708	-0.151923	7855.761061	59080.912185	4380.834890	31277.466633
55.037000	0.030549	-0.011248	0.023794	-0.124763	7671.093661	56702.145731	4332.217954	29555.319803
55.535000	0.042473	-0.002074	0.038723	-0.065712	7178.203590	50864.055963	4189.626763	26162.835110
56.035500	0.059180	0.010972	0.052331	-0.009909	6808.002018	46366.202240	4066.170727	23354.236640
56.535500	0.067634	0.021093	0.073005	0.054103	6336.073581	41292.921440	3951.256420	20546.994773
57.036000	0.084343	0.033141	0.089433	0.089514	6190.319537	39281.799991	3904.423881	19162.890422
57.536000	0.103164	0.041977	0.099937	0.118149	6116.315904	37660.148613	3861.564056	18123.307506
58.036000	0.118984	0.052178	0.121777	0.163399	5904.142176	34964.510156	3808.806330	16614.064167
58.537000	0.135997	0.064831	0.134543	0.186108	5864.705635	34230.424823	3787.244104	15913.865151
59.039500	0.155062	0.075180	0.155937	0.227100	5717.654569	32095.521577	3746.164390	14739.022431
59.537000	0.167779	0.083292	0.172059	0.263178	5568.943627	30274.353037	3706.197167	13792.908329
60.037500	0.183754	0.092322	0.190517	0.291549	5493.220777	29081.593687	3687.013643	13102.158690
60.535000	0.194960	0.100146	0.201865	0.310726	5445.660053	28405.911580	3672.171724	12660.197170
61.035000	0.206066	0.108180	0.211463	0.341376	5332.670828	27111.327793	3633.562977	11993.100530
61.535500	0.210222	0.113481	0.218398	0.357162	5267.806276	26533.622739	3617.879357	11667.443892
62.035000	0.212914	0.115768	0.218663	0.355081	5294.221072	26772.588006	3622.004430	11709.700527
62.536500	0.217094	0.118400	0.228313	0.358479	5298.573117	26730.528506	3633.109325	11640.813875
63.046000	0.224871	0.122727	0.235517	0.359766	5335.019459	26897.951956	3643.766284	11614.860430
63.539500	0.228993	0.124035	0.236757	0.360835	5352.348139	26911.141980	3644.076201	11593.350193
64.037500	0.232892	0.127612	0.247137	0.368179	5332.803342	26703.735479	3649.602802	11447.090449
64.537000	0.236406	0.128853	0.242256	0.369385	5345.881660	26705.669782	3638.561322	11423.311865
65.037000	0.236735	0.132858	0.252496	0.374264	5320.161201	26657.775493	3648.277841	11327.760208
65.535000	0.240604	0.134009	0.250216	0.377512	5323.659171	26543.321887	3638.261097	11264.743099
66.035500	0.240459	0.133772	0.260041	0.384047	5286.321698	26177.365877	3644.205424	11139.363702
66.536000	0.243123	0.135169	0.255220	0.383540	5303.974300	26279.738317	3636.418845	11149.036579
67.035500	0.247753	0.137836	0.257110	0.388565	5301.771672	26153.062590	3630.806140	11053.796920
67.536500	0.248168	0.139891	0.263984	0.391603	5287.169992	26100.459709	3637.677309	10996.735682
68.036500	0.252115	0.139882	0.261170	0.394481	5293.110370	25946.684343	3627.502181	10943.062697
68.537000	0.252300	0.141555	0.265232	0.396698	5281.838523	25917.839861	3630.786000	10901.961192
69.037000	0.255042	0.144019	0.268874	0.400597	5275.442500	25841.926150	3630.329198	10830.186798
69.535000	0.258933	0.143909	0.272837	0.403222	5282.443579	25697.821404	3632.718108	10782.217550
70.034000	0.256078	0.144748	0.269400	0.410204	5228.590590	25377.506078	3614.308980	10656.028235
70.535000	0.260558	0.147572	0.268301	0.410551	5251.068520	25506.106404	3611.789555	10649.814930
71.035500	0.263660	0.148616	0.273620	0.415206	5242.599072	25318.905828	3612.946372	10566.876532
71.535000	0.264076	0.149636	0.277678	0.416921	5235.533317	25283.009483	3617.037948	10536.533481
72.036500	0.261133	0.148333	0.282832	0.423254	5185.716010	24892.791622	3614.977132	10425.566768
72.536500	0.266287	0.150911	0.281364	0.422449	5217.599877	25064.840239	3613.819265	10439.579798
73.037000	0.266971	0.150983	0.284876	0.424721	5209.057452	24952.786743	3615.984585	10400.080624
73.537000	0.269506	0.152374	0.283433	0.427085	5209.976450	24903.458581	3609.354581	10359.207699
74.034500	0.270462	0.152312	0.284264	0.428502	5207.505187	24828.624083	3608.339916	10334.818746
74.537500	0.271753	0.154093	0.279925	0.431279	5199.546968	24778.388041	3596.116831	10287.238926
75.035000	0.271664	0.154626	0.294580	0.434030	5184.415827	24666.874270	3616.677525	10240.408892
75.535500	0.272374	0.154298	0.290359	0.433693	5189.976946	24667.334088	3609.905680	10246.120603
76.036000	0.273197	0.154991	0.286162	0.440725	5157.162421	24351.776334	3590.668432	10127.652682
76.536000	0.271754	0.154228	0.285255	0.435945	5174.745407	24551.233327	3597.247569	10207.980805
77.036500	0.277583	0.156892	0.290785	0.438772	5190.671530	24543.064805	3601.873632	10160.358085
77.538500	0.278669	0.156145	0.295562	0.438402	5198.435772	24524.275468	3610.764372	10166.577706
78.037000	0.278631	0.157981	0.292234	0.440581	5186.622013	24507.251316	3601.257018	10130.064998
78.537000	0.281479	0.157946	0.292441	0.441202	5198.489676	24474.565180	3600.546124	10119.685166
79.037000	0.280411	0.157051	0.288883	0.440915	5194.322518	24444.363620	3594.961512	10124.475687
79.535000	0.274240	0.156623	0.289860	0.439975	5166.585453	24469.802701	3598.228340	10140.192032
80.037000	0.277043	0.158112	0.287048	0.447258	5143.105519	24183.880011	3581.181441	10019.304846
80.535500	0.280195	0.158051	0.297357	0.441902	5187.915329	24445.080758	3607.808131	10108.017522
81.036000	0.279166	0.159056	0.301307	0.443332	5174.876043	24423.997403	3612.181220	10084.222693
81.539000	0.283218	0.160495	0.301123	0.445011	5187.459091	24412.068491	3608.944584	10056.382318
82.039000	0.281186	0.161156	0.297306	0.450371	5148.480516	24180.475744	3593.207239	9968.242410
82.536500	0.284550	0.160887	0.299056	0.446359	5187.374405	24364.735607	3603.048782	10034.113541
83.037000	0.286680	0.160083	0.303881	0.446018	5200.549762	24341.898584	3611.986394	10039.745325
83.537000	0.282664	0.161799	0.307023	0.447437	5171.663407	24356.536048	3614.990508	10016.352374
84.037000	0.278972	0.160007	0.299006	0.450322	5137.187671	24126.624350	3596.179111	9969.035968
84.535000	0.281656	0.160019	0.300515	0.445499	5176.582413	24364.350423	3607.048539	10048.314244
85.035000	0.283847	0.160955	0.298903	0.446135	5184.826609	24379.184343	3603.170948	10037.811622
85.535500	0.285599	0.161411	0.300684	0.445955	5195.111719	24410.705718	3606.552369	10040.781332
86.036000	0.283573	0.161317	0.302481	0.451280	5156.220004	24143.840746	3600.481056	9953.392295
86.536500	0.286522	0.160719	0.300942	0.445929	5200.176679	24377.684387	3607.042084	10041.206313
87.036500	0.286294	0.161122	0.313036	0.445666	5200.366950	24410.655456	3628.713617	10045.552270
87.537000	0.284001	0.159460	0.305292	0.444540	5194.135902	24384.110502	3617.030201	10064.175819
88.036500	0.284636	0.160350	0.304042	0.445222	5193.889799	24394.463359	3613.654874	10052.902834
88.540500	0.284207	0.159893	0.300369	0.446672	5183.885032	24300.230731	3604.771415	10028.954352
89.043000	0.284909	0.158898	0.300524	0.445144	5195.758871	24326.514684	3607.677926	10054.188538
89.535500	0.284522	0.159337	0.298932	0.445339	5192.652265	24338.572101	3604.591480	10050.960646
90.050500	0.285517	0.159846	0.306043	0.445798	5195.513657	24341.035162	3616.143193	10043.380418
90.536000	0.285143	0.158174	0.301518	0.446424	5190.182337	24227.855192	3607.182875	10033.038308
91.036500	0.286476	0.158330	0.306134	0.445355	5203.002051	24288.103898	3617.077608	10050.688387
91.536000	0.286288	0.158084	0.305907	0.445399	5201.767828	24273.838762	3616.604126	10049.975475
92.036500	0.286075	0.157072	0.302477	0.444214	5206.973256	24282.380199	3612.683931	10069.590182
92.537000	0.285575	0.158265	0.302315	0.447295	5187.847442	24189.599955	3607.054925	10018.697700
93.037000	0.284993	0.156165	0.302818	0.444075	5201.923119	24244.566012	3613.519780	10071.896281
93.534500	0.286159	0.158720	0.305700	0.446210	5196.739283	24265.241496	3614.824240	10036.576571
94.035000	0.283904	0.158510	0.299124	0.450753	5160.725117	24032.576165	3595.647481	9962.000830
94.536000	0.283673	0.157814	0.300212	0.447992	5174.064410	24133.342776	3602.229837	10007.235837
95.036000	0.285055	0.158586	0.304551	0.446689	5188.303531	24235.070185	3611.985344	10028.674753
95.536000	0.280926	0.156995	0.305921	0.445069	5174.993635	24236.506237	3617.205937	10055.421725
96.039000	0.284116	0.156858	0.301572	0.450889	5161.123151	23945.700162	3599.592980	9959.771704
