sample name	sample
index	625
start time	 03-19-2021  02:43:45 PM
880	0.095120
Peak Time (s)	92.037
Peak Height 	0.09512
calc peak height	90,93
Baseline Time (s)	9.536
Baseline Value 	-0.003192
subtract baseline	10,4
Abs	0.056958
Peak Time (s)	90.538
Peak Height 	0.05696
calc peak height	90,93
Baseline Time (s)	11.537
Baseline Value 	0.004619
subtract baseline	10,3
PK_550	0.035384
Peak Time (s)	92.537
Peak Height 	0.03538
calc peak height	90,93
Baseline Time (s)	10.539
Baseline Value 	4.4921E-4
subtract baseline	10,2
PK_880	0.057588
Peak Time (s)	92.537
Peak Height 	0.05759
calc peak height	90,93
Baseline Time (s)	9.036
Baseline Value 	0.002339
subtract baseline	10,1


Time (s)	A880-A510	A880-A775	A880-A975	A880	I510	I775	I975	I880	
0.036000	-0.001019	-0.000597	-0.002377	-0.000109	7091.772693	46890.065897	4057.693737	24743.652567
0.536000	-0.002312	-0.000553	-0.006774	0.002644	7053.355546	46617.177169	4039.361537	24605.973351
1.039000	-0.002396	-0.000775	-0.001980	0.001757	7060.946859	46683.956689	4053.901354	24650.226799
1.536500	-0.002137	0.000454	-0.007411	0.003675	7045.264814	46614.695541	4035.125486	24554.628217
2.037000	0.000954	-0.000146	-0.002458	-0.000726	7116.561259	46998.189245	4059.081287	24774.645268
2.537000	-0.000964	0.000207	-0.001699	-0.001037	7101.163214	47065.665578	4061.855028	24790.304881
3.034500	0.001524	0.000392	-0.001514	-0.002623	7140.303601	47245.742787	4066.458937	24870.174905
3.535000	-0.000795	0.000262	-0.002954	0.000218	7090.792380	46943.993353	4055.359739	24727.280402
4.035000	0.000336	0.000857	0.001041	0.000235	7101.436690	47002.536694	4065.671992	24726.432609
4.535500	-0.001397	-0.000195	-0.000893	-0.000680	7093.618346	46988.682670	4063.020865	24772.348464
5.036000	0.000085	0.000281	-0.001839	-0.000331	7104.442107	47001.476158	4059.659584	24754.798492
5.536000	-0.000194	-0.000052	0.000821	-0.000837	7106.622848	47019.089126	4067.891707	24780.243393
6.036000	-0.000097	-0.000007	-0.002532	-0.000892	7108.075111	47029.141249	4059.321109	24783.003984
6.536500	0.001658	0.000241	-0.002730	-0.000370	7119.900727	47001.370688	4057.457598	24756.776593
7.037000	-0.000789	0.000060	-0.005373	-0.000007	7092.993428	46946.335802	4049.713226	24738.553630
7.537500	-0.000620	0.000261	0.003585	0.000197	7092.655424	46945.885469	4072.411458	24728.295741
8.035000	-0.002065	-0.000246	0.000534	0.003870	7044.107174	46524.882963	4054.934937	24544.898126
8.535500	-0.001203	0.000177	0.003918	-0.000619	7094.889527	47020.088120	4075.428257	24769.271934
9.035500	0.000000	-0.000374	-0.001793	-0.001080	7110.800777	47010.962554	4061.721518	24792.428547
9.536000	-0.001015	0.000557	0.000289	0.000000	7090.772715	46995.895301	4064.325617	24738.195822
10.036000	-0.000223	-0.000063	-0.006464	0.002419	7075.281338	46689.021423	4040.721218	24617.185967
10.539000	0.001407	0.000000	0.002924	-0.000181	7115.683123	46957.862539	4071.673211	24747.299300
11.036500	0.000471	0.000799	-0.001933	0.000543	7099.770637	46965.399361	4057.157442	24710.966656
11.537000	0.001602	-0.000164	0.000000	0.000069	7115.147338	46915.884320	4063.392992	24734.712062
12.037500	-0.002186	0.000390	-0.003662	0.004276	7039.138956	46547.882604	4043.129442	24524.724977
12.537500	-0.000157	-0.000127	0.003498	0.000331	7095.805213	46893.207094	4071.835795	24721.600906
13.038000	-0.000186	0.000676	0.002829	-0.000538	7103.824798	47062.470566	4072.356081	24765.178171
13.535500	0.002085	0.000495	0.002350	0.000043	7120.042035	46985.321305	4069.587074	24736.060936
14.035000	-0.001432	-0.000477	-0.003301	0.002728	7060.886235	46616.357858	4048.011697	24601.779542
14.535500	-0.001317	0.000210	0.000863	0.002307	7065.952281	46727.678213	4059.826299	24622.746041
15.044000	0.001859	0.000564	0.002257	-0.000385	7121.972819	47035.622771	4070.460191	24757.509087
15.536500	0.002236	0.000502	0.002977	0.000340	7118.637254	46955.892584	4070.449295	24721.160016
16.037000	-0.002138	0.000208	0.000265	0.006153	7021.946297	46341.922775	4048.373995	24431.710442
16.536500	0.001818	0.001628	0.004914	0.000798	7110.223637	47023.569895	4074.320878	24698.185637
17.034500	0.002285	0.000671	0.002949	-0.002123	7142.829164	47223.242186	4076.834364	24844.983826
17.535000	-0.000029	-0.000120	-0.002318	0.001255	7088.204909	46800.526441	4054.324572	24675.307271
18.035500	0.000646	0.000986	0.000267	0.002931	7078.679503	46743.069931	4056.672306	24591.666225
18.535500	0.000728	0.001074	0.002225	0.002142	7086.968561	46831.550700	4063.791043	24631.022332
19.036000	0.000706	0.001639	0.000447	0.002651	7081.910173	46837.163857	4057.859936	24605.615787
19.535500	-0.000570	0.000797	-0.000361	0.002225	7073.833620	46795.240185	4056.872915	24626.875656
20.039000	0.000824	0.001064	0.000484	0.002881	7080.849670	46756.013878	4057.360220	24594.155215
20.536500	0.002589	0.001385	-0.000722	0.002790	7098.549062	46797.509281	4054.483696	24598.686409
21.037000	-0.000862	0.001063	-0.001309	0.002194	7071.349907	46825.191768	4054.506091	24628.397737
21.537000	0.002262	0.001490	0.004689	0.002759	7095.709064	46811.241008	4068.599072	24600.215890
22.034500	0.000598	-0.000048	0.001249	0.002432	7082.968255	46689.198853	4060.502645	24616.539174
22.535000	-0.000118	0.000158	-0.002941	0.002152	7078.819823	46738.160253	4050.416254	24630.525489
23.035000	0.001540	0.001139	0.001998	0.002569	7090.642376	46795.054039	4062.090650	24609.701394
23.535000	0.000771	0.000835	-0.000757	0.002270	7086.161869	46794.539069	4055.734431	24624.617689
24.036000	0.002450	0.000810	-0.001465	0.002323	7101.677260	46786.650426	4053.771218	24621.976519
24.539000	0.001847	0.000970	0.000258	0.002516	7094.077400	46783.321069	4057.720108	24612.363261
25.036500	0.000732	0.000909	0.000995	0.002304	7085.460417	46798.538103	4060.177012	24622.913168
25.536500	0.002317	-0.000504	0.002761	0.001970	7103.784134	46689.825243	4065.632021	24639.587402
26.037000	0.000312	0.000391	0.002617	0.003050	7074.377706	46671.258710	4062.448954	24585.750055
26.537000	0.003505	0.001520	0.001600	0.003578	7099.762781	46731.659028	4058.444240	24559.431310
27.035000	0.002236	0.001472	-0.000095	0.001220	7110.191225	46964.997093	4060.160642	24677.063292
27.534500	0.002175	0.001494	0.002221	0.001429	7107.601629	46946.072183	4065.633450	24666.616799
28.034500	0.002974	0.001431	0.003852	0.001852	7111.212300	46896.971714	4068.783381	24645.495599
28.536000	0.001154	0.000482	0.003739	0.000962	7102.299707	46890.931150	4070.814588	24690.006504
29.036000	0.003280	0.000496	0.000092	0.002776	7105.282199	46709.303997	4056.619718	24599.378416
29.536000	0.003360	0.001353	0.001219	0.001901	7114.435016	46884.008871	4061.802663	24643.027452
30.036500	-0.002636	0.000096	-0.000198	0.006854	7010.717584	46260.830621	4045.392054	24397.055993
30.536500	0.002188	0.001115	0.005941	0.004871	7074.891653	46560.973695	4066.355551	24495.181556
31.037000	-0.000268	0.001133	-0.002584	0.005229	7048.240833	46526.925721	4043.449583	24477.446470
31.537500	0.001950	0.000503	0.002437	0.001665	7103.187083	46822.052475	4065.582136	24654.827510
32.035000	-0.000010	0.000970	-0.001173	0.007327	7030.901974	46300.788953	4041.696206	24373.693753
32.535000	0.002381	0.000762	0.002374	0.001732	7106.665636	46841.406642	4065.243059	24651.459803
33.035500	0.000182	0.001353	0.003826	0.004378	7060.537707	46634.416984	4062.138504	24519.658287
33.537500	0.003053	0.001617	0.007589	0.001389	7116.396680	46962.519604	4079.800520	24668.603025
34.039000	0.003117	0.001854	-0.000639	0.005327	7079.379719	46589.351438	4048.172783	24472.570491
34.536500	0.001443	0.001346	0.001603	0.004535	7071.003900	46617.867903	4055.978695	24511.855040
35.036500	0.002076	0.000602	0.000319	0.004766	7074.820604	46520.035724	4052.074577	24500.405000
35.536500	0.001206	0.000410	0.000342	0.003741	7076.304982	46603.644625	4054.775211	24551.344195
36.037500	0.001701	0.000437	0.004186	0.004674	7072.139998	46512.751241	4062.306201	24504.991001
36.537500	0.003266	0.001597	0.001644	0.005143	7082.555942	46582.009112	4054.516385	24481.699990
37.035000	-0.000065	0.000539	0.003969	0.004428	7057.732197	46547.639200	4062.379979	24517.184451
37.535500	0.002731	0.001651	0.004663	0.004965	7079.156838	46605.366525	4062.789305	24490.541228
38.035000	0.001557	0.001749	0.003110	0.005154	7066.221013	46596.190092	4058.274512	24481.171473
38.536000	0.003172	0.001367	0.000891	0.004754	7085.368122	46598.018597	4053.577752	24501.011300
39.036500	0.001948	0.001335	0.002586	0.004961	7071.759602	46574.041038	4057.418299	24490.726793
39.536500	0.002615	0.000896	0.000230	0.004626	7081.283575	46563.570149	4052.206124	24507.356964
40.037000	0.001782	0.002052	0.003203	0.006014	7060.190761	46540.251116	4056.289953	24438.555556
40.537000	0.001478	0.000919	-0.000097	0.004654	7070.209906	46563.150872	4051.295068	24505.990462
41.034500	0.001433	0.001106	0.001752	0.004559	7070.686154	46591.418201	4056.302055	24510.669772
41.535000	0.001961	0.001010	0.004169	0.004875	7072.704045	46550.059725	4061.740298	24495.018400
42.035000	0.000558	0.000830	0.007665	0.005188	7056.432655	46500.554572	4070.027953	24479.467556
42.535500	0.002001	0.000546	0.000694	0.004193	7079.558775	46571.913959	4054.516074	24528.843135
43.036000	0.002456	0.001414	0.003766	0.005233	7073.995828	46554.662151	4059.766567	24477.230852
43.538500	0.001689	0.000548	0.002344	0.003839	7079.955180	46607.623792	4059.692565	24546.437383
44.036500	-0.000385	0.000532	-0.002159	0.008406	7017.266872	46149.737868	4036.446471	24320.573587
44.536000	0.003247	0.001254	0.004532	0.002972	7103.088909	46765.935190	4067.635050	24589.604500
45.036500	0.002182	0.001302	0.001979	0.007609	7048.898805	46305.753563	4049.034780	24359.791299
45.537000	0.003683	0.000544	0.005204	0.002549	7111.325050	46737.062014	4070.493999	24610.696913
46.037500	-0.000559	0.000474	-0.000881	0.008198	7017.572859	46164.575797	4040.221502	24330.771918
46.534500	0.003410	0.001607	0.001387	0.003183	7102.638797	46780.328921	4058.917274	24579.125340
47.035000	0.003755	0.001469	0.004283	0.003847	7099.583922	46699.468946	4064.706162	24546.041883
47.539500	0.002329	0.000987	0.003282	0.005604	7069.274851	46474.734795	4057.556922	24458.889911
48.036000	-0.000806	0.001297	-0.005142	0.009382	7004.195619	46128.834433	4026.451141	24272.597756
48.536000	0.004522	0.001933	0.008368	0.003677	7108.555064	46763.329983	4075.832384	24554.518693
49.037000	-0.000447	0.000534	0.004427	0.006912	7030.695793	46298.698734	4057.131518	24394.179654
49.536500	0.005465	0.001407	0.004978	0.001478	7138.755190	46932.314235	4072.706433	24664.176147
50.037000	0.001576	0.000923	-0.000680	0.008592	7033.925623	46170.169105	4039.733216	24311.427576
50.534500	0.004889	0.002017	0.008055	0.007385	7076.671790	46399.581746	4065.317285	24370.861963
51.034500	0.003485	-0.003351	0.004749	-0.012799	7259.113537	47906.219688	4110.115690	25389.820576
51.535500	-0.017431	-0.016939	0.009239	0.035205	6626.512471	41966.452132	3998.065445	23041.776646
52.035000	-0.026564	-0.028963	0.002802	-0.111013	7991.725166	56080.113034	4401.760740	31083.796486
52.535500	-0.007882	-0.030382	0.015016	-0.144539	8635.981686	60154.184727	4564.684233	33341.515908
53.038500	-0.033105	-0.025614	-0.007054	-0.099973	7791.625975	55148.079782	4332.847720	30377.626797
53.535500	-0.019427	-0.025473	-0.004249	-0.136831	8389.328369	59786.844027	4466.536380	32806.890474
54.036500	-0.002072	-0.026885	0.000027	-0.154869	8851.326645	62003.583994	4547.293368	34073.035685
54.536500	0.003332	-0.026014	0.001586	-0.155905	8939.517076	62263.338966	4556.955646	34147.360431
55.037500	-0.002893	-0.015501	-0.004120	-0.121321	8402.180594	59067.279574	4413.241154	31759.507978
55.537500	0.002820	-0.013278	0.001135	-0.105122	8272.072478	57291.137414	4376.452935	30704.775309
56.035000	0.003240	-0.010348	0.002862	-0.085544	8042.326733	55248.787103	4318.397776	29481.412697
56.535000	0.004678	-0.006995	0.010275	-0.066797	7843.285525	53428.597214	4282.756820	28360.559017
57.035500	0.002660	-0.006313	0.002365	-0.046693	7600.183688	51222.375615	4198.555597	27211.152567
57.538500	0.006665	-0.003961	0.004459	-0.029110	7456.999575	49560.059389	4154.280198	26248.595881
58.036000	0.006761	-0.002491	0.008152	-0.010570	7269.521526	47764.880220	4113.297776	25274.967057
58.536500	0.009646	0.000029	0.010786	0.003191	7162.645906	46620.624264	4083.487503	24578.698734
59.037000	0.007264	0.001180	0.009924	0.017227	7006.294193	45345.003876	4044.750583	23890.900008
59.537000	0.016694	0.006223	0.014502	0.020952	7059.951673	45473.751767	4046.933323	23712.082918
60.037500	0.018151	0.007260	0.022231	0.028948	6998.504161	44798.356589	4046.250969	23333.332044
60.534500	0.021043	0.006601	0.016553	0.029999	7015.716632	44634.025721	4029.163342	23284.070959
61.035000	0.016789	0.009442	0.019209	0.045307	6836.557089	43455.344024	3997.740656	22579.842428
61.535500	0.020245	0.008881	0.027077	0.043331	6885.498335	43587.488290	4022.110723	22669.362891
62.035500	0.028818	0.014370	0.028366	0.047153	6928.814280	43743.599970	4015.787709	22496.606147
62.536000	0.026380	0.014248	0.024172	0.047152	6906.540851	43732.249547	4005.401764	22496.650904
63.036500	0.029934	0.016640	0.029015	0.046445	6945.565030	44024.108870	4019.169131	22528.492543
63.542000	0.032822	0.017469	0.033947	0.045555	6980.488011	44186.801519	4033.802401	22568.635440
64.036000	0.031734	0.017523	0.032480	0.045820	6967.953630	44166.896840	4029.431791	22556.703962
64.537500	0.032615	0.018372	0.032063	0.047317	6962.244039	44105.365472	4024.614673	22489.212568
65.037500	0.033819	0.018828	0.039693	0.048942	6958.355346	43994.882299	4039.789488	22416.239011
65.535000	0.035731	0.019936	0.035448	0.050405	6962.513463	43961.470346	4025.363437	22350.814636
66.035000	0.036964	0.019530	0.035927	0.051521	6963.586121	43818.041649	4023.762212	22300.993117
66.535500	0.035456	0.020324	0.034380	0.053454	6931.902061	43711.153466	4015.074405	22215.094694
67.038500	0.034200	0.020610	0.037367	0.061237	6849.846184	43014.025033	4003.209694	21872.918140
67.536000	0.040737	0.022933	0.039391	0.057511	6943.141051	43575.480165	4017.449045	22035.957609
68.036000	0.039799	0.022969	0.042439	0.058386	6926.507399	43497.221021	4022.879025	21997.556558
68.537000	0.040186	0.023417	0.035848	0.059763	6917.447767	43410.639363	4003.099853	21937.279702
69.037000	0.041068	0.024193	0.040409	0.061527	6909.398438	43318.752332	4010.000629	21860.310564
69.537000	0.042284	0.025299	0.040928	0.063051	6906.581514	43279.910494	4007.515168	21794.067487
70.034500	0.040830	0.025672	0.045565	0.069507	6835.140302	42719.535948	4003.032306	21516.038680
70.535000	0.042825	0.024771	0.045200	0.063789	6904.793521	43162.699850	4016.280213	21762.073882
71.035000	0.043794	0.025745	0.039850	0.065166	6901.080921	43125.387082	3999.659905	21702.543597
71.535500	0.041925	0.026133	0.044155	0.066215	6874.600955	43064.360667	4007.671210	21657.288374
72.036000	0.040657	0.026587	0.043165	0.072585	6806.151968	42522.084322	3989.644658	21384.938520
72.536000	0.046166	0.026728	0.045644	0.067880	6897.962951	42965.653842	4007.236425	21585.691882
73.036500	0.042410	0.027593	0.045867	0.074873	6801.401641	42405.581770	3990.650527	21288.075138
73.537000	0.043832	0.027167	0.043397	0.069183	6865.023621	42886.205346	3998.506393	21529.868491
74.037000	0.046734	0.027945	0.042679	0.069982	6884.036784	42884.320738	3994.797032	21495.734860
74.534500	0.046483	0.028041	0.047648	0.070809	6874.274217	42817.191630	4004.953828	21460.445831
75.034500	0.042449	0.027747	0.042102	0.077002	6782.908206	42226.663737	3976.417339	21198.395102
75.535000	0.047078	0.027829	0.042574	0.071902	6869.779727	42697.698450	3989.867198	21413.947048
76.035500	0.047163	0.029542	0.053919	0.073524	6855.923177	42706.000585	4013.753352	21345.096187
76.538500	0.047312	0.029712	0.047174	0.073887	6853.997976	42688.338086	3996.236482	21329.720717
77.036000	0.044076	0.028848	0.042681	0.079358	6776.476658	42113.482028	3972.165658	21099.679144
77.536500	0.050715	0.029882	0.053140	0.075471	6870.396395	42559.387477	4007.002610	21262.846215
78.036500	0.048750	0.029010	0.048425	0.074898	6857.842053	42532.056519	3996.824780	21287.005473
78.536500	0.047653	0.030136	0.047610	0.075846	6839.474065	42548.306312	3992.524040	21247.042304
79.037000	0.045420	0.028723	0.046770	0.080634	6777.066941	41987.381476	3978.904230	21046.411678
79.537000	0.050020	0.030379	0.052156	0.077204	6848.527670	42446.906408	4000.317384	21189.925151
80.035000	0.045828	0.029714	0.048667	0.081089	6776.662681	42035.578807	3982.378588	21027.483625
80.535500	0.049421	0.030546	0.050917	0.078349	6832.891229	42358.055049	3994.481917	21141.868009
81.035500	0.047793	0.030518	0.045735	0.084741	6761.810254	41780.295650	3966.615320	20876.101420
81.536000	0.050422	0.030757	0.052563	0.079629	6830.398820	42261.276119	3995.375242	21088.332372
82.036000	0.050823	0.031355	0.049952	0.080215	6828.743488	42262.313785	3987.598578	21063.886084
82.536500	0.050226	0.031965	0.053450	0.081453	6812.391514	42205.681988	3993.090235	21012.348947
83.037000	0.046722	0.032204	0.050978	0.087529	6728.079202	41682.028336	3972.466194	20761.424262
83.537000	0.051425	0.031727	0.052723	0.082238	6816.068392	42113.303608	3989.412049	20979.706922
84.037000	0.052212	0.032784	0.049000	0.083410	6812.644090	42102.959577	3977.593625	20931.130529
84.534500	0.050859	0.031868	0.050868	0.082500	6808.704754	42102.434610	3984.284393	20968.851365
85.035000	0.048782	0.032696	0.049064	0.088739	6735.475796	41618.005452	3965.026799	20711.843986
85.538500	0.052392	0.033557	0.055739	0.084635	6803.356042	42062.230549	3990.916429	20880.485764
86.038500	0.049954	0.032851	0.049651	0.088124	6751.101910	41686.639807	3967.884835	20737.048667
86.536000	0.052526	0.033239	0.054996	0.085416	6797.615175	41963.558697	3987.216897	20848.283607
87.036500	0.049444	0.032412	0.047533	0.088817	6740.582159	41585.948929	3961.220576	20708.690545
87.536000	0.052714	0.033959	0.052686	0.086234	6792.031526	41954.701676	3979.663151	20814.579439
88.037000	0.052564	0.033365	0.051010	0.088720	6768.776153	41679.371805	3969.699442	20712.649275
88.537000	0.053097	0.034379	0.056131	0.087670	6782.730583	41863.653017	3984.508448	20755.636175
89.034500	0.053785	0.034829	0.051512	0.087882	6786.934204	41885.019309	3972.898587	20746.958244
89.535000	0.052187	0.034521	0.051298	0.087862	6773.011001	41859.171003	3972.435244	20747.769941
90.035500	0.051952	0.034366	0.047259	0.094366	6714.109111	41267.620238	3947.547731	20483.210158
90.538500	0.054476	0.034602	0.056958	0.088825	6784.706822	41780.377755	3983.716925	20708.362004
91.036000	0.054947	0.034612	0.054379	0.088953	6787.739117	41769.844079	3977.200669	20703.126981
91.536000	0.055705	0.034748	0.054472	0.089549	6789.171765	41728.686948	3975.993519	20678.758817
92.036500	0.052207	0.034896	0.055333	0.095120	6709.788243	41247.930198	3964.762481	20452.806043
92.536500	0.057588	0.035384	0.055662	0.090836	6794.446710	41670.743831	3975.761891	20626.326864
93.036500	0.053272	0.035997	0.048820	0.094608	6723.472210	41390.251869	3950.628685	20473.451823
93.537000	0.056123	0.035651	0.055119	0.090826	6781.581243	41695.302223	3974.482684	20626.707508
94.037500	0.053966	0.035063	0.057006	0.095812	6719.053958	41201.747133	3967.092193	20424.972588
94.535000	0.057433	0.035437	0.051167	0.091483	6787.347259	41617.790027	3963.509870	20600.012395
95.035000	0.053842	0.035957	0.055977	0.096217	6714.463715	41244.764959	3963.690184	20408.685643
95.536000	0.055731	0.035609	0.058046	0.091958	6768.157461	41590.844106	3978.789276	20580.718439
96.036000	0.056636	0.037111	0.058787	0.092987	6767.060297	41632.920854	3978.097455	20538.990923
