sample name	sample
index	1406
start time	 05-10-2021  11:24:13 AM
880	0.473797
Peak Time (s)	92.534
Peak Height 	0.4738
calc peak height	90,93
Baseline Time (s)	10.04
Baseline Value 	-0.003343
subtract baseline	10,4
Abs	0.336757
Peak Time (s)	91.037
Peak Height 	0.3368
calc peak height	90,93
Baseline Time (s)	10.537
Baseline Value 	6.3056E-4
subtract baseline	10,3
PK_550	0.164043
Peak Time (s)	91.037
Peak Height 	0.164
calc peak height	90,93
Baseline Time (s)	10.04
Baseline Value 	0.001067
subtract baseline	10,2
PK_880	0.303644
Peak Time (s)	91.037
Peak Height 	0.3036
calc peak height	90,93
Baseline Time (s)	11.037
Baseline Value 	0.00213
subtract baseline	10,1


Time (s)	A880-A510	A880-A775	A880-A975	A880	I510	I775	I975	I880	
0.036000	-0.004432	-0.000887	-0.003585	0.006107	6315.950853	41140.973021	3905.677853	22318.635344
0.537000	-0.002397	-0.001114	-0.000536	0.003562	6352.693300	41345.427383	3919.814109	22433.003155
1.037500	-0.002714	-0.001022	-0.002360	0.003123	6353.680333	41392.449407	3916.299265	22452.826256
1.539000	-0.002114	-0.000905	-0.002491	0.003404	6356.257181	41377.874491	3915.254767	22440.138972
2.035000	-0.000474	-0.001058	0.001695	0.000795	6390.729557	41595.960732	3932.601376	22558.157999
2.535500	0.000686	-0.000045	-0.002077	0.000462	6402.911408	41715.850851	3923.787650	22573.236090
3.035500	0.001088	-0.000952	0.000878	-0.002224	6428.265059	41875.036931	3938.279819	22695.540890
3.536000	-0.002600	-0.000690	-0.001930	0.002632	6358.567520	41465.330741	3918.636413	22474.978985
4.036000	-0.000917	-0.000824	0.000061	0.000588	6388.798823	41635.158713	3928.932725	22567.510065
4.536500	0.000442	0.000000	-0.000623	0.000657	6399.325541	41702.493339	3927.005351	22564.387183
5.036500	-0.005059	-0.000662	0.000040	-0.000175	6361.382023	41717.688675	3930.839064	22602.196395
5.539500	-0.000691	-0.000526	0.000004	0.000052	6395.013764	41709.510852	3930.163097	22591.861807
6.037500	-0.000160	-0.000454	0.000676	0.000226	6397.928517	41700.448696	3931.444937	22583.976892
6.534500	-0.002292	-0.000292	-0.000957	0.000592	6377.581474	41682.258794	3926.317058	22567.344620
7.035000	-0.001919	-0.000152	0.000444	0.000232	6383.538354	41726.906893	3930.832454	22583.685142
7.535000	-0.000868	-0.000474	0.003743	-0.000182	6395.479043	41735.098120	3940.409077	22602.491520
8.036000	-0.002106	-0.001255	0.002709	-0.000897	6391.217910	41729.265126	3939.585777	22635.058490
8.536000	0.001675	0.000921	0.003734	0.000554	6410.253653	41793.950252	3938.479379	22569.051966
9.036000	-0.000338	-0.000350	-0.000121	0.000077	6397.689676	41723.041619	3929.779247	22590.716399
9.536500	0.001202	-0.000956	-0.002824	-0.000419	6414.361175	41713.244033	3924.130703	22613.292934
10.039500	-0.000248	0.000000	0.000962	0.000000	6399.058340	41761.194719	3932.760362	22594.232399
10.537000	0.000619	0.000354	0.000000	0.000400	6402.876921	41757.080951	3929.260458	22576.057050
11.037500	0.000000	0.000020	0.000293	-0.000125	6402.109855	41774.194788	3931.361692	22599.933944
11.535000	-0.000937	-0.000199	-0.002575	-0.000301	6395.892394	41770.328562	3924.465425	22607.936716
12.035500	0.000694	-0.000286	0.000196	-0.000370	6409.792079	41768.633725	3931.741410	22611.039443
12.535000	-0.000433	-0.000579	-0.003021	-0.000346	6400.373840	41740.322011	3923.440913	22609.948805
13.038500	-0.001659	-0.001107	0.002062	-0.001482	6399.642446	41794.789119	3939.424845	22661.710679
13.539000	-0.000949	-0.000450	0.000487	-0.001565	6406.117572	41860.969606	3935.567240	22665.461374
14.036500	-0.001533	0.000291	0.002287	0.002822	6365.653088	41535.562739	3928.913343	22466.384770
14.537000	-0.001189	0.000069	-0.002226	0.001540	6378.845194	41629.912648	3920.661234	22524.374354
15.039000	0.000926	-0.000485	-0.000495	-0.001558	6421.453412	41857.233385	3933.020462	22665.176087
15.537000	0.000312	0.000670	0.006123	-0.000428	6407.137165	41859.452182	3947.232994	22613.681934
16.035000	-0.002206	-0.000056	0.001346	0.003911	6351.419847	41408.139076	3923.718985	22417.279288
16.535000	-0.000638	-0.000253	0.005356	-0.001400	6407.320174	41863.835740	3947.769220	22657.964466
17.035000	-0.001192	0.000156	0.000466	-0.001409	6402.855330	41901.348223	3935.109835	22658.355154
17.535500	-0.000203	-0.000363	0.001475	0.000090	6398.686689	41720.712299	3933.847222	22590.123780
18.036000	-0.001548	-0.000745	0.002525	0.001428	6376.840545	41567.426689	3933.107994	22529.459154
18.536000	-0.000531	-0.000961	0.000092	0.000765	6390.503958	41607.176810	3928.558722	22559.479921
19.036000	-0.003806	-0.001379	0.001789	-0.000422	6373.523558	41675.705659	3935.977082	22613.406215
19.539500	-0.001232	-0.000294	-0.005235	0.000806	6384.457599	41662.999019	3914.883467	22557.621539
20.036500	-0.002812	-0.000733	0.003392	0.000405	6374.877003	41659.604182	3937.983347	22575.828081
20.534500	-0.001658	0.000063	0.003400	0.001593	6374.603676	41624.700550	3934.934995	22521.972296
21.035000	-0.000870	-0.000021	0.000612	0.001081	6385.169673	41662.783776	3929.083673	22545.152968
21.535000	-0.002501	0.000254	-0.001655	0.001269	6370.395014	41670.601356	3922.806345	22536.658080
22.035500	-0.000345	-0.000871	0.002354	0.000531	6393.925246	41636.033432	3934.976996	22570.108610
22.535500	-0.000815	0.000013	0.001372	0.001207	6384.590557	41654.610641	3930.710288	22539.440867
23.036000	0.000667	-0.000815	-0.000728	0.000768	6400.256989	41619.940287	3926.453202	22559.375720
23.536000	-0.000501	0.000060	-0.000689	0.001407	6385.524129	41641.030874	3924.918612	22530.403234
24.037000	-0.000783	-0.000043	-0.002271	0.001178	6385.092645	41652.246860	3921.469282	22540.787939
24.537000	-0.000614	-0.000574	-0.006902	0.000913	6388.621941	41628.544712	3910.402257	22552.799253
25.037000	-0.000841	-0.000140	0.002900	0.001066	6385.527390	41653.619154	3935.007120	22545.868889
25.537500	-0.003338	0.000071	0.007541	0.001222	6364.000078	41658.466430	3946.630202	22538.771994
26.035000	-0.000553	-0.000294	0.002020	0.000753	6390.429203	41667.754137	3933.545947	22560.061289
26.535500	-0.003028	-0.000364	0.000800	0.001006	6368.258148	41638.917144	3929.759038	22548.571541
27.035000	-0.001089	-0.000688	0.001500	0.000688	6386.580828	41638.349568	3932.373655	22562.976612
27.536000	-0.002573	-0.000541	-0.003900	0.004207	6346.082943	41339.152771	3909.668211	22403.991954
28.036000	0.000061	-0.001401	-0.001160	-0.001885	6417.023401	41804.470360	3932.148326	22680.065459
28.536500	0.000794	-0.001023	0.004405	-0.001289	6418.159894	41784.972820	3945.003208	22652.910232
29.039500	0.000472	-0.001222	-0.002264	-0.001878	6420.347256	41819.897857	3929.296676	22679.748680
29.537000	-0.002957	-0.001554	0.001728	0.004116	6343.725419	41257.638776	3924.172929	22408.083487
30.037500	-0.001426	-0.000077	-0.001427	-0.000759	6395.633939	41822.168345	3928.573371	22628.757077
30.535000	-0.000785	-0.000312	0.004935	-0.000752	6400.819257	41800.557331	3944.983981	22628.449326
31.035500	-0.000735	0.000009	0.003420	0.002038	6378.479967	41580.245281	3933.840388	22501.815356
31.536500	-0.000269	-0.000468	-0.003502	-0.000871	6406.011542	41797.289150	3923.553904	22633.868264
32.036000	-0.002606	-0.000542	0.000458	0.004974	6339.652581	41271.223432	3918.752640	22369.490044
32.536000	0.000762	-0.000197	0.003897	-0.000701	6413.065241	41806.334350	3942.154484	22626.122888
33.036000	-0.000041	0.000630	-0.001199	0.000169	6399.364079	41802.375508	3926.780557	22586.547764
33.537000	-0.002623	-0.000633	0.000426	0.004450	6343.727692	41309.515235	3920.003220	22393.054514
34.037000	0.000314	-0.000867	0.001950	0.002304	6384.851829	41478.764279	3929.378941	22489.799260
34.537000	-0.001416	-0.000090	0.003172	0.001781	6375.036049	41594.326870	3933.864057	22513.450455
35.037500	0.000313	0.000467	0.002505	0.002057	6386.846497	41619.273888	3931.437949	22500.953907
35.534500	-0.002560	0.000428	0.000638	0.003179	6354.476994	41516.086330	3923.783743	22450.307188
36.035500	-0.003488	-0.000808	0.000977	0.001772	6358.334757	41531.235724	3928.246911	22513.860421
36.536000	-0.001917	-0.000073	-0.003946	0.001603	6372.419328	41611.608323	3916.130742	22521.506920
37.036000	0.000678	-0.000391	0.005490	0.001519	6394.214236	41590.836580	3940.530417	22525.341057
37.536000	-0.002476	-0.001108	0.000402	0.001757	6366.646988	41505.983120	3926.814520	22514.552008
38.036500	-0.000071	0.000125	0.002868	0.001555	6387.815249	41633.540232	3933.661348	22523.673838
38.539500	0.000880	0.000055	0.006931	0.002049	6391.544055	41583.433628	3942.893489	22501.358465
39.037000	-0.000638	-0.000769	-0.001859	0.000914	6388.419860	41611.037470	3923.191692	22552.748058
39.537000	-0.001267	0.000062	0.002726	0.001813	6375.987310	41604.996026	3932.633755	22512.011847
40.034500	-0.002156	-0.000403	0.002761	0.001393	6372.186763	41600.960041	3933.806357	22531.031467
40.535000	-0.000271	-0.000631	0.005001	0.001132	6389.631652	41603.888432	3940.263999	22542.836161
41.035500	-0.001636	0.000012	0.002123	0.001544	6375.180025	41624.458190	3931.772671	22524.170919
41.535500	0.000948	-0.000154	-0.002095	0.001412	6397.292185	41621.448537	3921.318266	22530.166352
42.036000	-0.002315	-0.000544	0.005272	0.001625	6369.013801	41567.722297	3939.688026	22520.509056
42.536000	-0.002329	0.000287	0.000623	0.001465	6370.198616	41656.085437	3928.129100	22527.781166
43.039500	-0.001990	-0.000710	0.001285	0.001041	6376.384010	41604.927270	3930.912171	22546.962377
43.537000	-0.000931	0.000237	0.003407	0.001683	6379.775357	41632.186816	3934.723420	22517.896222
44.037000	-0.002660	0.000255	0.001018	0.001817	6364.672330	41621.892333	3928.239854	22511.848630
44.537500	-0.001585	0.000120	0.001846	-0.000900	6395.481810	41852.475319	3937.357867	22635.153005
45.034000	-0.000180	-0.000123	0.001912	-0.001251	6409.850677	41862.128434	3938.437222	22651.172053
45.534500	-0.004021	-0.000501	-0.000315	0.004156	6334.858381	41347.087539	3918.867817	22406.265716
46.035000	0.000625	-0.000155	-0.000308	0.002835	6383.056523	41494.811702	3922.245176	22465.803669
46.535000	0.001238	-0.000228	0.000918	-0.001369	6422.454675	41863.239965	3936.174455	22656.521290
47.036000	-0.000526	0.000231	0.006360	-0.000706	6402.559472	41845.046127	3948.577716	22626.341248
47.536000	-0.004281	-0.000741	0.008252	0.002556	6345.626607	41467.595625	3945.008544	22478.428812
48.036500	-0.002689	-0.000998	-0.003098	0.002569	6358.358868	41443.723939	3915.832083	22477.851086
48.536500	-0.000490	-0.000108	0.003094	-0.001226	6407.100257	41861.238663	3941.432694	22650.008956
49.037500	-0.000113	-0.000006	0.001656	-0.000701	6405.891282	41823.352313	3936.355750	22626.110256
49.538000	-0.000920	-0.000351	0.005443	0.003210	6367.473987	41444.165446	3936.033509	22448.883228
50.037500	-0.001709	-0.000369	0.002404	0.001862	6372.010424	41562.267014	3931.680405	22509.803089
50.535500	0.001632	-0.000660	0.005280	0.006056	6365.101590	41165.500029	3928.298983	22320.953205
51.036000	0.027586	0.005495	0.014677	0.075880	6027.410236	35952.936928	3783.724215	19430.424160
51.536000	0.055883	-0.015819	0.189872	0.794557	3498.485212	8947.549338	3092.341850	6025.720230
52.036000	0.023884	-0.004410	-0.001436	0.123159	5675.517806	31880.144492	3652.194800	17721.047092
52.539500	0.023047	-0.020720	-0.032735	-0.168482	8369.166163	57494.490645	4339.426100	31948.023121
53.037000	0.021198	-0.066017	-0.033274	-0.267691	9756.009088	64704.978009	4728.203150	39413.425872
53.537000	0.024009	-0.050923	-0.018347	-0.247324	9482.423916	63959.689873	4704.386729	37738.688153
54.034500	0.020200	-0.030871	-0.013695	-0.211174	8899.438817	61739.098640	4572.225517	34952.812829
54.535000	0.024068	-0.021974	-0.001993	-0.185191	8599.127477	59470.866390	4515.392001	33089.026731
55.035000	0.027985	-0.010577	0.014493	-0.135038	8018.554103	54644.654778	4388.573323	29791.939944
55.535000	0.028236	-0.004776	0.020123	-0.119745	7842.618017	53526.806300	4353.955692	28860.033616
56.035500	0.042379	0.002744	0.038373	-0.087206	7635.578124	50695.018537	4304.154810	26983.109312
56.536000	0.058098	0.012192	0.062274	-0.028599	7185.601221	45584.152524	4189.799796	23937.600752
57.036000	0.079123	0.023573	0.081603	0.033154	6797.526438	40914.101537	4061.881020	21143.671583
57.536500	0.096863	0.034979	0.103747	0.102703	6353.654591	36155.798554	3932.969148	18437.842255
58.036000	0.117234	0.045752	0.125923	0.147813	6159.671129	33630.731171	3875.478084	16900.804290
58.537000	0.134048	0.054253	0.142879	0.172977	6096.656577	32475.547769	3855.629333	16110.278444
59.034500	0.157136	0.066666	0.168522	0.208475	6005.206029	30946.597698	3832.287892	15070.196310
59.535000	0.179068	0.082178	0.194503	0.244080	5907.427196	29680.356844	3809.998074	14108.968282
60.035000	0.197632	0.093507	0.215800	0.290091	5720.208344	27627.967521	3754.972263	12978.005950
60.535500	0.213183	0.102359	0.235815	0.340641	5498.004404	25367.813156	3691.171852	11866.079782
61.036000	0.223559	0.109709	0.246510	0.371079	5378.481554	24206.643993	3652.243119	11256.374034
61.536500	0.233292	0.116847	0.256716	0.395538	5294.197208	23375.212483	3625.221305	10796.485426
62.039500	0.243851	0.126415	0.266365	0.421561	5208.710704	22615.376073	3595.252580	10334.792427
62.537000	0.248600	0.127850	0.263913	0.416202	5264.242395	22925.628143	3600.490523	10427.622207
63.036500	0.249950	0.131211	0.273373	0.415400	5276.234518	23118.100107	3619.267131	10441.618603
63.540000	0.260484	0.136383	0.273579	0.414589	5340.444112	23398.022442	3621.152658	10455.798761
64.044000	0.259653	0.138300	0.286498	0.414656	5335.295899	23485.361430	3645.356613	10454.616142
64.538000	0.262087	0.140186	0.283665	0.416478	5338.799749	23488.388497	3636.506824	10422.817037
65.035000	0.267368	0.142119	0.289925	0.418244	5359.022777	23496.271226	3645.048194	10392.113321
65.535500	0.268156	0.143347	0.285813	0.421901	5342.505877	23381.625431	3630.336256	10328.944002
66.035500	0.273505	0.146893	0.296881	0.425243	5354.047840	23391.259906	3644.965619	10271.681314
66.536500	0.273633	0.149257	0.298921	0.428878	5333.910190	23331.458128	3641.924858	10209.887403
67.036500	0.282359	0.150876	0.300662	0.431718	5367.801423	23274.200856	3639.835795	10161.970465
67.537000	0.281050	0.151774	0.298809	0.434002	5347.060743	23209.428570	3632.017577	10123.660920
68.037000	0.280124	0.152298	0.301334	0.437042	5324.361562	23092.314186	3631.050162	10072.980810
68.534500	0.285601	0.153540	0.310733	0.439600	5341.047735	23031.334499	3644.000770	10030.607433
69.035000	0.283858	0.154143	0.308255	0.440934	5323.462674	22997.572355	3636.760159	10008.619966
69.538000	0.285493	0.157079	0.310561	0.446395	5301.771770	22881.291637	3630.812595	9919.267569
70.035500	0.286509	0.157338	0.308653	0.447914	5298.937553	22823.535271	3624.402738	9894.616012
70.536000	0.286868	0.158373	0.312323	0.446282	5310.182374	22945.985388	3634.341504	9921.102816
71.036000	0.288314	0.159738	0.313496	0.449851	5298.194500	22844.761009	3629.835576	9863.306891
71.539000	0.290638	0.158240	0.313274	0.451396	5302.582514	22705.731287	3626.527038	9838.424708
72.036500	0.290454	0.160438	0.315358	0.456734	5271.602772	22563.380777	3620.473076	9753.159002
72.537000	0.298117	0.161175	0.312987	0.456127	5318.148103	22624.155293	3617.207589	9762.797587
73.034500	0.295362	0.161246	0.318080	0.457193	5296.534425	22579.111957	3624.679139	9745.871700
73.535000	0.296396	0.162073	0.324382	0.459038	5291.971159	22533.161346	3633.029161	9716.681671
74.035000	0.295769	0.162407	0.322061	0.459957	5283.298691	22506.825299	3626.950256	9702.185453
74.535500	0.298857	0.164386	0.320037	0.462734	5285.037523	22470.834141	3618.026087	9658.552028
75.035000	0.298776	0.166001	0.326146	0.464149	5276.665162	22479.874508	3626.751006	9636.443520
75.536000	0.301903	0.166290	0.319834	0.465701	5285.482545	22423.128799	3612.189259	9612.268230
76.039000	0.296551	0.165433	0.325850	0.466516	5251.149106	22348.281759	3621.790153	9599.602692
76.536500	0.298147	0.166219	0.323685	0.464219	5272.767971	22486.530109	3622.036361	9635.353577
77.037000	0.298124	0.166926	0.328285	0.465548	5265.238420	22458.568238	3628.133823	9614.643007
77.536500	0.300127	0.165895	0.329463	0.465723	5275.418587	22404.438687	3630.013412	9611.918182
78.034500	0.299993	0.166833	0.329844	0.464894	5279.306538	22483.816119	3632.286920	9624.827163
78.538000	0.301098	0.166392	0.329589	0.464126	5289.803512	22498.535799	3633.253955	9636.802985
79.035000	0.302636	0.167834	0.325531	0.465525	5290.580707	22500.428940	3623.038478	9614.993353
79.535500	0.301852	0.165832	0.331295	0.464844	5290.005642	22441.051365	3635.116193	9625.602581
80.036000	0.298663	0.166863	0.320560	0.470012	5243.507545	22256.164819	3605.636424	9545.546992
80.536000	0.302712	0.166487	0.325220	0.465165	5293.038579	22456.051015	3623.130744	9620.606371
81.036500	0.301855	0.166446	0.327440	0.465870	5284.262304	22422.522661	3625.952425	9609.628986
81.536500	0.301749	0.166364	0.324085	0.466808	5278.420200	22376.866706	3617.979506	9595.069360
82.037000	0.301703	0.165804	0.330513	0.469530	5262.995573	22230.517143	3624.857819	9552.975193
82.537000	0.300241	0.165501	0.327336	0.466893	5269.526481	22334.422278	3623.850366	9593.741031
83.035000	0.304369	0.166528	0.320077	0.467182	5291.014958	22367.474683	3609.920553	9589.275651
83.535000	0.301152	0.166306	0.331392	0.468564	5265.298748	22295.813114	3628.304222	9567.875991
84.035000	0.301060	0.165028	0.327220	0.470966	5251.472780	22132.487301	3616.089848	9530.872397
84.535500	0.303587	0.167147	0.329347	0.468814	5277.482081	22322.195634	3624.019336	9564.026663
85.035500	0.302146	0.165539	0.330417	0.467987	5274.051554	22287.336497	3627.559881	9576.802657
85.538500	0.301820	0.165374	0.326025	0.468841	5267.477957	22242.018282	3617.806852	9563.607280
86.036500	0.301067	0.165184	0.324905	0.470547	5253.827488	22157.916878	3612.601511	9537.313021
86.537000	0.301340	0.165003	0.326324	0.468587	5266.219869	22236.822664	3618.828197	9567.523927
87.037000	0.301094	0.164570	0.332330	0.468909	5263.065881	22203.303758	3629.416111	9562.562728
87.537000	0.303549	0.164830	0.329548	0.469702	5272.310005	22179.674011	3622.739974	9550.320367
88.035000	0.300239	0.164433	0.331434	0.471556	5243.685070	22080.223864	3622.800309	9521.821407
88.535500	0.298567	0.162924	0.328999	0.468635	5250.578240	22142.523988	3623.703481	9566.779793
89.035000	0.300527	0.164536	0.331751	0.470226	5252.622367	22143.487991	3625.869025	9542.260382
89.536000	0.299677	0.163545	0.327166	0.471410	5241.394197	22047.521670	3615.172921	9524.056338
90.036000	0.300431	0.163357	0.332077	0.470795	5248.939906	22066.304654	3625.414099	9533.498918
90.536500	0.301137	0.162832	0.330182	0.471174	5250.748897	22026.570738	3621.184211	9527.677866
91.036500	0.303644	0.164043	0.336757	0.472692	5256.220587	22013.086004	3630.623640	9504.412394
91.537000	0.300755	0.162259	0.330546	0.471666	5245.924409	21979.815428	3620.948744	9520.137163
92.037000	0.301644	0.163310	0.326969	0.473374	5241.409761	21951.037761	3611.202772	9493.980404
92.534000	0.302137	0.162690	0.328706	0.473797	5241.794208	21905.408741	3613.612804	9487.515684
93.034500	0.301012	0.164203	0.328181	0.475617	5225.630777	21891.985787	3609.313940	9459.791782
93.563000	0.303008	0.162232	0.325467	0.474280	5243.932705	21864.341021	3606.799628	9480.146384
94.035500	0.302086	0.161685	0.328018	0.474872	5235.602143	21814.789359	3610.379093	9471.126044
94.539000	0.302770	0.162365	0.335366	0.475850	5233.990291	21801.885036	3622.129299	9456.264380
95.038000	0.303952	0.163261	0.333423	0.478124	5228.001641	21742.094903	3614.330841	9421.800673
95.536500	0.302765	0.162086	0.331183	0.477130	5226.944745	21734.252897	3612.040876	9436.835512
96.037000	0.301161	0.161918	0.334639	0.481786	5192.939131	21526.687881	3609.843246	9366.695578
