sample name	sample
index	886
start time	 04-08-2021  02:29:43 PM
880	0.510707
Peak Time (s)	122.036
Peak Height 	0.5107
calc peak height	120,123
Baseline Time (s)	10.535
Baseline Value 	-0.002344
subtract baseline	10,4
Abs	0.377386
Peak Time (s)	122.537
Peak Height 	0.3774
calc peak height	120,123
Baseline Time (s)	11.036
Baseline Value 	0.002667
subtract baseline	10,3
PK_550	0.187529
Peak Time (s)	122.537
Peak Height 	0.1875
calc peak height	120,123
Baseline Time (s)	10.035
Baseline Value 	4.971E-4
subtract baseline	10,2
PK_880	0.337879
Peak Time (s)	122.537
Peak Height 	0.3379
calc peak height	120,123
Baseline Time (s)	8.537
Baseline Value 	0.00147
subtract baseline	10,1


Time (s)	A880-A510	A880-A775	A880-A975	A880	I510	I775	I975	I880	
0.034500	-0.000989	-0.000551	-0.005055	0.001343	6875.744958	42439.784140	3922.484774	22775.120029
0.540500	-0.003846	-0.000606	-0.002633	0.006180	6802.394307	41994.889715	3915.537710	22552.622472
1.035000	-0.002762	-0.000024	-0.000171	0.003500	6838.126697	42291.036996	3930.379181	22675.608954
1.538000	-0.001173	-0.000538	-0.002670	0.000707	6880.095570	42499.178634	3931.230126	22804.559823
2.036000	-0.000731	0.000170	-0.000754	0.000778	6883.670123	42557.537916	3936.602269	22801.273182
2.536000	-0.004797	-0.001177	-0.005862	0.005396	6800.819363	42014.111203	3908.540846	22588.509895
3.036500	0.000124	0.000729	0.001394	-0.000576	6905.018922	42733.476912	3946.860488	22864.107041
3.536500	-0.001572	-0.000520	0.001837	-0.000543	6888.307255	42615.481856	3948.070048	22862.583669
4.037000	-0.000558	-0.000029	-0.004211	-0.000176	6894.544825	42626.821659	3929.318917	22845.508186
4.534500	-0.003097	-0.000326	-0.007888	0.002251	6846.842002	42377.409656	3911.738941	22733.184327
5.037500	-0.002692	-0.000257	-0.002158	-0.000111	6873.357295	42599.949054	3935.102089	22842.506473
5.535000	-0.000522	0.000133	0.003142	0.000030	6892.903970	42622.819622	3950.224248	22835.950850
6.035500	-0.000737	-0.000901	-0.000709	-0.000517	6896.111518	42578.104598	3940.518178	22861.347053
6.535500	-0.001985	-0.000093	0.003140	-0.000202	6881.041742	42623.404484	3950.903744	22846.739417
7.036000	0.001344	0.000322	-0.004217	0.000368	6907.689103	42609.184704	3927.726849	22820.284257
7.535500	0.000475	0.000157	-0.003561	-0.000198	6904.748955	42645.993965	3931.270699	22846.525067
8.036500	0.001604	0.000177	0.000528	0.000075	6913.056739	42622.733929	3942.407234	22833.886176
8.537000	0.000000	-0.000016	-0.005463	0.000066	6897.602862	42605.845550	3924.995558	22834.281981
9.037000	0.001150	0.000236	-0.000906	0.000372	6905.772846	42600.854298	3937.342995	22820.079109
9.540000	0.001402	0.001685	0.000344	0.000961	6902.516187	42679.982979	3939.278029	22792.834301
10.035000	-0.001212	0.000000	0.000892	-0.000209	6888.556767	42632.580368	3944.309287	22847.058663
10.535000	-0.000747	-0.000589	0.003966	0.000000	6891.021014	42559.350490	3952.745325	22837.354922
11.035500	0.000020	-0.000567	0.000000	-0.000532	6903.582075	42610.124225	3942.639465	22862.061737
11.535500	-0.000233	0.000393	-0.004896	-0.000107	6897.021127	42659.317034	3927.136985	22842.324545
12.036000	-0.000541	-0.000154	-0.003451	-0.000472	6897.570154	42642.560914	3932.386428	22859.248476
12.536500	-0.000861	-0.000794	-0.003845	-0.000887	6898.495327	42621.936608	3932.448862	22878.549925
13.036500	0.000489	0.000394	-0.003058	-0.000807	6910.797488	42723.838244	3934.505770	22874.840442
13.543000	0.000036	0.000238	-0.000016	0.000619	6892.608260	42578.381236	3939.224615	22808.659933
14.036500	-0.002490	0.000137	-0.002799	0.002184	6853.284666	42425.757556	3926.572442	22736.257603
14.537500	-0.001600	0.000055	-0.001963	0.001740	6866.063619	42458.834130	3930.284884	22756.761552
15.035000	0.000913	0.000097	-0.000755	-0.000556	6912.478660	42673.455515	3940.499535	22863.180528
15.535500	-0.000642	-0.000043	-0.001617	-0.000489	6896.770231	42654.427809	3937.783340	22860.080389
16.035500	0.001682	0.000884	-0.000892	0.000014	6914.403218	42693.324377	3938.431370	22836.701934
16.536000	0.000705	-0.000179	-0.005409	-0.000621	6911.090777	42653.969200	3927.138035	22866.191023
17.037000	0.000273	0.000002	-0.001958	-0.002656	6926.667779	42858.258930	3943.125427	22960.977221
17.537000	-0.000006	0.000243	-0.002035	0.001379	6884.871193	42509.209736	3931.124951	22773.475103
18.037000	0.001540	0.000527	-0.001583	0.001132	6902.197008	42557.885123	3933.156227	22784.909891
18.537000	-0.000891	-0.000429	-0.000888	0.000704	6882.837788	42509.367062	3936.425552	22804.693260
19.037500	0.000204	0.000951	-0.003005	0.001665	6884.139849	42547.794950	3927.480641	22760.233337
19.535000	0.000514	0.000638	-0.000688	0.001357	6890.104092	42547.391273	3935.106891	22774.503045
20.035000	-0.000842	-0.000626	-0.000336	0.000203	6888.146628	42537.216633	3939.501326	22827.917909
20.535500	-0.000570	-0.000091	0.000294	0.000739	6885.601104	42537.196382	3939.778416	22803.097812
21.035500	-0.002656	-0.000988	-0.002156	0.000252	6870.210619	42499.614904	3934.049932	22825.664449
21.536000	-0.000630	-0.000408	-0.000487	0.000484	6887.491027	42531.550705	3938.241657	22814.920553
22.036500	0.001678	0.000678	0.000617	0.001313	6901.774862	42555.057698	3939.043611	22776.511078
22.536500	-0.002153	0.000175	-0.000135	0.000717	6870.574512	42563.594869	3938.588394	22804.103796
23.037000	-0.001113	0.000704	-0.003147	0.001347	6874.525558	42554.341549	3927.990272	22774.954796
23.540000	0.001032	0.000142	-0.000743	0.001230	6896.329952	42513.548488	3935.318018	22780.360620
24.035000	-0.000617	0.000331	-0.000276	0.001309	6879.665469	42523.668654	3936.450942	22776.726787
24.535000	0.000136	0.000215	-0.002369	0.001153	6888.424303	42527.332840	3930.810748	22783.937415
25.035000	0.001111	0.000511	-0.003743	0.001470	6894.773141	42525.395900	3925.907216	22769.255480
25.535500	-0.002050	0.000355	0.002648	0.001298	6865.991038	42526.814795	3945.040029	22777.207958
26.035500	0.000459	0.000622	0.002089	0.001607	6887.154704	42522.940695	3942.492803	22762.917735
26.536500	0.000187	0.000864	0.002434	0.001402	6886.508441	42563.988530	3944.106130	22772.393974
27.035500	0.000209	0.000324	-0.001313	0.001436	6886.393567	42511.360747	3933.059606	22770.845933
27.537000	0.000276	0.000630	-0.002453	-0.000024	6901.138284	42673.429642	3933.987721	22838.450700
28.039500	0.000501	0.000898	0.002707	0.000217	6900.990355	42676.011155	3948.390947	22827.293135
28.537500	0.000230	0.001027	-0.000438	0.002693	6874.495616	42460.636799	3931.947201	22712.781118
29.035000	0.000015	0.000987	0.003171	0.000753	6891.107034	42634.886378	3948.179062	22802.430894
29.538000	0.001660	0.000504	-0.000580	0.000260	6911.802703	42635.864351	3938.624904	22825.309979
30.035500	-0.001673	-0.000019	-0.001270	-0.000551	6887.413060	42662.245370	3938.977580	22862.949901
30.535500	-0.000908	0.000172	0.000710	0.000426	6885.361029	42590.029043	3941.913010	22817.609672
31.036000	-0.000819	0.000993	0.000340	0.002648	6864.847825	42461.679610	3934.340999	22714.870729
31.536000	0.001415	0.000415	-0.001196	0.000600	6906.140939	42596.456494	3935.833812	22809.555223
32.036500	-0.000441	0.001053	0.000799	0.000280	6891.276851	42684.512272	3942.602800	22824.381784
32.537000	-0.000455	0.000934	0.005249	0.001694	6877.509532	42543.586442	3951.532150	22758.895140
33.037000	-0.000308	0.000110	-0.003703	-0.000154	6896.747552	42637.593007	3930.731099	22844.481779
33.542000	-0.000239	0.000713	0.001639	0.000686	6889.307529	42615.910546	3943.875018	22805.556664
34.035000	0.000425	0.000357	0.000396	0.001177	6890.976448	42538.093733	3938.794856	22782.798140
34.535000	0.000098	0.000275	-0.002601	0.001901	6880.852063	42464.372506	3927.967945	22749.356753
35.035500	-0.001862	0.000478	0.001996	0.001454	6866.297074	42523.799374	3942.666663	22769.975884
35.536000	-0.002288	0.000335	-0.002460	0.001844	6858.474234	42475.046240	3928.543315	22751.980868
36.036000	-0.001505	0.000675	-0.003023	0.002581	6858.908485	42438.633772	3924.777821	22717.928997
36.536000	-0.000283	0.000221	0.002034	0.001954	6876.664499	42454.466832	3941.313299	22746.869237
37.037000	-0.001090	0.000963	-0.001921	0.002062	6867.866830	42512.538105	3929.471207	22741.897872
37.537000	-0.001688	0.000039	-0.001419	0.001753	6865.104650	42456.303998	3931.828029	22756.193602
38.037500	-0.001122	0.000311	0.002357	0.001898	6869.137516	42467.893302	3942.426685	22749.481139
38.535000	-0.000303	0.000258	-0.001711	0.001827	6877.694665	42469.552048	3930.765733	22752.770545
39.035000	0.000003	0.000799	0.000802	0.002354	6875.572226	42470.848774	3936.545911	22728.429061
39.535500	-0.003012	0.000042	-0.004615	0.001581	6854.056179	42472.246336	3923.069389	22764.126886
40.035500	-0.000029	0.000842	-0.002504	0.002261	6876.154604	42483.210990	3927.206632	22732.710015
40.536000	-0.001840	-0.000915	-0.001121	0.000916	6871.670194	42445.546437	3935.129734	22794.886403
41.036000	-0.001074	-0.000249	-0.000570	0.001475	6873.671187	42455.387749	3935.108251	22769.036135
41.536500	-0.000350	-0.000010	-0.000211	0.001493	6880.467023	42475.552073	3936.102553	22768.216197
42.039500	-0.000357	-0.000158	-0.001403	0.001278	6882.460703	42481.741412	3933.255550	22778.150984
42.537000	0.000456	0.000936	0.002325	0.002387	6879.608551	42480.260792	3940.897741	22726.887878
43.037500	0.000680	0.000786	0.002101	0.002602	6879.700154	42446.979486	3939.617037	22716.995984
43.535000	0.000147	0.000977	0.000264	0.003086	6869.916836	42420.185049	3932.845708	22694.680610
44.034500	0.001420	0.001159	0.000429	-0.001393	6925.539389	42848.562602	3946.428095	22902.117642
44.535500	0.000418	0.000952	-0.000814	0.000371	6898.696913	42666.777903	3937.617606	22820.157136
45.036000	0.000082	0.000797	0.002880	0.000189	6897.209867	42669.272257	3948.982532	22828.585850
45.536000	0.001668	0.000994	0.002124	0.002682	6888.448859	42458.651701	3939.446707	22713.287920
46.036500	0.002305	0.000685	-0.003699	0.000312	6917.556416	42647.611879	3929.389906	22822.873451
46.539500	0.001647	0.000355	0.001301	0.001168	6902.877066	42538.786847	3941.470702	22783.227512
47.037000	0.001675	0.001750	-0.002499	0.001202	6902.820345	42663.821480	3930.292252	22781.677455
47.537500	-0.002306	-0.000443	-0.004057	0.002114	6855.720701	42379.239608	3923.139862	22739.506223
48.037500	-0.000025	0.000929	-0.003239	0.003314	6866.080912	42394.889140	3922.039161	22684.170289
48.535000	0.000952	-0.000021	-0.001076	0.000773	6899.974270	42540.534528	3935.679404	22801.522008
49.035500	0.001034	0.000844	0.000603	0.000152	6906.778407	42677.029320	3942.401743	22830.305501
49.535500	-0.000362	0.000290	-0.001401	0.001547	6879.824713	42498.102369	3932.477781	22765.702897
50.036000	0.001542	0.001913	0.004455	-0.001139	6924.250767	42894.644500	3957.565077	22890.261035
50.536500	-0.000490	0.000240	0.004225	0.001595	6878.123926	42489.054239	3948.804163	22763.472662
51.039500	-0.002928	-0.000727	0.007534	-0.001061	6880.228577	42644.065246	3966.494514	22886.642516
51.537000	-0.029868	-0.013726	0.072133	0.291004	4704.501008	22497.992741	3437.706995	12996.476059
52.037000	-0.053393	-0.018747	0.005831	0.005059	6369.360303	40485.498305	3943.340530	22603.952202
52.534000	-0.034862	-0.020746	-0.016631	-0.144688	8106.691815	55788.759726	4377.147614	30804.886410
53.035000	-0.023205	-0.013874	-0.015885	-0.116239	7901.577320	53216.652521	4271.623832	29021.905201
53.535000	-0.016852	-0.008759	-0.010845	-0.092127	7693.103347	51055.577383	4202.789927	27599.557423
54.035500	-0.007996	-0.008948	-0.016949	-0.118000	8108.923694	54000.232827	4274.197497	29128.939960
54.535500	0.004598	-0.005975	-0.010066	-0.124414	8350.988547	55120.705391	4324.092143	29522.403473
55.036000	0.011068	-0.000957	-0.005519	-0.086397	7954.937955	51286.665762	4201.363680	27272.983452
55.536500	0.012756	0.001579	0.002589	-0.053302	7588.214738	47986.930412	4115.718548	25468.900893
56.037000	0.012518	0.000252	0.007237	-0.043561	7477.131592	46847.836291	4098.855939	24963.525260
56.537000	0.020827	0.005163	0.015594	-0.021564	7328.862016	45145.480891	4054.662357	23863.214906
57.037000	0.026491	0.006709	0.028882	0.002566	7136.107391	42995.759234	4020.514903	22718.650302
57.537500	0.030499	0.009448	0.035315	0.013233	7068.575770	42267.237930	4007.404345	22232.563929
58.035000	0.039145	0.014059	0.043710	0.035132	6937.230417	40723.942797	3966.445523	21271.345616
58.535500	0.051183	0.019998	0.058841	0.061709	6797.669623	38960.249463	3932.709564	20168.022903
59.035500	0.063086	0.026753	0.074331	0.087307	6670.419983	37421.532641	3903.651069	19167.320339
59.536000	0.075632	0.032476	0.085513	0.103264	6639.345822	36613.357707	3890.157177	18572.724661
60.036000	0.084237	0.038915	0.101876	0.116488	6597.656354	36087.981698	3899.008394	18096.232506
60.536500	0.095019	0.047731	0.110643	0.129935	6573.799730	35734.053807	3885.830823	17626.365820
61.037000	0.107122	0.055301	0.126975	0.158923	6426.015295	34145.490796	3850.897853	16661.622419
61.537000	0.114696	0.060332	0.138289	0.167619	6416.397495	33881.442500	3858.043272	16384.559656
62.037500	0.123997	0.064182	0.153930	0.209819	6145.151417	31247.825240	3787.536377	15116.013495
62.538500	0.133502	0.069509	0.163778	0.220504	6135.791332	30897.989109	3785.382401	14813.886950
63.035000	0.140844	0.073976	0.166546	0.230852	6112.085700	30519.060038	3766.076848	14528.320449
63.535000	0.147349	0.076870	0.174871	0.236949	6115.292655	30314.717005	3771.715855	14363.195822
64.035500	0.154461	0.080232	0.177362	0.248603	6079.738382	29792.915423	3748.704178	14053.987513
64.536000	0.157691	0.082861	0.185093	0.257386	6036.781290	29412.007755	3746.093848	13826.382681
65.039000	0.163149	0.086830	0.189663	0.267067	6004.480564	29063.248749	3733.498619	13580.775888
65.539500	0.165434	0.089370	0.189809	0.273129	5975.847427	28850.489982	3719.104946	13429.742684
66.037000	0.172840	0.092731	0.198042	0.281203	5970.810088	28568.481273	3719.489778	13231.836334
66.534000	0.175024	0.094897	0.202682	0.285525	5954.742113	28440.442279	3720.256806	13127.386500
67.037500	0.179610	0.096573	0.203824	0.290632	5950.838351	28238.117431	3710.709481	13005.322079
67.535000	0.185173	0.097887	0.207634	0.296903	5945.542506	27948.482763	3704.824644	12857.370721
68.035000	0.186179	0.099282	0.209944	0.302528	5911.182041	27703.973591	3696.950756	12726.452581
68.536000	0.191706	0.102857	0.215112	0.309700	5899.034874	27497.915415	3692.222736	12561.989817
69.035000	0.196085	0.104117	0.223549	0.315214	5890.684055	27256.437301	3699.128315	12437.390772
69.539000	0.199479	0.106758	0.222675	0.321825	5867.127192	27033.115397	3681.536703	12290.054351
70.036500	0.201701	0.108362	0.228179	0.327510	5841.959861	26805.775250	3681.113933	12165.148456
70.536500	0.206126	0.110704	0.236754	0.332951	5834.607438	26634.501486	3688.439958	12047.102445
71.036500	0.206337	0.112176	0.237786	0.337193	5805.633334	26482.448605	3680.935787	11956.104428
71.537500	0.207508	0.114624	0.243170	0.343325	5770.341519	26281.758351	3679.195648	11826.128078
72.034500	0.215301	0.116251	0.249512	0.350298	5776.149828	25993.495501	3677.729896	11680.524574
72.535000	0.217925	0.117398	0.248199	0.353390	5772.831606	25889.528806	3667.554905	11616.708401
73.034500	0.221405	0.118382	0.251687	0.358310	5762.655145	25680.469748	3664.268762	11516.087770
73.535500	0.224197	0.121292	0.256211	0.364380	5739.619245	25514.063346	3660.736324	11393.530691
74.036000	0.226282	0.122657	0.261557	0.370312	5712.792777	25275.584136	3659.399864	11275.384811
74.536500	0.230532	0.123634	0.266636	0.371726	5732.540990	25252.880433	3667.786912	11247.454136
75.036500	0.232082	0.125335	0.269410	0.375196	5719.160094	25161.339657	3666.189147	11179.317453
75.540000	0.237076	0.129300	0.271157	0.380482	5717.129703	25093.206026	3658.100448	11076.561248
76.034500	0.235618	0.129607	0.272562	0.382505	5693.025345	25004.965713	3656.696218	11037.557382
76.537500	0.242445	0.131093	0.276797	0.385862	5717.053219	24909.195060	3658.694220	10973.252790
77.035500	0.242993	0.132651	0.276512	0.387399	5710.183616	24910.258288	3654.552690	10943.964968
77.535000	0.245940	0.133477	0.277010	0.390409	5709.744325	24798.903454	3648.869805	10886.911071
78.035500	0.248652	0.134608	0.279700	0.396046	5689.533847	24571.054160	3642.247703	10781.155553
78.535500	0.249955	0.136347	0.286512	0.395033	5705.523213	24709.898066	3659.931735	10800.047450
79.036000	0.253019	0.137058	0.291457	0.396885	5713.931988	24652.256508	3667.012155	10765.523405
79.536500	0.255205	0.139006	0.286860	0.398331	5719.080794	24677.639521	3653.230053	10738.669735
80.036500	0.255057	0.139651	0.284342	0.404003	5678.867353	24424.928666	3634.851875	10634.167980
80.537000	0.259454	0.141395	0.295703	0.402180	5721.864218	24603.961599	3664.605876	10667.609367
81.037000	0.260870	0.142371	0.290579	0.403453	5722.854018	24588.935783	3650.055627	10644.232447
81.534500	0.266820	0.144702	0.299346	0.405528	5749.963695	24601.850872	3665.279967	10606.296505
82.035500	0.263047	0.144986	0.294508	0.410616	5688.330258	24361.116373	3642.780537	10514.035277
82.535500	0.269148	0.147140	0.308188	0.408659	5744.327327	24566.941252	3678.461824	10549.397101
83.035500	0.268077	0.147403	0.297981	0.410010	5727.385564	24512.296860	3651.965271	10524.973917
83.538000	0.271369	0.149347	0.304020	0.411041	5743.197504	24558.177341	3663.359806	10506.384692
84.036000	0.272177	0.150157	0.304036	0.417599	5703.144987	24271.042374	3648.500983	10389.154410
84.536000	0.275510	0.152174	0.305538	0.415425	5741.491331	24480.023813	3656.824168	10427.830035
85.036500	0.278512	0.152220	0.309693	0.416133	5757.608269	24446.832650	3664.689277	10415.203509
85.537000	0.281567	0.155220	0.316490	0.419360	5756.398602	24435.522163	3672.902999	10357.984891
86.037500	0.281273	0.154097	0.308496	0.424048	5721.517371	24146.895681	3644.027365	10275.605544
86.535000	0.284134	0.156095	0.316182	0.421629	5758.500487	24365.968190	3666.967898	10318.005813
87.035000	0.284880	0.158183	0.321611	0.423628	5749.678707	24370.359970	3674.875749	10282.944705
87.535500	0.288100	0.159435	0.314837	0.426043	5755.347882	24312.510329	3653.830143	10240.822080
88.038500	0.286064	0.160586	0.318727	0.432455	5696.446633	24052.512008	3648.129235	10130.077119
88.536000	0.293247	0.162505	0.322055	0.429889	5764.517201	24273.930133	3661.502371	10174.204317
89.036000	0.292302	0.161831	0.319000	0.429680	5759.325608	24250.849834	3655.021215	10177.804788
89.536500	0.295646	0.162913	0.323296	0.432967	5759.717911	24141.824191	3657.313211	10121.300525
90.039500	0.296512	0.163537	0.327968	0.433878	5759.402142	24127.659783	3665.905068	10105.718549
90.534500	0.299716	0.165247	0.326329	0.435837	5768.199366	24115.444180	3657.686164	10072.335009
91.037500	0.298730	0.165678	0.330495	0.437101	5752.334115	24074.415168	3664.311280	10050.863786
91.535000	0.302919	0.167267	0.329343	0.439678	5763.692129	24025.887878	3655.805681	10007.284206
92.035500	0.300802	0.167954	0.331975	0.446637	5700.286806	23720.423575	3646.026418	9890.877200
92.538500	0.301374	0.167860	0.333483	0.441660	5738.898375	23957.867041	3660.718594	9973.942359
93.036000	0.301617	0.168729	0.330734	0.442517	5734.601915	23958.476383	3652.522912	9959.573293
93.536000	0.305411	0.169019	0.334709	0.444192	5749.444659	23890.817108	3657.740784	9931.559627
94.036000	0.301734	0.169656	0.332707	0.451252	5674.943482	23580.061458	3637.336132	9814.722768
94.536500	0.305434	0.170708	0.337803	0.447875	5723.839272	23793.857836	3656.400795	9870.368890
95.037000	0.308945	0.171476	0.339377	0.449833	5734.683686	23736.197839	3655.531517	9838.057544
95.536500	0.310425	0.172178	0.345690	0.451505	5733.338294	23689.294780	3666.122134	9810.558373
96.038000	0.311207	0.171810	0.338385	0.451420	5739.406986	23675.640526	3649.691831	9811.964766
96.535000	0.315049	0.174007	0.344405	0.454914	5741.847220	23613.161964	3655.410401	9754.853563
97.035500	0.314975	0.173444	0.343186	0.456026	5733.543092	23532.724655	3650.132108	9736.773211
97.535500	0.315373	0.174653	0.342000	0.457690	5724.707971	23510.922643	3643.717896	9709.800242
