sample name	sample
index	212
start time	 02-22-2021  09:57:06 AM


Wavelength (nm)	Absorbance
494.344910	-0.022336
494.563924	-0.022336
494.782919	-0.022336
495.001897	0.014310
495.220856	-0.048289
495.439797	-0.050994
495.658719	-0.051884
495.877624	-0.040945
496.096510	-0.037989
496.315378	-0.033696
496.534227	-0.023236
496.753059	-0.013580
496.971872	-0.004881
497.190667	0.097069
497.409444	0.137250
497.628203	0.151807
497.846943	0.157391
498.065665	0.161247
498.284369	0.163756
498.503055	0.167353
498.721723	0.167185
498.940372	0.168135
499.159003	0.169317
499.377616	0.169849
499.596210	0.169282
499.814787	0.169329
500.033345	0.169763
500.251885	0.169402
500.470406	0.167595
500.688910	0.169028
500.907395	0.170044
501.125862	0.170497
501.344311	0.171547
501.562742	0.171428
501.781154	0.172532
501.999548	0.171577
502.217924	0.172267
502.436282	0.174029
502.654621	0.173391
502.872942	0.173661
503.091245	0.173599
503.309530	0.172691
503.527797	0.173411
503.746045	0.172685
503.964275	0.173863
504.182487	0.174628
504.400681	0.173913
504.618856	0.174129
504.837013	0.174254
505.055152	0.174485
505.273273	0.174843
505.491376	0.176517
505.709460	0.176909
505.927526	0.176853
506.145574	0.176710
506.363604	0.176245
506.581615	0.176307
506.799608	0.176634
507.017583	0.176570
507.235540	0.176958
507.453478	0.175839
507.671399	0.176010
507.889301	0.176341
508.107185	0.177208
508.325050	0.178459
508.542898	0.179439
508.760727	0.179593
508.978538	0.179932
509.196330	0.180276
509.414105	0.179769
509.631861	0.179561
509.849599	0.180852
510.067319	0.180090
510.285021	0.181081
510.502704	0.181540
510.720369	0.181423
510.938016	0.181853
511.155645	0.182406
511.373255	0.183623
511.590848	0.183572
511.808422	0.182706
512.025977	0.183975
512.243515	0.183580
512.461034	0.183426
512.678536	0.183360
512.896018	0.183654
513.113483	0.183654
513.330930	0.183682
513.548358	0.184312
513.765768	0.184210
513.983160	0.184146
514.200533	0.185686
514.417889	0.186143
514.635226	0.186219
514.852545	0.186622
515.069845	0.185747
515.287128	0.186142
515.504392	0.186202
515.721638	0.187298
515.938866	0.187197
516.156075	0.186259
516.373267	0.186990
516.590440	0.187691
516.807594	0.187409
517.024731	0.188834
517.241850	0.189240
517.458950	0.190214
517.676032	0.190469
517.893095	0.190671
518.110141	0.191040
518.327168	0.190876
518.544177	0.192003
518.761168	0.192375
518.978141	0.191988
519.195095	0.192102
519.412031	0.192379
519.628949	0.192094
519.845849	0.192517
520.062731	0.192385
520.279594	0.193038
520.496439	0.193140
520.713266	0.193303
520.930074	0.193927
521.146865	0.193513
521.363637	0.192783
521.580391	0.192814
521.797127	0.193043
522.013844	0.193400
522.230543	0.193215
522.447224	0.193277
522.663887	0.193577
522.880532	0.193657
523.097158	0.194457
523.313766	0.195037
523.530356	0.195735
523.746928	0.195927
523.963481	0.196452
524.180017	0.196518
524.396534	0.195784
524.613032	0.196565
524.829513	0.197389
525.045975	0.197576
525.262420	0.198302
525.478845	0.197912
525.695253	0.198135
525.911643	0.198708
526.128014	0.199100
526.344367	0.200466
526.560702	0.200403
526.777018	0.200342
526.993316	0.200768
527.209597	0.200458
527.425858	0.200858
527.642102	0.201247
527.858328	0.201359
528.074535	0.201334
528.290724	0.201139
528.506894	0.201587
528.723047	0.201920
528.939181	0.202775
529.155297	0.203493
529.371395	0.203798
529.587475	0.204215
529.803536	0.204029
530.019579	0.205032
530.235604	0.205556
530.451611	0.205262
530.667600	0.205415
530.883570	0.205557
531.099522	0.206067
531.315456	0.206893
531.531372	0.207369
531.747269	0.208685
531.963148	0.208955
532.179009	0.209615
532.394852	0.210572
532.610676	0.210776
532.826482	0.210727
533.042271	0.210408
533.258040	0.210218
533.473792	0.210440
533.689525	0.210415
533.905240	0.210472
534.120937	0.210612
534.336616	0.210943
534.552277	0.211779
534.767919	0.212007
534.983543	0.213411
535.199149	0.214583
535.414736	0.214628
535.630306	0.215006
535.845857	0.215327
536.061390	0.215574
536.276904	0.215274
536.492401	0.215373
536.707879	0.216037
536.923339	0.215582
537.138781	0.215756
537.354204	0.216590
537.569610	0.216895
537.784997	0.217170
538.000366	0.217606
538.215716	0.218263
538.431049	0.218717
538.646363	0.219175
538.861659	0.219410
539.076937	0.220274
539.292196	0.220477
539.507438	0.221014
539.722661	0.221321
539.937866	0.221553
540.153052	0.221984
540.368221	0.222598
540.583371	0.222322
540.798503	0.222764
541.013617	0.222686
541.228712	0.223237
541.443789	0.222653
541.658848	0.222341
541.873889	0.222664
542.088912	0.223569
542.303916	0.223803
542.518902	0.224122
542.733870	0.224509
542.948820	0.224521
543.163752	0.224229
543.378665	0.225024
543.593560	0.226078
543.808437	0.225992
544.023295	0.225889
544.238136	0.225807
544.452958	0.226228
544.667762	0.227011
544.882548	0.227442
545.097315	0.227773
545.312064	0.227980
545.526795	0.228162
545.741508	0.229298
545.956203	0.229323
546.170879	0.229427
546.385537	0.229913
546.600177	0.230010
546.814799	0.230029
547.029402	0.230465
547.243988	0.230385
547.458555	0.230888
547.673103	0.231178
547.887634	0.231734
548.102146	0.232644
548.316640	0.232651
548.531116	0.232453
548.745574	0.232528
548.960013	0.232927
549.174435	0.233318
549.388838	0.233559
549.603222	0.233263
549.817589	0.233501
550.031937	0.233086
550.246267	0.233447
550.460579	0.233686
550.674873	0.234213
550.889148	0.234315
551.103405	0.234649
551.317644	0.234551
551.531865	0.234604
551.746068	0.234857
551.960252	0.235419
552.174418	0.235883
552.388566	0.236702
552.602696	0.236732
552.816807	0.237187
553.030900	0.237315
553.244975	0.237709
553.459032	0.238450
553.673070	0.238727
553.887091	0.238560
554.101093	0.238445
554.315077	0.238072
554.529042	0.238437
554.742990	0.238383
554.956919	0.239227
555.170830	0.239586
555.384722	0.239851
555.598597	0.239787
555.812453	0.240211
556.026291	0.240612
556.240111	0.241136
556.453913	0.241545
556.667696	0.241948
556.881461	0.242114
557.095208	0.242417
557.308937	0.242525
557.522647	0.242964
557.736339	0.243034
557.950013	0.243596
558.163669	0.243868
558.377307	0.243970
558.590926	0.243892
558.804527	0.243627
559.018110	0.243411
559.231675	0.243505
559.445221	0.243511
559.658749	0.243865
559.872259	0.243658
560.085751	0.243891
560.299225	0.244246
560.512680	0.244832
560.726117	0.244946
560.939536	0.245359
561.152937	0.245800
561.366319	0.246260
561.579683	0.246544
561.793029	0.246799
562.006357	0.246839
562.219667	0.246614
562.432958	0.246738
562.646231	0.247412
562.859486	0.247732
563.072723	0.247561
563.285941	0.247440
563.499141	0.247774
563.712323	0.248193
563.925487	0.248271
564.138632	0.248982
564.351760	0.249397
564.564869	0.249252
564.777960	0.249623
564.991032	0.250364
565.204087	0.250851
565.417123	0.251068
565.630141	0.251367
565.843140	0.251941
566.056122	0.251829
566.269085	0.251783
566.482030	0.252255
566.694957	0.251799
566.907866	0.251496
567.120756	0.251534
567.333628	0.251633
567.546482	0.251627
567.759318	0.251723
567.972135	0.252093
568.184935	0.252554
568.397716	0.252791
568.610478	0.253431
568.823223	0.253930
569.035949	0.253854
569.248657	0.254077
569.461347	0.254568
569.674019	0.254719
569.886672	0.254730
570.099308	0.254854
570.311925	0.254928
570.524523	0.255262
570.737104	0.255322
570.949666	0.256197
571.162210	0.256230
571.374736	0.256377
571.587244	0.256428
571.799733	0.256642
572.012205	0.256779
572.224658	0.256976
572.437092	0.256937
572.649509	0.257143
572.861907	0.257003
573.074287	0.257187
573.286649	0.256860
573.498993	0.257046
573.711318	0.257222
573.923625	0.257078
574.135914	0.257292
574.348185	0.257751
574.560438	0.257697
574.772672	0.257992
574.984888	0.258055
575.197086	0.258435
575.409266	0.258917
575.621427	0.259194
575.833570	0.259506
576.045695	0.259904
576.257802	0.260044
576.469890	0.259984
576.681961	0.259956
576.894013	0.260400
577.106046	0.260710
577.318062	0.261081
577.530059	0.261197
577.742039	0.261188
577.954000	0.260907
578.165942	0.261253
578.377867	0.261941
578.589773	0.262057
578.801661	0.262657
579.013531	0.263027
579.225382	0.262752
579.437216	0.263364
579.649031	0.263793
579.860828	0.264684
580.072606	0.264766
580.284367	0.264793
580.496109	0.264863
580.707833	0.264503
580.919539	0.264187
581.131227	0.264372
581.342896	0.264390
581.554547	0.264710
581.766180	0.264561
581.977795	0.264705
582.189391	0.264943
582.400969	0.265380
582.612529	0.265503
582.824071	0.266031
583.035595	0.266254
583.247100	0.266454
583.458587	0.266492
583.670056	0.266671
583.881506	0.266719
584.092939	0.267048
584.304353	0.267169
584.515749	0.267306
584.727127	0.267540
584.938486	0.268018
585.149828	0.267790
585.361151	0.267621
585.572456	0.267506
585.783742	0.267763
585.995011	0.267994
586.206261	0.268404
586.417493	0.269147
586.628706	0.269351
586.839902	0.269359
587.051079	0.269568
587.262238	0.270177
587.473379	0.270581
587.684502	0.271062
587.895606	0.270957
588.106692	0.271037
588.317760	0.271249
588.528810	0.271229
588.739841	0.271728
588.950855	0.272052
589.161850	0.272611
589.372827	0.273044
589.583785	0.273132
589.794726	0.273395
590.005648	0.273564
590.216552	0.273675
590.427437	0.274235
590.638305	0.274325
590.849154	0.274514
591.059985	0.274524
591.270798	0.274340
591.481592	0.274448
591.692369	0.274674
591.903127	0.274823
592.113867	0.274827
592.324588	0.274646
592.535292	0.274468
592.745977	0.274905
592.956644	0.275094
593.167293	0.275519
593.377923	0.275766
593.588536	0.275860
593.799130	0.276025
594.009706	0.276052
594.220263	0.276495
594.430803	0.276716
594.641324	0.276880
594.851827	0.276872
595.062312	0.277085
595.272778	0.277347
595.483227	0.277241
595.693657	0.277398
595.904069	0.277677
596.114462	0.277888
596.324838	0.278065
596.535195	0.278189
596.745534	0.278356
596.955855	0.278252
597.166157	0.278281
597.376441	0.278804
597.586707	0.279490
597.796955	0.279651
598.007185	0.279588
598.217396	0.280263
598.427589	0.280681
598.637764	0.280609
598.847921	0.280938
599.058060	0.281198
599.268180	0.281545
599.478282	0.281114
599.688366	0.281432
599.898431	0.281688
600.108479	0.281593
600.318508	0.281397
600.528519	0.281801
600.738511	0.282049
600.948486	0.282101
601.158442	0.282172
601.368380	0.282231
601.578300	0.282279
601.788202	0.282563
601.998085	0.282988
602.207950	0.282756
602.417797	0.283084
602.627626	0.283179
602.837436	0.283468
603.047228	0.283635
603.257002	0.284206
603.466758	0.284571
603.676496	0.284534
603.886215	0.284134
604.095916	0.284916
604.305599	0.284573
604.515264	0.284953
604.724910	0.284967
604.934538	0.285060
605.144148	0.285254
605.353740	0.285185
605.563314	0.285540
605.772869	0.286068
605.982406	0.286024
606.191925	0.286605
606.401425	0.286257
606.610908	0.286250
606.820372	0.286568
607.029818	0.286498
607.239246	0.286119
607.448655	0.285991
607.658047	0.285674
607.867420	0.285940
608.076775	0.286099
608.286111	0.286629
608.495430	0.286832
608.704730	0.287038
608.914012	0.286925
609.123275	0.288071
609.332521	0.288515
609.541748	0.289120
609.750957	0.289396
609.960148	0.289770
610.169321	0.289966
610.378475	0.290113
610.587611	0.289826
610.796729	0.290423
611.005829	0.290105
611.214910	0.289908
611.423974	0.289729
611.633019	0.289529
611.842045	0.289516
612.051054	0.289541
612.260044	0.289577
612.469017	0.289828
612.677970	0.289738
612.886906	0.289557
613.095824	0.289708
613.304723	0.290128
613.513604	0.290301
613.722467	0.290379
613.931311	0.290167
614.140138	0.290706
614.348946	0.291030
614.557736	0.291206
614.766507	0.291938
614.975261	0.292313
615.183996	0.292243
615.392713	0.292606
615.601412	0.292680
615.810092	0.293233
616.018754	0.293155
616.227399	0.293169
616.436024	0.293490
616.644632	0.293502
616.853222	0.293764
617.061793	0.294247
617.270346	0.294203
617.478880	0.294452
617.687397	0.294490
617.895895	0.294713
618.104375	0.295071
618.312837	0.295038
618.521281	0.295202
618.729706	0.295218
618.938113	0.295288
619.146502	0.295349
619.354873	0.295329
619.563226	0.295399
619.771560	0.295438
619.979876	0.295425
620.188174	0.295321
620.396453	0.295420
620.604715	0.295536
620.812958	0.295411
621.021183	0.296032
621.229390	0.296224
621.437578	0.296399
621.645748	0.296702
621.853900	0.297220
622.062034	0.297448
622.270150	0.297516
622.478247	0.297697
622.686326	0.297942
622.894387	0.297885
623.102430	0.298122
623.310454	0.298263
623.518461	0.298184
623.726449	0.297924
623.934418	0.298271
624.142370	0.298247
624.350303	0.298388
624.558218	0.298592
624.766115	0.298742
624.973994	0.298832
625.181855	0.299034
625.389697	0.299306
625.597521	0.299593
625.805327	0.299824
626.013114	0.300244
626.220883	0.300520
626.428634	0.300566
626.636367	0.300585
626.844082	0.300745
627.051778	0.301318
627.259457	0.301580
627.467117	0.301783
627.674758	0.301821
627.882382	0.302158
628.089987	0.302363
628.297574	0.302620
628.505143	0.302823
628.712694	0.302842
628.920226	0.302458
629.127740	0.302510
629.335236	0.302529
629.542714	0.302848
629.750174	0.303068
629.957615	0.303032
630.165038	0.303083
630.372443	0.303284
630.579829	0.303468
630.787198	0.304029
630.994548	0.304302
631.201880	0.304296
631.409194	0.304325
631.616489	0.304225
631.823766	0.304366
632.031025	0.304362
632.238266	0.304543
632.445489	0.304668
632.652693	0.304499
632.859879	0.304544
633.067047	0.304776
633.274197	0.304756
633.481329	0.304813
633.688442	0.305068
633.895537	0.305676
634.102614	0.305820
634.309672	0.306166
634.516713	0.306024
634.723735	0.306395
634.930739	0.306554
635.137724	0.306864
635.344692	0.306938
635.551641	0.306973
635.758572	0.306763
635.965485	0.306854
636.172379	0.306833
636.379256	0.307427
636.586114	0.307294
636.792954	0.307501
636.999775	0.307837
637.206579	0.308188
637.413364	0.308347
637.620131	0.308569
637.826880	0.308733
638.033610	0.308902
638.240323	0.308982
638.447017	0.309441
638.653692	0.309588
638.860350	0.309656
639.066990	0.309718
639.273611	0.309613
639.480214	0.309896
639.686798	0.310153
639.893365	0.310374
640.099913	0.310544
640.306443	0.310564
640.512955	0.310678
640.719449	0.310842
640.925924	0.310888
641.132381	0.311423
641.338820	0.311509
641.545241	0.311765
641.751644	0.312192
641.958028	0.312323
642.164394	0.312542
642.370742	0.312648
642.577071	0.312683
642.783383	0.312971
642.989676	0.313245
643.195951	0.313409
643.402207	0.313407
643.608446	0.313271
643.814666	0.313630
644.020868	0.313774
644.227052	0.314316
644.433218	0.314692
644.639365	0.315018
644.845494	0.315108
645.051605	0.315432
645.257698	0.315440
645.463772	0.315663
645.669828	0.315647
645.875866	0.315696
646.081886	0.315591
646.287888	0.315526
646.493871	0.315592
646.699836	0.315835
646.905783	0.315689
647.111712	0.316081
647.317622	0.316375
647.523514	0.316718
647.729388	0.317107
647.935244	0.317299
648.141082	0.317702
648.346901	0.317878
648.552702	0.318060
648.758485	0.318634
648.964250	0.318787
649.169996	0.318846
649.375724	0.318861
649.581434	0.318769
649.787126	0.319113
649.992800	0.319214
650.198455	0.319438
650.404092	0.319551
650.609711	0.319712
650.815311	0.319747
651.020894	0.320047
651.226458	0.320264
651.432004	0.320389
651.637532	0.320459
651.843041	0.320683
652.048532	0.320838
652.254006	0.320803
652.459460	0.320813
652.664897	0.320994
652.870315	0.321193
653.075716	0.321131
653.281097	0.321405
653.486461	0.321875
653.691807	0.321984
653.897134	0.322184
654.102443	0.322747
654.307734	0.322851
654.513006	0.323203
654.718261	0.323429
654.923497	0.324098
655.128715	0.324306
655.333915	0.324228
655.539096	0.324508
655.744259	0.324705
655.949404	0.324576
656.154531	0.325093
656.359640	0.325315
656.564730	0.325686
656.769802	0.325474
656.974856	0.325706
657.179892	0.326039
657.384909	0.326131
657.589908	0.326478
657.794889	0.326997
657.999852	0.327188
658.204797	0.327385
658.409723	0.327403
658.614631	0.328092
658.819521	0.328382
659.024393	0.328408
659.229246	0.328630
659.434081	0.328798
659.638898	0.328938
659.843697	0.329059
660.048478	0.329313
660.253240	0.329336
660.457984	0.329294
660.662710	0.329413
660.867417	0.329892
661.072107	0.329983
661.276778	0.330066
661.481431	0.330257
661.686066	0.330383
661.890682	0.330682
662.095281	0.330828
662.299861	0.331113
662.504422	0.331421
662.708966	0.331463
662.913491	0.331884
663.117999	0.331955
663.322488	0.332117
663.526958	0.332619
663.731411	0.332859
663.935845	0.333491
664.140261	0.333810
664.344659	0.333867
664.549038	0.334165
664.753400	0.334504
664.957743	0.334958
665.162068	0.335082
665.366375	0.335001
665.570663	0.335014
665.774933	0.335083
665.979185	0.335254
666.183419	0.335514
666.387635	0.335689
666.591832	0.335812
666.796011	0.336051
667.000172	0.336346
667.204315	0.336401
667.408439	0.336541
667.612545	0.336866
667.816634	0.336735
668.020703	0.336868
668.224755	0.336975
668.428788	0.336958
668.632803	0.337209
668.836800	0.337331
669.040779	0.337517
669.244739	0.337653
669.448681	0.337906
669.652605	0.338252
669.856511	0.338728
670.060399	0.339252
670.264268	0.339721
670.468119	0.339920
670.671952	0.340066
670.875767	0.340450
671.079563	0.340946
671.283341	0.340833
671.487101	0.341219
671.690843	0.341295
671.894567	0.341398
672.098272	0.341415
672.301959	0.341585
672.505628	0.341800
672.709278	0.342003
672.912911	0.342234
673.116525	0.342511
673.320121	0.342828
673.523699	0.343062
673.727258	0.343047
673.930799	0.343344
674.134322	0.343685
674.337827	0.344032
674.541314	0.344402
674.744782	0.344603
674.948232	0.344749
675.151664	0.344503
675.355078	0.344623
675.558474	0.344818
675.761851	0.345120
675.965210	0.345285
676.168551	0.345488
676.371873	0.345580
676.575178	0.345559
676.778464	0.345868
676.981732	0.346365
677.184981	0.346536
677.388213	0.346917
677.591426	0.347076
677.794621	0.347041
677.997798	0.347203
678.200956	0.347290
678.404097	0.347508
678.607219	0.347638
678.810323	0.347700
679.013408	0.347730
679.216476	0.347940
679.419525	0.347784
679.622556	0.348121
679.825569	0.348200
680.028563	0.348474
680.231540	0.348756
680.434498	0.348907
680.637438	0.349181
680.840359	0.349627
681.043263	0.349604
681.246148	0.350122
681.449015	0.350218
681.651864	0.350617
681.854694	0.350687
682.057506	0.350993
682.260301	0.351404
682.463076	0.351558
682.665834	0.351820
682.868573	0.352177
683.071295	0.352499
683.273998	0.352951
683.476682	0.352933
683.679349	0.353472
683.881997	0.353641
684.084627	0.353890
684.287239	0.354243
684.489833	0.354161
684.692408	0.354306
684.894965	0.354182
685.097504	0.354412
685.300025	0.354821
685.502527	0.354804
685.705012	0.354982
685.907478	0.355138
686.109925	0.355190
686.312355	0.355506
686.514766	0.355714
686.717159	0.356230
686.919534	0.356120
687.121891	0.356141
687.324230	0.356352
687.526550	0.356152
687.728852	0.356197
687.931136	0.356385
688.133401	0.356809
688.335649	0.356890
688.537878	0.356883
688.740089	0.357235
688.942281	0.357425
689.144456	0.357799
689.346612	0.358319
689.548750	0.358488
689.750870	0.358743
689.952971	0.358597
690.155055	0.359058
690.357120	0.359415
690.559167	0.359334
690.761195	0.359642
690.963206	0.359648
691.165198	0.360149
691.367172	0.360335
691.569128	0.360340
691.771065	0.360735
691.972984	0.360808
692.174885	0.360946
692.376768	0.361397
692.578633	0.361547
692.780479	0.361738
692.982308	0.361609
693.184118	0.361775
693.385909	0.362147
