sample name	sample
index	1042
start time	 04-19-2021  02:11:45 PM


Wavelength (nm)	Absorbance
494.344910	-0.098512
494.563924	-0.098512
494.782919	-0.098512
495.001897	NaN
495.220856	-0.047421
495.439797	0.008478
495.658719	-0.024755
495.877624	-0.006582
496.096510	-0.078942
496.315378	-0.090852
496.534227	-0.062541
496.753059	-0.081444
496.971872	-0.013838
497.190667	0.147459
497.409444	0.160050
497.628203	0.175320
497.846943	0.179742
498.065665	0.180488
498.284369	0.181720
498.503055	0.182603
498.721723	0.182081
498.940372	0.181105
499.159003	0.181080
499.377616	0.181624
499.596210	0.179943
499.814787	0.178086
500.033345	0.180158
500.251885	0.179835
500.470406	0.180781
500.688910	0.182153
500.907395	0.183504
501.125862	0.183864
501.344311	0.184250
501.562742	0.185699
501.781154	0.187872
501.999548	0.186889
502.217924	0.187967
502.436282	0.188860
502.654621	0.190715
502.872942	0.191221
503.091245	0.192095
503.309530	0.192395
503.527797	0.191999
503.746045	0.190547
503.964275	0.190472
504.182487	0.190655
504.400681	0.189488
504.618856	0.187362
504.837013	0.187543
505.055152	0.186664
505.273273	0.187255
505.491376	0.187382
505.709460	0.188607
505.927526	0.189412
506.145574	0.188551
506.363604	0.188150
506.581615	0.189307
506.799608	0.187766
507.017583	0.188031
507.235540	0.187021
507.453478	0.186657
507.671399	0.186587
507.889301	0.186002
508.107185	0.185618
508.325050	0.185316
508.542898	0.183600
508.760727	0.184993
508.978538	0.184877
509.196330	0.185160
509.414105	0.186466
509.631861	0.186277
509.849599	0.186840
510.067319	0.187264
510.285021	0.188159
510.502704	0.189332
510.720369	0.189498
510.938016	0.190917
511.155645	0.192185
511.373255	0.191250
511.590848	0.191345
511.808422	0.191315
512.025977	0.191450
512.243515	0.192125
512.461034	0.191799
512.678536	0.191110
512.896018	0.190300
513.113483	0.190377
513.330930	0.190354
513.548358	0.190912
513.765768	0.190258
513.983160	0.191044
514.200533	0.190162
514.417889	0.191192
514.635226	0.192440
514.852545	0.192955
515.069845	0.193909
515.287128	0.195079
515.504392	0.194375
515.721638	0.195577
515.938866	0.195003
516.156075	0.196064
516.373267	0.197088
516.590440	0.197533
516.807594	0.197477
517.024731	0.197382
517.241850	0.197715
517.458950	0.198610
517.676032	0.198620
517.893095	0.198978
518.110141	0.198787
518.327168	0.198449
518.544177	0.198098
518.761168	0.198234
518.978141	0.197285
519.195095	0.197325
519.412031	0.198189
519.628949	0.199651
519.845849	0.200036
520.062731	0.200251
520.279594	0.200164
520.496439	0.200542
520.713266	0.201217
520.930074	0.202081
521.146865	0.202177
521.363637	0.201820
521.580391	0.200623
521.797127	0.201086
522.013844	0.201900
522.230543	0.202573
522.447224	0.202370
522.663887	0.202849
522.880532	0.203572
523.097158	0.203535
523.313766	0.203736
523.530356	0.204973
523.746928	0.206706
523.963481	0.207175
524.180017	0.206997
524.396534	0.207817
524.613032	0.208146
524.829513	0.208110
525.045975	0.209031
525.262420	0.209563
525.478845	0.209460
525.695253	0.208749
525.911643	0.208145
526.128014	0.208800
526.344367	0.209128
526.560702	0.208967
526.777018	0.209795
526.993316	0.209764
527.209597	0.209962
527.425858	0.209902
527.642102	0.209551
527.858328	0.210885
528.074535	0.210751
528.290724	0.210915
528.506894	0.212238
528.723047	0.212432
528.939181	0.212601
529.155297	0.213156
529.371395	0.214351
529.587475	0.215377
529.803536	0.214993
530.019579	0.215296
530.235604	0.215987
530.451611	0.215387
530.667600	0.215556
530.883570	0.216316
531.099522	0.216763
531.315456	0.216254
531.531372	0.216408
531.747269	0.217312
531.963148	0.218534
532.179009	0.219282
532.394852	0.219465
532.610676	0.220094
532.826482	0.220738
533.042271	0.221347
533.258040	0.222071
533.473792	0.221919
533.689525	0.221999
533.905240	0.221868
534.120937	0.221696
534.336616	0.222721
534.552277	0.222474
534.767919	0.223109
534.983543	0.223196
535.199149	0.223730
535.414736	0.224832
535.630306	0.224808
535.845857	0.224756
536.061390	0.225697
536.276904	0.225509
536.492401	0.225852
536.707879	0.225925
536.923339	0.226571
537.138781	0.227063
537.354204	0.227212
537.569610	0.228078
537.784997	0.228793
538.000366	0.228217
538.215716	0.229043
538.431049	0.229646
538.646363	0.230094
538.861659	0.230216
539.076937	0.230509
539.292196	0.231254
539.507438	0.232007
539.722661	0.233194
539.937866	0.234055
540.153052	0.234540
540.368221	0.235626
540.583371	0.235499
540.798503	0.235838
541.013617	0.235968
541.228712	0.236187
541.443789	0.236503
541.658848	0.236523
541.873889	0.237203
542.088912	0.237779
542.303916	0.237003
542.518902	0.237536
542.733870	0.237746
542.948820	0.238220
543.163752	0.238509
543.378665	0.238284
543.593560	0.238128
543.808437	0.237983
544.023295	0.237478
544.238136	0.238552
544.452958	0.238781
544.667762	0.239445
544.882548	0.239573
545.097315	0.240608
545.312064	0.241416
545.526795	0.241571
545.741508	0.242402
545.956203	0.243220
546.170879	0.243490
546.385537	0.243796
546.600177	0.243644
546.814799	0.243970
547.029402	0.243605
547.243988	0.243769
547.458555	0.244764
547.673103	0.244620
547.887634	0.244685
548.102146	0.245214
548.316640	0.245823
548.531116	0.246818
548.745574	0.247234
548.960013	0.247297
549.174435	0.247237
549.388838	0.247229
549.603222	0.247737
549.817589	0.248379
550.031937	0.247725
550.246267	0.248014
550.460579	0.248179
550.674873	0.248468
550.889148	0.248498
551.103405	0.249103
551.317644	0.249408
551.531865	0.249391
551.746068	0.249536
551.960252	0.250203
552.174418	0.250702
552.388566	0.250923
552.602696	0.251364
552.816807	0.252047
553.030900	0.251874
553.244975	0.251829
553.459032	0.251879
553.673070	0.251760
553.887091	0.251691
554.101093	0.251438
554.315077	0.251410
554.529042	0.251541
554.742990	0.251663
554.956919	0.251701
555.170830	0.251842
555.384722	0.252204
555.598597	0.252707
555.812453	0.253337
556.026291	0.253225
556.240111	0.253072
556.453913	0.253018
556.667696	0.252704
556.881461	0.253203
557.095208	0.253346
557.308937	0.254035
557.522647	0.253867
557.736339	0.253975
557.950013	0.254410
558.163669	0.254856
558.377307	0.255207
558.590926	0.256007
558.804527	0.256578
559.018110	0.256969
559.231675	0.256669
559.445221	0.257115
559.658749	0.257225
559.872259	0.257637
560.085751	0.257721
560.299225	0.257740
560.512680	0.258197
560.726117	0.257807
560.939536	0.257838
561.152937	0.258216
561.366319	0.258196
561.579683	0.258454
561.793029	0.258828
562.006357	0.258999
562.219667	0.259207
562.432958	0.259126
562.646231	0.259297
562.859486	0.259483
563.072723	0.259126
563.285941	0.259129
563.499141	0.259322
563.712323	0.259432
563.925487	0.259552
564.138632	0.259395
564.351760	0.259426
564.564869	0.259589
564.777960	0.259898
564.991032	0.260570
565.204087	0.260815
565.417123	0.260737
565.630141	0.260748
565.843140	0.261104
566.056122	0.261602
566.269085	0.262118
566.482030	0.262229
566.694957	0.262425
566.907866	0.262625
567.120756	0.263072
567.333628	0.263398
567.546482	0.263125
567.759318	0.263243
567.972135	0.263251
568.184935	0.262925
568.397716	0.263460
568.610478	0.263421
568.823223	0.263401
569.035949	0.263774
569.248657	0.263927
569.461347	0.264424
569.674019	0.264559
569.886672	0.264689
570.099308	0.264970
570.311925	0.265026
570.524523	0.265412
570.737104	0.265555
570.949666	0.265249
571.162210	0.265527
571.374736	0.265786
571.587244	0.266094
571.799733	0.266366
572.012205	0.266479
572.224658	0.266818
572.437092	0.266057
572.649509	0.266160
572.861907	0.265882
573.074287	0.266051
573.286649	0.265994
573.498993	0.266056
573.711318	0.266329
573.923625	0.266250
574.135914	0.266105
574.348185	0.267025
574.560438	0.267011
574.772672	0.267719
574.984888	0.267770
575.197086	0.267975
575.409266	0.268165
575.621427	0.268529
575.833570	0.269132
576.045695	0.269609
576.257802	0.269932
576.469890	0.270105
576.681961	0.270035
576.894013	0.269843
577.106046	0.270055
577.318062	0.269798
577.530059	0.269384
577.742039	0.269550
577.954000	0.269366
578.165942	0.269519
578.377867	0.270059
578.589773	0.270339
578.801661	0.270751
579.013531	0.270434
579.225382	0.270606
579.437216	0.270581
579.649031	0.270553
579.860828	0.271053
580.072606	0.271065
580.284367	0.271059
580.496109	0.271241
580.707833	0.271515
580.919539	0.272244
581.131227	0.272417
581.342896	0.273103
581.554547	0.273244
581.766180	0.272788
581.977795	0.273203
582.189391	0.273232
582.400969	0.273542
582.612529	0.273964
582.824071	0.274105
583.035595	0.274165
583.247100	0.274164
583.458587	0.273872
583.670056	0.274305
583.881506	0.274206
584.092939	0.274652
584.304353	0.274485
584.515749	0.274320
584.727127	0.274209
584.938486	0.274934
585.149828	0.275124
585.361151	0.275877
585.572456	0.276145
585.783742	0.276104
585.995011	0.276248
586.206261	0.276712
586.417493	0.276857
586.628706	0.277056
586.839902	0.277144
587.051079	0.277327
587.262238	0.277160
587.473379	0.277426
587.684502	0.277901
587.895606	0.277964
588.106692	0.278395
588.317760	0.278702
588.528810	0.278838
588.739841	0.279014
588.950855	0.279449
589.161850	0.280398
589.372827	0.280582
589.583785	0.280943
589.794726	0.281256
590.005648	0.281351
590.216552	0.281593
590.427437	0.282164
590.638305	0.282012
590.849154	0.282195
591.059985	0.281932
591.270798	0.282262
591.481592	0.282664
591.692369	0.283140
591.903127	0.283344
592.113867	0.283633
592.324588	0.283449
592.535292	0.283863
592.745977	0.284121
592.956644	0.284470
593.167293	0.284779
593.377923	0.284786
593.588536	0.284562
593.799130	0.284919
594.009706	0.285460
594.220263	0.285699
594.430803	0.286189
594.641324	0.285746
594.851827	0.285724
595.062312	0.285741
595.272778	0.286114
595.483227	0.286431
595.693657	0.286441
595.904069	0.286247
596.114462	0.286487
596.324838	0.286490
596.535195	0.287305
596.745534	0.287793
596.955855	0.288016
597.166157	0.288021
597.376441	0.287788
597.586707	0.288036
597.796955	0.287561
598.007185	0.287836
598.217396	0.288104
598.427589	0.288216
598.637764	0.288320
598.847921	0.288425
599.058060	0.288529
599.268180	0.288689
599.478282	0.288927
599.688366	0.289312
599.898431	0.289563
600.108479	0.289770
600.318508	0.290262
600.528519	0.290310
600.738511	0.290492
600.948486	0.291021
601.158442	0.291512
601.368380	0.291819
601.578300	0.292366
601.788202	0.292219
601.998085	0.292122
602.207950	0.292259
602.417797	0.292458
602.627626	0.292531
602.837436	0.292174
603.047228	0.292126
603.257002	0.292414
603.466758	0.292438
603.676496	0.293001
603.886215	0.293573
604.095916	0.293346
604.305599	0.293531
604.515264	0.294079
604.724910	0.294185
604.934538	0.294542
605.144148	0.293968
605.353740	0.294285
605.563314	0.294196
605.772869	0.294257
605.982406	0.294253
606.191925	0.294098
606.401425	0.293733
606.610908	0.294099
606.820372	0.294086
607.029818	0.294210
607.239246	0.294126
607.448655	0.294381
607.658047	0.294091
607.867420	0.294206
608.076775	0.294338
608.286111	0.294683
608.495430	0.294697
608.704730	0.294956
608.914012	0.295717
609.123275	0.295666
609.332521	0.295812
609.541748	0.295806
609.750957	0.296149
609.960148	0.296369
610.169321	0.296245
610.378475	0.296576
610.587611	0.296732
610.796729	0.296507
611.005829	0.297091
611.214910	0.297199
611.423974	0.297730
611.633019	0.298163
611.842045	0.298152
612.051054	0.298750
612.260044	0.298896
612.469017	0.299183
612.677970	0.299403
612.886906	0.299087
613.095824	0.299104
613.304723	0.299240
613.513604	0.299132
613.722467	0.299348
613.931311	0.299366
614.140138	0.299359
614.348946	0.299414
614.557736	0.299582
614.766507	0.300161
614.975261	0.300230
615.183996	0.300620
615.392713	0.300762
615.601412	0.301202
615.810092	0.301690
616.018754	0.301906
616.227399	0.302543
616.436024	0.303006
616.644632	0.303206
616.853222	0.303782
617.061793	0.304095
617.270346	0.304516
617.478880	0.304934
617.687397	0.304718
617.895895	0.304989
618.104375	0.304955
618.312837	0.304807
618.521281	0.304921
618.729706	0.304919
618.938113	0.304851
619.146502	0.304597
619.354873	0.304401
619.563226	0.304454
619.771560	0.304455
619.979876	0.304519
620.188174	0.304833
620.396453	0.304768
620.604715	0.304957
620.812958	0.305034
621.021183	0.305499
621.229390	0.305662
621.437578	0.305795
621.645748	0.306073
621.853900	0.305837
622.062034	0.305873
622.270150	0.306221
622.478247	0.306515
622.686326	0.306772
622.894387	0.306692
623.102430	0.306905
623.310454	0.307374
623.518461	0.307671
623.726449	0.308008
623.934418	0.308118
624.142370	0.308135
624.350303	0.307973
624.558218	0.307922
624.766115	0.308162
624.973994	0.308334
625.181855	0.308061
625.389697	0.307755
625.597521	0.308086
625.805327	0.308044
626.013114	0.308243
626.220883	0.308517
626.428634	0.308787
626.636367	0.309008
626.844082	0.309160
627.051778	0.309447
627.259457	0.309854
627.467117	0.310048
627.674758	0.310352
627.882382	0.310633
628.089987	0.311044
628.297574	0.311316
628.505143	0.311587
628.712694	0.311804
628.920226	0.312054
629.127740	0.312357
629.335236	0.312472
629.542714	0.312901
629.750174	0.312935
629.957615	0.312964
630.165038	0.313054
630.372443	0.313234
630.579829	0.313391
630.787198	0.313466
630.994548	0.313374
631.201880	0.313361
631.409194	0.313038
631.616489	0.313472
631.823766	0.313725
632.031025	0.313792
632.238266	0.314051
632.445489	0.314324
632.652693	0.314668
632.859879	0.314870
633.067047	0.315111
633.274197	0.315542
633.481329	0.315547
633.688442	0.315682
633.895537	0.315909
634.102614	0.316001
634.309672	0.316024
634.516713	0.316173
634.723735	0.316566
634.930739	0.316602
635.137724	0.317071
635.344692	0.317445
635.551641	0.317341
635.758572	0.317790
635.965485	0.317986
636.172379	0.318454
636.379256	0.318736
636.586114	0.319033
636.792954	0.319318
636.999775	0.319356
637.206579	0.319321
637.413364	0.319868
637.620131	0.320089
637.826880	0.320194
638.033610	0.320336
638.240323	0.320166
638.447017	0.320202
638.653692	0.320738
638.860350	0.321155
639.066990	0.321403
639.273611	0.321480
639.480214	0.321439
639.686798	0.321516
639.893365	0.321497
640.099913	0.322040
640.306443	0.322137
640.512955	0.322052
640.719449	0.321730
640.925924	0.321909
641.132381	0.322275
641.338820	0.322352
641.545241	0.322807
641.751644	0.323041
641.958028	0.323141
642.164394	0.323284
642.370742	0.323399
642.577071	0.323811
642.783383	0.324085
642.989676	0.324067
643.195951	0.324541
643.402207	0.324506
643.608446	0.324709
643.814666	0.325123
644.020868	0.325434
644.227052	0.325961
644.433218	0.326033
644.639365	0.326138
644.845494	0.326305
645.051605	0.326346
645.257698	0.326607
645.463772	0.326773
645.669828	0.326597
645.875866	0.326558
646.081886	0.326484
646.287888	0.326617
646.493871	0.326560
646.699836	0.326637
646.905783	0.326738
647.111712	0.326808
647.317622	0.327086
647.523514	0.327318
647.729388	0.327877
647.935244	0.328286
648.141082	0.328648
648.346901	0.328987
648.552702	0.329327
648.758485	0.329722
648.964250	0.330148
649.169996	0.330157
649.375724	0.330504
649.581434	0.330775
649.787126	0.330944
649.992800	0.330931
650.198455	0.331419
650.404092	0.331404
650.609711	0.331306
650.815311	0.331367
651.020894	0.331644
651.226458	0.331781
651.432004	0.332014
651.637532	0.331925
651.843041	0.332208
652.048532	0.332345
652.254006	0.332808
652.459460	0.333201
652.664897	0.333164
652.870315	0.333330
653.075716	0.333419
653.281097	0.333317
653.486461	0.333563
653.691807	0.333935
653.897134	0.334248
654.102443	0.334483
654.307734	0.334708
654.513006	0.335083
654.718261	0.335291
654.923497	0.335610
655.128715	0.335885
655.333915	0.336278
655.539096	0.336701
655.744259	0.336623
655.949404	0.336569
656.154531	0.336665
656.359640	0.336795
656.564730	0.337114
656.769802	0.337354
656.974856	0.337644
657.179892	0.337899
657.384909	0.337766
657.589908	0.337980
657.794889	0.338602
657.999852	0.338951
658.204797	0.339563
658.409723	0.339701
658.614631	0.339739
658.819521	0.339752
659.024393	0.340090
659.229246	0.340710
659.434081	0.340968
659.638898	0.340987
659.843697	0.341341
660.048478	0.341467
660.253240	0.341839
660.457984	0.342260
660.662710	0.342679
660.867417	0.342790
661.072107	0.342735
661.276778	0.343111
661.481431	0.343023
661.686066	0.343099
661.890682	0.343148
662.095281	0.343326
662.299861	0.343574
662.504422	0.343924
662.708966	0.344114
662.913491	0.344601
663.117999	0.344766
663.322488	0.345192
663.526958	0.345279
663.731411	0.345595
663.935845	0.345740
664.140261	0.346062
664.344659	0.346148
664.549038	0.346166
664.753400	0.346326
664.957743	0.346379
665.162068	0.347069
665.366375	0.347365
665.570663	0.347443
665.774933	0.347859
665.979185	0.347923
666.183419	0.347923
666.387635	0.348450
666.591832	0.348592
666.796011	0.348983
667.000172	0.348614
667.204315	0.349089
667.408439	0.349520
667.612545	0.349868
667.816634	0.350259
668.020703	0.350864
668.224755	0.351056
668.428788	0.351197
668.632803	0.351477
668.836800	0.352339
669.040779	0.352447
669.244739	0.352629
669.448681	0.352838
669.652605	0.353188
669.856511	0.353507
670.060399	0.353718
670.264268	0.353833
670.468119	0.353928
670.671952	0.353805
670.875767	0.354121
671.079563	0.354430
671.283341	0.354513
671.487101	0.354727
671.690843	0.354560
671.894567	0.354879
672.098272	0.355240
672.301959	0.355551
672.505628	0.355726
672.709278	0.355934
672.912911	0.356223
673.116525	0.356353
673.320121	0.356438
673.523699	0.356940
673.727258	0.357120
673.930799	0.357508
674.134322	0.357671
674.337827	0.357991
674.541314	0.358298
674.744782	0.358528
674.948232	0.358595
675.151664	0.358940
675.355078	0.359242
675.558474	0.359415
675.761851	0.359727
675.965210	0.360177
676.168551	0.360354
676.371873	0.360488
676.575178	0.360623
676.778464	0.361048
676.981732	0.361277
677.184981	0.361602
677.388213	0.361990
677.591426	0.362073
677.794621	0.362305
677.997798	0.362558
678.200956	0.362714
678.404097	0.362981
678.607219	0.363153
678.810323	0.363061
679.013408	0.363054
679.216476	0.363164
679.419525	0.363428
679.622556	0.363627
679.825569	0.363887
680.028563	0.364352
680.231540	0.364490
680.434498	0.364987
680.637438	0.365452
680.840359	0.365691
681.043263	0.365780
681.246148	0.365982
681.449015	0.366105
681.651864	0.366352
681.854694	0.366328
682.057506	0.366495
682.260301	0.366602
682.463076	0.366840
682.665834	0.367087
682.868573	0.367568
683.071295	0.367983
683.273998	0.368287
683.476682	0.368494
683.679349	0.368455
683.881997	0.368768
684.084627	0.368723
684.287239	0.368912
684.489833	0.368888
684.692408	0.368970
684.894965	0.368749
685.097504	0.368790
685.300025	0.369274
685.502527	0.369727
685.705012	0.369844
685.907478	0.370298
686.109925	0.370265
686.312355	0.370647
686.514766	0.370956
686.717159	0.371477
686.919534	0.371720
687.121891	0.371574
687.324230	0.371496
687.526550	0.371926
687.728852	0.371816
687.931136	0.372351
688.133401	0.372750
688.335649	0.372977
688.537878	0.373276
688.740089	0.373744
688.942281	0.374054
689.144456	0.374491
689.346612	0.374600
689.548750	0.375108
689.750870	0.375066
689.952971	0.375222
690.155055	0.375346
690.357120	0.375522
690.559167	0.375474
690.761195	0.375762
690.963206	0.376109
691.165198	0.376173
691.367172	0.376093
691.569128	0.376330
691.771065	0.376368
691.972984	0.376478
692.174885	0.376622
692.376768	0.377069
692.578633	0.377132
692.780479	0.377200
692.982308	0.377260
693.184118	0.377509
693.385909	0.377778
