sample name	sample
index	297
start time	 02-25-2021  01:06:15 PM


Wavelength (nm)	Absorbance
494.344910	-0.101949
494.563924	-0.101949
494.782919	-0.101949
495.001897	0.155438
495.220856	-0.116956
495.439797	-0.136118
495.658719	-0.146085
495.877624	-0.066828
496.096510	-0.083534
496.315378	0.039249
496.534227	0.013626
496.753059	0.021686
496.971872	-0.051830
497.190667	0.088432
497.409444	0.088978
497.628203	0.091148
497.846943	0.088630
498.065665	0.087360
498.284369	0.087802
498.503055	0.086396
498.721723	0.086009
498.940372	0.086110
499.159003	0.084852
499.377616	0.084278
499.596210	0.083912
499.814787	0.084191
500.033345	0.083846
500.251885	0.083056
500.470406	0.083810
500.688910	0.083093
500.907395	0.082689
501.125862	0.082713
501.344311	0.082835
501.562742	0.081962
501.781154	0.081850
501.999548	0.082770
502.217924	0.082887
502.436282	0.082027
502.654621	0.083425
502.872942	0.084086
503.091245	0.084116
503.309530	0.084429
503.527797	0.085058
503.746045	0.084437
503.964275	0.084499
504.182487	0.085506
504.400681	0.087100
504.618856	0.086342
504.837013	0.087004
505.055152	0.087607
505.273273	0.087387
505.491376	0.087922
505.709460	0.089174
505.927526	0.089390
506.145574	0.088125
506.363604	0.087834
506.581615	0.087710
506.799608	0.086316
507.017583	0.085742
507.235540	0.086772
507.453478	0.087192
507.671399	0.085971
507.889301	0.085850
508.107185	0.086600
508.325050	0.085934
508.542898	0.086978
508.760727	0.087653
508.978538	0.088608
509.196330	0.088198
509.414105	0.088042
509.631861	0.089385
509.849599	0.090043
510.067319	0.090083
510.285021	0.090366
510.502704	0.090636
510.720369	0.090887
510.938016	0.090380
511.155645	0.090926
511.373255	0.090146
511.590848	0.089409
511.808422	0.088857
512.025977	0.090020
512.243515	0.090874
512.461034	0.089537
512.678536	0.090048
512.896018	0.090831
513.113483	0.089719
513.330930	0.091179
513.548358	0.091792
513.765768	0.091959
513.983160	0.091690
514.200533	0.091067
514.417889	0.092056
514.635226	0.092101
514.852545	0.092835
515.069845	0.093477
515.287128	0.092756
515.504392	0.092932
515.721638	0.093342
515.938866	0.093030
516.156075	0.094173
516.373267	0.094708
516.590440	0.094621
516.807594	0.094102
517.024731	0.095174
517.241850	0.095354
517.458950	0.095257
517.676032	0.094888
517.893095	0.095599
518.110141	0.095378
518.327168	0.095616
518.544177	0.096506
518.761168	0.096913
518.978141	0.096866
519.195095	0.097021
519.412031	0.096939
519.628949	0.098127
519.845849	0.097522
520.062731	0.098019
520.279594	0.098029
520.496439	0.097739
520.713266	0.097951
520.930074	0.097699
521.146865	0.098434
521.363637	0.098940
521.580391	0.099069
521.797127	0.100101
522.013844	0.099909
522.230543	0.100444
522.447224	0.100978
522.663887	0.100915
522.880532	0.100910
523.097158	0.101184
523.313766	0.101003
523.530356	0.101674
523.746928	0.101823
523.963481	0.102438
524.180017	0.102327
524.396534	0.101931
524.613032	0.102425
524.829513	0.102662
525.045975	0.102759
525.262420	0.103734
525.478845	0.103430
525.695253	0.103262
525.911643	0.103551
526.128014	0.103609
526.344367	0.103965
526.560702	0.103853
526.777018	0.104591
526.993316	0.103992
527.209597	0.104190
527.425858	0.104449
527.642102	0.104681
527.858328	0.105293
528.074535	0.105936
528.290724	0.106875
528.506894	0.106644
528.723047	0.107095
528.939181	0.107838
529.155297	0.107833
529.371395	0.108067
529.587475	0.108834
529.803536	0.108221
530.019579	0.108939
530.235604	0.108959
530.451611	0.109990
530.667600	0.109727
530.883570	0.110618
531.099522	0.111399
531.315456	0.111391
531.531372	0.111560
531.747269	0.112477
531.963148	0.111920
532.179009	0.111880
532.394852	0.112485
532.610676	0.113071
532.826482	0.113168
533.042271	0.112984
533.258040	0.113456
533.473792	0.113585
533.689525	0.113955
533.905240	0.114284
534.120937	0.114753
534.336616	0.114606
534.552277	0.115021
534.767919	0.115461
534.983543	0.116083
535.199149	0.116193
535.414736	0.116542
535.630306	0.116329
535.845857	0.116920
536.061390	0.117237
536.276904	0.117710
536.492401	0.118142
536.707879	0.118264
536.923339	0.118235
537.138781	0.118456
537.354204	0.118412
537.569610	0.118439
537.784997	0.118749
538.000366	0.119018
538.215716	0.118958
538.431049	0.119017
538.646363	0.119111
538.861659	0.119366
539.076937	0.119892
539.292196	0.120627
539.507438	0.121350
539.722661	0.121434
539.937866	0.122165
540.153052	0.122723
540.368221	0.122627
540.583371	0.123034
540.798503	0.123300
541.013617	0.123781
541.228712	0.123484
541.443789	0.123848
541.658848	0.124206
541.873889	0.124344
542.088912	0.124542
542.303916	0.124739
542.518902	0.124925
542.733870	0.124995
542.948820	0.125207
543.163752	0.125645
543.378665	0.126376
543.593560	0.126728
543.808437	0.126850
544.023295	0.126722
544.238136	0.127124
544.452958	0.127417
544.667762	0.128315
544.882548	0.128441
545.097315	0.129334
545.312064	0.128979
545.526795	0.128835
545.741508	0.128970
545.956203	0.129660
546.170879	0.130034
546.385537	0.130574
546.600177	0.130761
546.814799	0.130992
547.029402	0.131153
547.243988	0.131532
547.458555	0.132043
547.673103	0.132572
547.887634	0.132845
548.102146	0.133188
548.316640	0.133059
548.531116	0.133513
548.745574	0.133842
548.960013	0.133785
549.174435	0.133712
549.388838	0.134257
549.603222	0.134322
549.817589	0.134654
550.031937	0.134860
550.246267	0.135156
550.460579	0.134869
550.674873	0.134940
550.889148	0.135122
551.103405	0.135844
551.317644	0.135726
551.531865	0.135820
551.746068	0.135800
551.960252	0.136220
552.174418	0.136495
552.388566	0.137076
552.602696	0.137275
552.816807	0.137559
553.030900	0.137411
553.244975	0.137587
553.459032	0.137767
553.673070	0.138151
553.887091	0.138328
554.101093	0.138702
554.315077	0.138642
554.529042	0.139530
554.742990	0.139803
554.956919	0.140335
555.170830	0.140880
555.384722	0.141221
555.598597	0.141272
555.812453	0.141578
556.026291	0.141682
556.240111	0.142193
556.453913	0.141685
556.667696	0.142007
556.881461	0.142039
557.095208	0.141849
557.308937	0.141994
557.522647	0.142048
557.736339	0.141634
557.950013	0.141659
558.163669	0.141756
558.377307	0.142135
558.590926	0.142384
558.804527	0.142584
559.018110	0.142948
559.231675	0.143212
559.445221	0.144001
559.658749	0.144699
559.872259	0.144903
560.085751	0.145005
560.299225	0.144817
560.512680	0.144996
560.726117	0.145426
560.939536	0.145717
561.152937	0.146198
561.366319	0.146005
561.579683	0.146082
561.793029	0.146151
562.006357	0.146644
562.219667	0.147178
562.432958	0.147021
562.646231	0.147374
562.859486	0.147725
563.072723	0.147632
563.285941	0.147597
563.499141	0.147811
563.712323	0.148849
563.925487	0.148709
564.138632	0.148994
564.351760	0.149284
564.564869	0.149062
564.777960	0.148940
564.991032	0.149111
565.204087	0.149388
565.417123	0.149787
565.630141	0.149515
565.843140	0.149731
566.056122	0.149986
566.269085	0.149873
566.482030	0.150223
566.694957	0.150535
566.907866	0.150675
567.120756	0.151164
567.333628	0.151031
567.546482	0.150866
567.759318	0.150809
567.972135	0.150894
568.184935	0.151602
568.397716	0.151420
568.610478	0.151821
568.823223	0.152108
569.035949	0.152133
569.248657	0.152370
569.461347	0.152771
569.674019	0.153118
569.886672	0.153157
570.099308	0.152888
570.311925	0.152990
570.524523	0.153041
570.737104	0.153111
570.949666	0.152934
571.162210	0.153174
571.374736	0.153310
571.587244	0.153700
571.799733	0.153919
572.012205	0.154129
572.224658	0.154387
572.437092	0.154331
572.649509	0.154415
572.861907	0.154814
573.074287	0.154858
573.286649	0.155044
573.498993	0.155108
573.711318	0.155182
573.923625	0.155712
574.135914	0.155975
574.348185	0.156105
574.560438	0.156542
574.772672	0.156827
574.984888	0.157380
575.197086	0.157392
575.409266	0.157467
575.621427	0.157781
575.833570	0.157722
576.045695	0.158163
576.257802	0.158514
576.469890	0.158555
576.681961	0.158851
576.894013	0.158483
577.106046	0.158904
577.318062	0.159000
577.530059	0.159158
577.742039	0.159400
577.954000	0.159389
578.165942	0.159402
578.377867	0.159471
578.589773	0.159427
578.801661	0.160159
579.013531	0.160252
579.225382	0.160777
579.437216	0.161098
579.649031	0.161285
579.860828	0.161547
580.072606	0.161692
580.284367	0.161855
580.496109	0.161842
580.707833	0.161706
580.919539	0.161889
581.131227	0.162004
581.342896	0.161986
581.554547	0.162222
581.766180	0.162486
581.977795	0.163139
582.189391	0.163386
582.400969	0.164061
582.612529	0.164399
582.824071	0.164829
583.035595	0.165114
583.247100	0.165533
583.458587	0.165827
583.670056	0.166135
583.881506	0.166095
584.092939	0.166385
584.304353	0.166664
584.515749	0.166802
584.727127	0.166834
584.938486	0.166909
585.149828	0.167011
585.361151	0.167210
585.572456	0.167069
585.783742	0.167181
585.995011	0.167487
586.206261	0.167355
586.417493	0.167742
586.628706	0.167737
586.839902	0.168030
587.051079	0.168399
587.262238	0.168305
587.473379	0.168781
587.684502	0.168708
587.895606	0.168922
588.106692	0.169428
588.317760	0.169129
588.528810	0.169498
588.739841	0.169459
588.950855	0.169361
589.161850	0.169670
589.372827	0.169587
589.583785	0.169957
589.794726	0.169763
590.005648	0.169951
590.216552	0.170516
590.427437	0.170423
590.638305	0.170566
590.849154	0.170962
591.059985	0.170968
591.270798	0.171281
591.481592	0.171778
591.692369	0.172183
591.903127	0.172035
592.113867	0.172402
592.324588	0.172868
592.535292	0.173139
592.745977	0.173052
592.956644	0.173308
593.167293	0.173561
593.377923	0.173566
593.588536	0.174138
593.799130	0.174540
594.009706	0.174108
594.220263	0.174287
594.430803	0.174622
594.641324	0.175229
594.851827	0.175652
595.062312	0.175929
595.272778	0.176104
595.483227	0.175756
595.693657	0.176060
595.904069	0.176841
596.114462	0.176799
596.324838	0.177057
596.535195	0.176904
596.745534	0.177208
596.955855	0.177152
597.166157	0.177566
597.376441	0.177861
597.586707	0.177596
597.796955	0.177260
598.007185	0.177657
598.217396	0.177687
598.427589	0.177759
598.637764	0.177652
598.847921	0.177628
599.058060	0.177459
599.268180	0.177665
599.478282	0.178118
599.688366	0.178427
599.898431	0.178625
600.108479	0.178660
600.318508	0.178970
600.528519	0.179154
600.738511	0.179493
600.948486	0.179880
601.158442	0.179868
601.368380	0.179764
601.578300	0.179891
601.788202	0.179785
601.998085	0.180108
602.207950	0.180741
602.417797	0.181118
602.627626	0.181245
602.837436	0.181340
603.047228	0.181525
603.257002	0.182085
603.466758	0.182338
603.676496	0.183004
603.886215	0.183145
604.095916	0.182562
604.305599	0.182788
604.515264	0.182987
604.724910	0.183185
604.934538	0.183877
605.144148	0.183909
605.353740	0.184136
605.563314	0.184299
605.772869	0.184468
605.982406	0.184870
606.191925	0.184475
606.401425	0.184796
606.610908	0.185212
606.820372	0.184958
607.029818	0.185031
607.239246	0.185318
607.448655	0.185209
607.658047	0.185041
607.867420	0.184901
608.076775	0.185311
608.286111	0.185258
608.495430	0.185105
608.704730	0.185248
608.914012	0.185488
609.123275	0.185200
609.332521	0.185127
609.541748	0.185670
609.750957	0.185913
609.960148	0.186171
610.169321	0.186422
610.378475	0.186438
610.587611	0.186533
610.796729	0.186539
611.005829	0.187208
611.214910	0.187676
611.423974	0.187632
611.633019	0.188087
611.842045	0.188439
612.051054	0.188786
612.260044	0.189177
612.469017	0.189586
612.677970	0.190036
612.886906	0.190018
613.095824	0.189906
613.304723	0.190176
613.513604	0.190434
613.722467	0.190509
613.931311	0.190633
614.140138	0.190790
614.348946	0.191007
614.557736	0.190889
614.766507	0.191206
614.975261	0.191502
615.183996	0.191778
615.392713	0.191985
615.601412	0.192107
615.810092	0.192107
616.018754	0.192434
616.227399	0.192440
616.436024	0.192607
616.644632	0.192632
616.853222	0.192572
617.061793	0.192530
617.270346	0.192401
617.478880	0.192629
617.687397	0.192980
617.895895	0.192984
618.104375	0.193090
618.312837	0.193146
618.521281	0.193314
618.729706	0.193645
618.938113	0.193715
619.146502	0.193948
619.354873	0.193997
619.563226	0.193965
619.771560	0.194021
619.979876	0.194075
620.188174	0.194369
620.396453	0.194521
620.604715	0.194815
620.812958	0.195148
621.021183	0.195504
621.229390	0.195835
621.437578	0.196272
621.645748	0.196455
621.853900	0.196806
622.062034	0.197012
622.270150	0.197040
622.478247	0.197235
622.686326	0.197397
622.894387	0.197519
623.102430	0.197695
623.310454	0.197608
623.518461	0.197818
623.726449	0.198183
623.934418	0.198563
624.142370	0.198916
624.350303	0.199222
624.558218	0.199392
624.766115	0.199433
624.973994	0.199516
625.181855	0.199790
625.389697	0.200102
625.597521	0.200024
625.805327	0.200167
626.013114	0.200367
626.220883	0.200423
626.428634	0.200696
626.636367	0.201160
626.844082	0.201167
627.051778	0.201697
627.259457	0.201887
627.467117	0.202379
627.674758	0.202547
627.882382	0.202554
628.089987	0.202783
628.297574	0.202607
628.505143	0.202302
628.712694	0.202362
628.920226	0.202140
629.127740	0.202132
629.335236	0.202169
629.542714	0.202207
629.750174	0.202134
629.957615	0.202036
630.165038	0.202555
630.372443	0.202914
630.579829	0.203372
630.787198	0.203311
630.994548	0.203486
631.201880	0.203643
631.409194	0.203561
631.616489	0.203879
631.823766	0.203948
632.031025	0.203788
632.238266	0.203852
632.445489	0.204158
632.652693	0.204538
632.859879	0.204501
633.067047	0.204540
633.274197	0.204872
633.481329	0.205196
633.688442	0.205499
633.895537	0.205838
634.102614	0.206070
634.309672	0.206028
634.516713	0.206220
634.723735	0.206631
634.930739	0.206729
635.137724	0.206882
635.344692	0.206999
635.551641	0.207091
635.758572	0.207379
635.965485	0.207398
636.172379	0.207563
636.379256	0.207630
636.586114	0.207660
636.792954	0.207821
636.999775	0.207863
637.206579	0.207963
637.413364	0.208394
637.620131	0.208602
637.826880	0.209037
638.033610	0.209101
638.240323	0.209181
638.447017	0.209123
638.653692	0.209457
638.860350	0.209842
639.066990	0.210211
639.273611	0.210232
639.480214	0.210345
639.686798	0.210627
639.893365	0.210837
640.099913	0.211086
640.306443	0.211518
640.512955	0.211695
640.719449	0.212040
640.925924	0.212310
641.132381	0.212656
641.338820	0.212800
641.545241	0.212659
641.751644	0.212805
641.958028	0.213256
642.164394	0.213505
642.370742	0.213753
642.577071	0.213786
642.783383	0.214098
642.989676	0.214272
643.195951	0.214410
643.402207	0.214800
643.608446	0.215099
643.814666	0.215168
644.020868	0.215465
644.227052	0.215314
644.433218	0.215463
644.639365	0.215463
644.845494	0.215662
645.051605	0.216002
645.257698	0.216074
645.463772	0.216371
645.669828	0.216587
645.875866	0.216537
646.081886	0.216928
646.287888	0.217176
646.493871	0.217217
646.699836	0.217315
646.905783	0.217624
647.111712	0.217971
647.317622	0.218078
647.523514	0.218319
647.729388	0.218648
647.935244	0.218600
648.141082	0.218901
648.346901	0.219109
648.552702	0.219227
648.758485	0.219299
648.964250	0.219605
649.169996	0.219686
649.375724	0.219754
649.581434	0.220024
649.787126	0.220682
649.992800	0.220898
650.198455	0.221322
650.404092	0.221595
650.609711	0.221667
650.815311	0.221642
651.020894	0.221857
651.226458	0.222162
651.432004	0.222219
651.637532	0.222358
651.843041	0.222487
652.048532	0.222368
652.254006	0.222522
652.459460	0.222841
652.664897	0.223055
652.870315	0.223443
653.075716	0.223574
653.281097	0.224064
653.486461	0.224026
653.691807	0.224033
653.897134	0.224611
654.102443	0.224702
654.307734	0.224919
654.513006	0.225105
654.718261	0.225160
654.923497	0.225465
655.128715	0.225557
655.333915	0.225957
655.539096	0.226408
655.744259	0.226280
655.949404	0.226758
656.154531	0.226783
656.359640	0.227178
656.564730	0.227444
656.769802	0.227566
656.974856	0.227648
657.179892	0.227737
657.384909	0.227711
657.589908	0.228136
657.794889	0.228492
657.999852	0.228970
658.204797	0.229337
658.409723	0.229641
658.614631	0.229904
658.819521	0.230317
659.024393	0.230745
659.229246	0.231143
659.434081	0.231455
659.638898	0.231484
659.843697	0.231735
660.048478	0.231790
660.253240	0.232030
660.457984	0.232246
660.662710	0.232297
660.867417	0.232433
661.072107	0.232465
661.276778	0.232463
661.481431	0.232816
661.686066	0.232833
661.890682	0.232984
662.095281	0.233044
662.299861	0.233303
662.504422	0.233722
662.708966	0.233807
662.913491	0.234273
663.117999	0.234630
663.322488	0.234829
663.526958	0.235079
663.731411	0.235254
663.935845	0.235605
664.140261	0.235997
664.344659	0.236260
664.549038	0.236642
664.753400	0.236640
664.957743	0.236871
665.162068	0.237108
665.366375	0.237228
665.570663	0.237517
665.774933	0.237740
665.979185	0.237586
666.183419	0.237677
666.387635	0.237986
666.591832	0.238361
666.796011	0.238696
667.000172	0.238867
667.204315	0.239036
667.408439	0.239379
667.612545	0.239622
667.816634	0.240046
668.020703	0.240207
668.224755	0.240229
668.428788	0.240477
668.632803	0.240523
668.836800	0.240546
669.040779	0.241085
669.244739	0.240929
669.448681	0.241068
669.652605	0.241530
669.856511	0.241927
670.060399	0.242391
670.264268	0.242686
670.468119	0.242937
670.671952	0.243389
670.875767	0.243423
671.079563	0.243976
671.283341	0.244446
671.487101	0.244562
671.690843	0.244799
671.894567	0.244775
672.098272	0.244745
672.301959	0.244894
672.505628	0.245169
672.709278	0.245729
672.912911	0.245863
673.116525	0.245877
673.320121	0.246083
673.523699	0.246141
673.727258	0.246469
673.930799	0.246823
674.134322	0.247401
674.337827	0.247742
674.541314	0.247838
674.744782	0.248321
674.948232	0.248643
675.151664	0.248925
675.355078	0.249302
675.558474	0.249556
675.761851	0.250146
675.965210	0.250343
676.168551	0.250630
676.371873	0.250807
676.575178	0.250969
676.778464	0.251220
676.981732	0.251317
677.184981	0.251630
677.388213	0.251756
677.591426	0.251475
677.794621	0.251574
677.997798	0.251460
678.200956	0.251823
678.404097	0.252284
678.607219	0.252643
678.810323	0.253099
679.013408	0.253299
679.216476	0.253776
679.419525	0.254339
679.622556	0.254715
679.825569	0.255261
680.028563	0.255326
680.231540	0.255207
680.434498	0.255334
680.637438	0.255219
680.840359	0.255453
681.043263	0.255776
681.246148	0.256063
681.449015	0.256259
681.651864	0.256431
681.854694	0.256635
682.057506	0.256886
682.260301	0.257117
682.463076	0.257220
682.665834	0.257486
682.868573	0.257648
683.071295	0.257652
683.273998	0.257789
683.476682	0.257967
683.679349	0.258128
683.881997	0.258221
684.084627	0.258220
684.287239	0.258692
684.489833	0.258815
684.692408	0.258617
684.894965	0.258922
685.097504	0.258927
685.300025	0.258798
685.502527	0.258934
685.705012	0.258966
685.907478	0.259290
686.109925	0.259365
686.312355	0.259477
686.514766	0.259899
686.717159	0.260094
686.919534	0.260448
687.121891	0.260570
687.324230	0.261000
687.526550	0.261390
687.728852	0.261443
687.931136	0.261691
688.133401	0.261669
688.335649	0.261731
688.537878	0.261835
688.740089	0.261854
688.942281	0.262106
689.144456	0.262189
689.346612	0.262447
689.548750	0.262774
689.750870	0.262943
689.952971	0.263405
690.155055	0.263677
690.357120	0.263933
690.559167	0.264078
690.761195	0.264419
690.963206	0.264670
691.165198	0.264719
691.367172	0.264903
691.569128	0.264999
691.771065	0.265117
691.972984	0.265335
692.174885	0.265449
692.376768	0.266055
692.578633	0.266142
692.780479	0.266174
692.982308	0.266574
693.184118	0.266802
693.385909	0.267056
