sample name	sample
index	605
start time	 03-16-2021  05:25:02 PM


Wavelength (nm)	Absorbance
494.344910	NaN
494.563924	NaN
494.782919	NaN
495.001897	-1.379645
495.220856	-0.094549
495.439797	-0.112316
495.658719	-0.158321
495.877624	-0.173911
496.096510	-0.104606
496.315378	-0.075243
496.534227	-0.077936
496.753059	-0.065264
496.971872	-0.006990
497.190667	0.126218
497.409444	0.141904
497.628203	0.143713
497.846943	0.145965
498.065665	0.147534
498.284369	0.147730
498.503055	0.148877
498.721723	0.147980
498.940372	0.147582
499.159003	0.147624
499.377616	0.147507
499.596210	0.147009
499.814787	0.147735
500.033345	0.145632
500.251885	0.144777
500.470406	0.144722
500.688910	0.145262
500.907395	0.145785
501.125862	0.146387
501.344311	0.145359
501.562742	0.146422
501.781154	0.144755
501.999548	0.145849
502.217924	0.146295
502.436282	0.145804
502.654621	0.146170
502.872942	0.146546
503.091245	0.144750
503.309530	0.144439
503.527797	0.144708
503.746045	0.144034
503.964275	0.144069
504.182487	0.144889
504.400681	0.144677
504.618856	0.144107
504.837013	0.142331
505.055152	0.144149
505.273273	0.145009
505.491376	0.144990
505.709460	0.147325
505.927526	0.147596
506.145574	0.147675
506.363604	0.148917
506.581615	0.149451
506.799608	0.150801
507.017583	0.149503
507.235540	0.149459
507.453478	0.150070
507.671399	0.147778
507.889301	0.148210
508.107185	0.147545
508.325050	0.146110
508.542898	0.146139
508.760727	0.146857
508.978538	0.148029
509.196330	0.148217
509.414105	0.147597
509.631861	0.149120
509.849599	0.148441
510.067319	0.149056
510.285021	0.150474
510.502704	0.150000
510.720369	0.149051
510.938016	0.149480
511.155645	0.149822
511.373255	0.150984
511.590848	0.151145
511.808422	0.152581
512.025977	0.152398
512.243515	0.152683
512.461034	0.152150
512.678536	0.151792
512.896018	0.151590
513.113483	0.151606
513.330930	0.150748
513.548358	0.150395
513.765768	0.150896
513.983160	0.151648
514.200533	0.151345
514.417889	0.153514
514.635226	0.154944
514.852545	0.154922
515.069845	0.155381
515.287128	0.155595
515.504392	0.155620
515.721638	0.154101
515.938866	0.155081
516.156075	0.155474
516.373267	0.154582
516.590440	0.154373
516.807594	0.154398
517.024731	0.154517
517.241850	0.154518
517.458950	0.155496
517.676032	0.156960
517.893095	0.155920
518.110141	0.155561
518.327168	0.156261
518.544177	0.157291
518.761168	0.157996
518.978141	0.157699
519.195095	0.157430
519.412031	0.157638
519.628949	0.156956
519.845849	0.157919
520.062731	0.158639
520.279594	0.158711
520.496439	0.158425
520.713266	0.158138
520.930074	0.158964
521.146865	0.160611
521.363637	0.160901
521.580391	0.161188
521.797127	0.161267
522.013844	0.161853
522.230543	0.161443
522.447224	0.162067
522.663887	0.161851
522.880532	0.161957
523.097158	0.161326
523.313766	0.161540
523.530356	0.161823
523.746928	0.162259
523.963481	0.162233
524.180017	0.163245
524.396534	0.163677
524.613032	0.164770
524.829513	0.165473
525.045975	0.166119
525.262420	0.165984
525.478845	0.166627
525.695253	0.166684
525.911643	0.167767
526.128014	0.168083
526.344367	0.167775
526.560702	0.167693
526.777018	0.167587
526.993316	0.168173
527.209597	0.168779
527.425858	0.168732
527.642102	0.168752
527.858328	0.168589
528.074535	0.169196
528.290724	0.169634
528.506894	0.170424
528.723047	0.170263
528.939181	0.170348
529.155297	0.170493
529.371395	0.171247
529.587475	0.171055
529.803536	0.171069
530.019579	0.170408
530.235604	0.170555
530.451611	0.171269
530.667600	0.172210
530.883570	0.172499
531.099522	0.172678
531.315456	0.173883
531.531372	0.174496
531.747269	0.174882
531.963148	0.175727
532.179009	0.176030
532.394852	0.175468
532.610676	0.175538
532.826482	0.175863
533.042271	0.176869
533.258040	0.176278
533.473792	0.177736
533.689525	0.177521
533.905240	0.178214
534.120937	0.178251
534.336616	0.178391
534.552277	0.179105
534.767919	0.179895
534.983543	0.179767
535.199149	0.179948
535.414736	0.178964
535.630306	0.179458
535.845857	0.178964
536.061390	0.179100
536.276904	0.180372
536.492401	0.179644
536.707879	0.179582
536.923339	0.179522
537.138781	0.179597
537.354204	0.180293
537.569610	0.180882
537.784997	0.181440
538.000366	0.182458
538.215716	0.181929
538.431049	0.182952
538.646363	0.182866
538.861659	0.183637
539.076937	0.184165
539.292196	0.184221
539.507438	0.184052
539.722661	0.184707
539.937866	0.183944
540.153052	0.184660
540.368221	0.185474
540.583371	0.185618
540.798503	0.185879
541.013617	0.186295
541.228712	0.186895
541.443789	0.187295
541.658848	0.187570
541.873889	0.189108
542.088912	0.189980
542.303916	0.189760
542.518902	0.190720
542.733870	0.190775
542.948820	0.191092
543.163752	0.191154
543.378665	0.191556
543.593560	0.191711
543.808437	0.191284
544.023295	0.191001
544.238136	0.190942
544.452958	0.191381
544.667762	0.191830
544.882548	0.191749
545.097315	0.191909
545.312064	0.192246
545.526795	0.192519
545.741508	0.193212
545.956203	0.193721
546.170879	0.194735
546.385537	0.194321
546.600177	0.194704
546.814799	0.194974
547.029402	0.195455
547.243988	0.195385
547.458555	0.195516
547.673103	0.195543
547.887634	0.195349
548.102146	0.194713
548.316640	0.195336
548.531116	0.195407
548.745574	0.195281
548.960013	0.195416
549.174435	0.196083
549.388838	0.196293
549.603222	0.196611
549.817589	0.197249
550.031937	0.198249
550.246267	0.198558
550.460579	0.198622
550.674873	0.199478
550.889148	0.200170
551.103405	0.200433
551.317644	0.200482
551.531865	0.200233
551.746068	0.200256
551.960252	0.199777
552.174418	0.199784
552.388566	0.200269
552.602696	0.200844
552.816807	0.200651
553.030900	0.201068
553.244975	0.201360
553.459032	0.202065
553.673070	0.202662
553.887091	0.203149
554.101093	0.203185
554.315077	0.203337
554.529042	0.203014
554.742990	0.203061
554.956919	0.202727
555.170830	0.202933
555.384722	0.202597
555.598597	0.202510
555.812453	0.202636
556.026291	0.202943
556.240111	0.202812
556.453913	0.202937
556.667696	0.203558
556.881461	0.203903
557.095208	0.204438
557.308937	0.204906
557.522647	0.204647
557.736339	0.204951
557.950013	0.205297
558.163669	0.205826
558.377307	0.206146
558.590926	0.206291
558.804527	0.206645
559.018110	0.206783
559.231675	0.206839
559.445221	0.207170
559.658749	0.207204
559.872259	0.207251
560.085751	0.207240
560.299225	0.206865
560.512680	0.206744
560.726117	0.206625
560.939536	0.206725
561.152937	0.207265
561.366319	0.207607
561.579683	0.207825
561.793029	0.207690
562.006357	0.207577
562.219667	0.207921
562.432958	0.208508
562.646231	0.208719
562.859486	0.208787
563.072723	0.208824
563.285941	0.208753
563.499141	0.208960
563.712323	0.209250
563.925487	0.209788
564.138632	0.210044
564.351760	0.209993
564.564869	0.209924
564.777960	0.209763
564.991032	0.209736
565.204087	0.210276
565.417123	0.210288
565.630141	0.210891
565.843140	0.210858
566.056122	0.211272
566.269085	0.211409
566.482030	0.211904
566.694957	0.212418
566.907866	0.212342
567.120756	0.212718
567.333628	0.212609
567.546482	0.212494
567.759318	0.212642
567.972135	0.212927
568.184935	0.212779
568.397716	0.212835
568.610478	0.212695
568.823223	0.212924
569.035949	0.212704
569.248657	0.213214
569.461347	0.213589
569.674019	0.214143
569.886672	0.214573
570.099308	0.214878
570.311925	0.215174
570.524523	0.215868
570.737104	0.215839
570.949666	0.215744
571.162210	0.215474
571.374736	0.215150
571.587244	0.214976
571.799733	0.214644
572.012205	0.214992
572.224658	0.215033
572.437092	0.214884
572.649509	0.215481
572.861907	0.215871
573.074287	0.216385
573.286649	0.216279
573.498993	0.216425
573.711318	0.216632
573.923625	0.217046
574.135914	0.217074
574.348185	0.216738
574.560438	0.216762
574.772672	0.216957
574.984888	0.216854
575.197086	0.217346
575.409266	0.217225
575.621427	0.217400
575.833570	0.217062
576.045695	0.217118
576.257802	0.217529
576.469890	0.217697
576.681961	0.217885
576.894013	0.218361
577.106046	0.218958
577.318062	0.219839
577.530059	0.219992
577.742039	0.219748
577.954000	0.219672
578.165942	0.220333
578.377867	0.220762
578.589773	0.220606
578.801661	0.220284
579.013531	0.220005
579.225382	0.220085
579.437216	0.219975
579.649031	0.220560
579.860828	0.221319
580.072606	0.220962
580.284367	0.220727
580.496109	0.220590
580.707833	0.221748
580.919539	0.221946
581.131227	0.221358
581.342896	0.222003
581.554547	0.222199
581.766180	0.221828
581.977795	0.222337
582.189391	0.222775
582.400969	0.223165
582.612529	0.222681
582.824071	0.222840
583.035595	0.223231
583.247100	0.222880
583.458587	0.222691
583.670056	0.222915
583.881506	0.222411
584.092939	0.222367
584.304353	0.222585
584.515749	0.222372
584.727127	0.222393
584.938486	0.222824
585.149828	0.222783
585.361151	0.223151
585.572456	0.223556
585.783742	0.223876
585.995011	0.224006
586.206261	0.224249
586.417493	0.224772
586.628706	0.224715
586.839902	0.224717
587.051079	0.225289
587.262238	0.225325
587.473379	0.225611
587.684502	0.225756
587.895606	0.225875
588.106692	0.225910
588.317760	0.225634
588.528810	0.226343
588.739841	0.226653
588.950855	0.226695
589.161850	0.227064
589.372827	0.226919
589.583785	0.227305
589.794726	0.227698
590.005648	0.227790
590.216552	0.228429
590.427437	0.228524
590.638305	0.228474
590.849154	0.228752
591.059985	0.228639
591.270798	0.228558
591.481592	0.228528
591.692369	0.228078
591.903127	0.228531
592.113867	0.228186
592.324588	0.228321
592.535292	0.228174
592.745977	0.228296
592.956644	0.228860
593.167293	0.229396
593.377923	0.229540
593.588536	0.229960
593.799130	0.229872
594.009706	0.230714
594.220263	0.230433
594.430803	0.230811
594.641324	0.231001
594.851827	0.230633
595.062312	0.230434
595.272778	0.230749
595.483227	0.230651
595.693657	0.230677
595.904069	0.230115
596.114462	0.230240
596.324838	0.230232
596.535195	0.230090
596.745534	0.230316
596.955855	0.230617
597.166157	0.231066
597.376441	0.231453
597.586707	0.231616
597.796955	0.231727
598.007185	0.231774
598.217396	0.231884
598.427589	0.232010
598.637764	0.232102
598.847921	0.232042
599.058060	0.231799
599.268180	0.232132
599.478282	0.232314
599.688366	0.233111
599.898431	0.233784
600.108479	0.234338
600.318508	0.234480
600.528519	0.235126
600.738511	0.235245
600.948486	0.235239
601.158442	0.235080
601.368380	0.235059
601.578300	0.234919
601.788202	0.234922
601.998085	0.234737
602.207950	0.234914
602.417797	0.234364
602.627626	0.234679
602.837436	0.234819
603.047228	0.234883
603.257002	0.235152
603.466758	0.235227
603.676496	0.235277
603.886215	0.235242
604.095916	0.235633
604.305599	0.236195
604.515264	0.236494
604.724910	0.237036
604.934538	0.237446
605.144148	0.237638
605.353740	0.238019
605.563314	0.238753
605.772869	0.239232
605.982406	0.239140
606.191925	0.238854
606.401425	0.239047
606.610908	0.239145
606.820372	0.239292
607.029818	0.239723
607.239246	0.239879
607.448655	0.239384
607.658047	0.239624
607.867420	0.239824
608.076775	0.240140
608.286111	0.240057
608.495430	0.240013
608.704730	0.240116
608.914012	0.239864
609.123275	0.239902
609.332521	0.240091
609.541748	0.239913
609.750957	0.239708
609.960148	0.239994
610.169321	0.240241
610.378475	0.240109
610.587611	0.240458
610.796729	0.240509
611.005829	0.240197
611.214910	0.240093
611.423974	0.240640
611.633019	0.241400
611.842045	0.241140
612.051054	0.241344
612.260044	0.241657
612.469017	0.241503
612.677970	0.241681
612.886906	0.242263
613.095824	0.242579
613.304723	0.242217
613.513604	0.242094
613.722467	0.242666
613.931311	0.242697
614.140138	0.242749
614.348946	0.243115
614.557736	0.243466
614.766507	0.243508
614.975261	0.243348
615.183996	0.243588
615.392713	0.243718
615.601412	0.243730
615.810092	0.243715
616.018754	0.243690
616.227399	0.243652
616.436024	0.243887
616.644632	0.244123
616.853222	0.244597
617.061793	0.244503
617.270346	0.244488
617.478880	0.244569
617.687397	0.245030
617.895895	0.245535
618.104375	0.245813
618.312837	0.245882
618.521281	0.245869
618.729706	0.246088
618.938113	0.246385
619.146502	0.246911
619.354873	0.247296
619.563226	0.247220
619.771560	0.247318
619.979876	0.247494
620.188174	0.247487
620.396453	0.247734
620.604715	0.247823
620.812958	0.248242
621.021183	0.248014
621.229390	0.248363
621.437578	0.248826
621.645748	0.248946
621.853900	0.248843
622.062034	0.249440
622.270150	0.249544
622.478247	0.249866
622.686326	0.249902
622.894387	0.249980
623.102430	0.249787
623.310454	0.249657
623.518461	0.249807
623.726449	0.249751
623.934418	0.249595
624.142370	0.249846
624.350303	0.249568
624.558218	0.249639
624.766115	0.250135
624.973994	0.250492
625.181855	0.250612
625.389697	0.250524
625.597521	0.250640
625.805327	0.250673
626.013114	0.250619
626.220883	0.250999
626.428634	0.251348
626.636367	0.251288
626.844082	0.250852
627.051778	0.250824
627.259457	0.251309
627.467117	0.251481
627.674758	0.251770
627.882382	0.252090
628.089987	0.252189
628.297574	0.252203
628.505143	0.252351
628.712694	0.252995
628.920226	0.253348
629.127740	0.253187
629.335236	0.253466
629.542714	0.253502
629.750174	0.253510
629.957615	0.253685
630.165038	0.253861
630.372443	0.254343
630.579829	0.254313
630.787198	0.254507
630.994548	0.254639
631.201880	0.254755
631.409194	0.254908
631.616489	0.255225
631.823766	0.254850
632.031025	0.255058
632.238266	0.254853
632.445489	0.255399
632.652693	0.255431
632.859879	0.255913
633.067047	0.256688
633.274197	0.256731
633.481329	0.256946
633.688442	0.257673
633.895537	0.257783
634.102614	0.257980
634.309672	0.257637
634.516713	0.257987
634.723735	0.258252
634.930739	0.258119
635.137724	0.258197
635.344692	0.258214
635.551641	0.258281
635.758572	0.258669
635.965485	0.258710
636.172379	0.259525
636.379256	0.259899
636.586114	0.259681
636.792954	0.259663
636.999775	0.260189
637.206579	0.260305
637.413364	0.260689
637.620131	0.260714
637.826880	0.261429
638.033610	0.261069
638.240323	0.261007
638.447017	0.261185
638.653692	0.260988
638.860350	0.260719
639.066990	0.261027
639.273611	0.261160
639.480214	0.261543
639.686798	0.261488
639.893365	0.261657
640.099913	0.261952
640.306443	0.262129
640.512955	0.262677
640.719449	0.263216
640.925924	0.263167
641.132381	0.263128
641.338820	0.262724
641.545241	0.262748
641.751644	0.262701
641.958028	0.262644
642.164394	0.263202
642.370742	0.263568
642.577071	0.263838
642.783383	0.263882
642.989676	0.264413
643.195951	0.265180
643.402207	0.265489
643.608446	0.266001
643.814666	0.266023
644.020868	0.265991
644.227052	0.266071
644.433218	0.266172
644.639365	0.266677
644.845494	0.266451
645.051605	0.266444
645.257698	0.266227
645.463772	0.266328
645.669828	0.266968
645.875866	0.267172
646.081886	0.267337
646.287888	0.267446
646.493871	0.267241
646.699836	0.267469
646.905783	0.267663
647.111712	0.267718
647.317622	0.268017
647.523514	0.268068
647.729388	0.268290
647.935244	0.268483
648.141082	0.268567
648.346901	0.268810
648.552702	0.269414
648.758485	0.269489
648.964250	0.269704
649.169996	0.269618
649.375724	0.269639
649.581434	0.269529
649.787126	0.269687
649.992800	0.269580
650.198455	0.270007
650.404092	0.269634
650.609711	0.269570
650.815311	0.269915
651.020894	0.270348
651.226458	0.270722
651.432004	0.271003
651.637532	0.271175
651.843041	0.271556
652.048532	0.271786
652.254006	0.272000
652.459460	0.272408
652.664897	0.272655
652.870315	0.272786
653.075716	0.272958
653.281097	0.273021
653.486461	0.273053
653.691807	0.273001
653.897134	0.273071
654.102443	0.273051
654.307734	0.273083
654.513006	0.273194
654.718261	0.273410
654.923497	0.273391
655.128715	0.273692
655.333915	0.274096
655.539096	0.274581
655.744259	0.274634
655.949404	0.275063
656.154531	0.275049
656.359640	0.275318
656.564730	0.275157
656.769802	0.275140
656.974856	0.275187
657.179892	0.275271
657.384909	0.275431
657.589908	0.275476
657.794889	0.275420
657.999852	0.276004
658.204797	0.276126
658.409723	0.276664
658.614631	0.277307
658.819521	0.277558
659.024393	0.277625
659.229246	0.277664
659.434081	0.278084
659.638898	0.278457
659.843697	0.278270
660.048478	0.278510
660.253240	0.278586
660.457984	0.278588
660.662710	0.279022
660.867417	0.279384
661.072107	0.279862
661.276778	0.280148
661.481431	0.280499
661.686066	0.280932
661.890682	0.281218
662.095281	0.281543
662.299861	0.281526
662.504422	0.281687
662.708966	0.281881
662.913491	0.281988
663.117999	0.281951
663.322488	0.282056
663.526958	0.282455
663.731411	0.282657
663.935845	0.282855
664.140261	0.283363
664.344659	0.283226
664.549038	0.283299
664.753400	0.283530
664.957743	0.283851
665.162068	0.284097
665.366375	0.284069
665.570663	0.283928
665.774933	0.284208
665.979185	0.284176
666.183419	0.284427
666.387635	0.284852
666.591832	0.285282
666.796011	0.285855
667.000172	0.286120
667.204315	0.286488
667.408439	0.286890
667.612545	0.287013
667.816634	0.287281
668.020703	0.287644
668.224755	0.287665
668.428788	0.287542
668.632803	0.287354
668.836800	0.287522
669.040779	0.287707
669.244739	0.287958
669.448681	0.288090
669.652605	0.288321
669.856511	0.288629
670.060399	0.288787
670.264268	0.289021
670.468119	0.289278
670.671952	0.289817
670.875767	0.290227
671.079563	0.290509
671.283341	0.290575
671.487101	0.291035
671.690843	0.291255
671.894567	0.291756
672.098272	0.292014
672.301959	0.292305
672.505628	0.292040
672.709278	0.291944
672.912911	0.292457
673.116525	0.292948
673.320121	0.293021
673.523699	0.293230
673.727258	0.293398
673.930799	0.293643
674.134322	0.293891
674.337827	0.294445
674.541314	0.294899
674.744782	0.294851
674.948232	0.295036
675.151664	0.295278
675.355078	0.295528
675.558474	0.295528
675.761851	0.295749
675.965210	0.295988
676.168551	0.296123
676.371873	0.296088
676.575178	0.296204
676.778464	0.296542
676.981732	0.296769
677.184981	0.296826
677.388213	0.297062
677.591426	0.297429
677.794621	0.297794
677.997798	0.297864
678.200956	0.298407
678.404097	0.298631
678.607219	0.298610
678.810323	0.298712
679.013408	0.299239
679.216476	0.299404
679.419525	0.299434
679.622556	0.299713
679.825569	0.299942
680.028563	0.299914
680.231540	0.300261
680.434498	0.300613
680.637438	0.300840
680.840359	0.300957
681.043263	0.301334
681.246148	0.301413
681.449015	0.301467
681.651864	0.301986
681.854694	0.302391
682.057506	0.303036
682.260301	0.303371
682.463076	0.303452
682.665834	0.303846
682.868573	0.304164
683.071295	0.304590
683.273998	0.305049
683.476682	0.305017
683.679349	0.305056
683.881997	0.304764
684.084627	0.304751
684.287239	0.304967
684.489833	0.305238
684.692408	0.305149
684.894965	0.305207
685.097504	0.305045
685.300025	0.305350
685.502527	0.305448
685.705012	0.305808
685.907478	0.306000
686.109925	0.306294
686.312355	0.306275
686.514766	0.306457
686.717159	0.306398
686.919534	0.306587
687.121891	0.306447
687.324230	0.306689
687.526550	0.306653
687.728852	0.306944
687.931136	0.307211
688.133401	0.307219
688.335649	0.307674
688.537878	0.308314
688.740089	0.308330
688.942281	0.308463
689.144456	0.308642
689.346612	0.308917
689.548750	0.309184
689.750870	0.309409
689.952971	0.309557
690.155055	0.309539
690.357120	0.309466
690.559167	0.309830
690.761195	0.309975
690.963206	0.309929
691.165198	0.309919
691.367172	0.309944
691.569128	0.309993
691.771065	0.310346
691.972984	0.310273
692.174885	0.310856
692.376768	0.311038
692.578633	0.311650
692.780479	0.312502
692.982308	0.312890
693.184118	0.313102
693.385909	0.313296
