sample name	sample
index	1278
start time	 04-29-2021  02:34:13 PM


Wavelength (nm)	Absorbance
494.344910	-0.186409
494.563924	-0.186409
494.782919	-0.186409
495.001897	-0.505064
495.220856	-0.084464
495.439797	-0.033864
495.658719	-0.040538
495.877624	-0.125686
496.096510	-0.078513
496.315378	0.010720
496.534227	-0.056251
496.753059	-0.115527
496.971872	-0.069933
497.190667	0.162131
497.409444	0.186220
497.628203	0.197661
497.846943	0.204520
498.065665	0.204308
498.284369	0.203978
498.503055	0.204304
498.721723	0.205656
498.940372	0.206407
499.159003	0.207644
499.377616	0.207943
499.596210	0.208388
499.814787	0.209825
500.033345	0.208831
500.251885	0.207796
500.470406	0.207987
500.688910	0.208114
500.907395	0.209391
501.125862	0.209782
501.344311	0.208453
501.562742	0.208207
501.781154	0.206943
501.999548	0.208157
502.217924	0.209532
502.436282	0.209150
502.654621	0.208469
502.872942	0.207366
503.091245	0.206567
503.309530	0.209154
503.527797	0.209524
503.746045	0.209254
503.964275	0.211330
504.182487	0.210912
504.400681	0.211270
504.618856	0.212206
504.837013	0.211872
505.055152	0.211248
505.273273	0.210236
505.491376	0.208919
505.709460	0.208979
505.927526	0.208554
506.145574	0.208500
506.363604	0.209469
506.581615	0.209393
506.799608	0.210546
507.017583	0.211994
507.235540	0.212229
507.453478	0.212671
507.671399	0.212479
507.889301	0.211778
508.107185	0.211921
508.325050	0.211482
508.542898	0.211083
508.760727	0.210331
508.978538	0.209757
509.196330	0.209339
509.414105	0.209840
509.631861	0.210230
509.849599	0.209279
510.067319	0.209683
510.285021	0.210130
510.502704	0.210292
510.720369	0.211266
510.938016	0.212173
511.155645	0.212114
511.373255	0.213218
511.590848	0.214056
511.808422	0.215567
512.025977	0.216297
512.243515	0.216753
512.461034	0.217308
512.678536	0.217134
512.896018	0.216435
513.113483	0.217463
513.330930	0.215969
513.548358	0.215700
513.765768	0.216072
513.983160	0.215371
514.200533	0.214600
514.417889	0.214694
514.635226	0.214306
514.852545	0.214239
515.069845	0.213749
515.287128	0.214777
515.504392	0.215015
515.721638	0.215843
515.938866	0.216320
516.156075	0.216455
516.373267	0.216619
516.590440	0.217389
516.807594	0.217820
517.024731	0.218146
517.241850	0.217712
517.458950	0.217837
517.676032	0.217472
517.893095	0.217358
518.110141	0.216881
518.327168	0.216661
518.544177	0.216426
518.761168	0.216122
518.978141	0.216135
519.195095	0.218174
519.412031	0.218375
519.628949	0.217558
519.845849	0.218678
520.062731	0.219793
520.279594	0.220524
520.496439	0.220550
520.713266	0.221190
520.930074	0.222106
521.146865	0.220406
521.363637	0.220636
521.580391	0.220999
521.797127	0.220640
522.013844	0.220463
522.230543	0.220023
522.447224	0.221114
522.663887	0.221467
522.880532	0.221383
523.097158	0.222311
523.313766	0.222320
523.530356	0.223187
523.746928	0.224234
523.963481	0.224444
524.180017	0.225198
524.396534	0.224395
524.613032	0.224605
524.829513	0.224826
525.045975	0.224905
525.262420	0.225167
525.478845	0.225760
525.695253	0.225952
525.911643	0.226447
526.128014	0.226194
526.344367	0.227275
526.560702	0.228074
526.777018	0.228612
526.993316	0.229239
527.209597	0.229854
527.425858	0.229396
527.642102	0.228756
527.858328	0.229591
528.074535	0.229867
528.290724	0.230284
528.506894	0.229782
528.723047	0.230529
528.939181	0.230893
529.155297	0.231113
529.371395	0.231463
529.587475	0.232390
529.803536	0.232682
530.019579	0.233046
530.235604	0.232921
530.451611	0.233545
530.667600	0.232638
530.883570	0.232681
531.099522	0.232846
531.315456	0.233787
531.531372	0.233528
531.747269	0.232646
531.963148	0.233092
532.179009	0.233916
532.394852	0.234438
532.610676	0.234891
532.826482	0.234943
533.042271	0.234865
533.258040	0.234298
533.473792	0.234654
533.689525	0.236132
533.905240	0.236797
534.120937	0.236740
534.336616	0.236436
534.552277	0.237695
534.767919	0.237677
534.983543	0.237321
535.199149	0.237794
535.414736	0.237864
535.630306	0.237536
535.845857	0.237642
536.061390	0.237951
536.276904	0.238359
536.492401	0.238284
536.707879	0.239046
536.923339	0.239959
537.138781	0.239822
537.354204	0.240084
537.569610	0.240529
537.784997	0.240472
538.000366	0.239734
538.215716	0.239826
538.431049	0.239708
538.646363	0.239506
538.861659	0.240010
539.076937	0.240839
539.292196	0.241339
539.507438	0.241964
539.722661	0.242730
539.937866	0.243981
540.153052	0.244597
540.368221	0.244394
540.583371	0.244529
540.798503	0.245003
541.013617	0.244645
541.228712	0.244119
541.443789	0.244097
541.658848	0.243783
541.873889	0.243872
542.088912	0.243805
542.303916	0.244337
542.518902	0.244770
542.733870	0.244324
542.948820	0.243909
543.163752	0.244675
543.378665	0.244158
543.593560	0.244384
543.808437	0.244276
544.023295	0.244733
544.238136	0.244874
544.452958	0.245044
544.667762	0.245573
544.882548	0.246601
545.097315	0.247005
545.312064	0.247603
545.526795	0.247683
545.741508	0.248402
545.956203	0.249045
546.170879	0.249546
546.385537	0.249811
546.600177	0.250143
546.814799	0.250861
547.029402	0.250789
547.243988	0.250814
547.458555	0.251839
547.673103	0.251450
547.887634	0.250925
548.102146	0.250711
548.316640	0.251216
548.531116	0.251778
548.745574	0.251470
548.960013	0.251926
549.174435	0.252712
549.388838	0.252394
549.603222	0.252865
549.817589	0.253158
550.031937	0.253913
550.246267	0.253686
550.460579	0.253431
550.674873	0.254128
550.889148	0.254261
551.103405	0.254580
551.317644	0.255051
551.531865	0.255639
551.746068	0.255603
551.960252	0.255066
552.174418	0.255643
552.388566	0.255746
552.602696	0.255526
552.816807	0.255778
553.030900	0.255477
553.244975	0.255578
553.459032	0.255647
553.673070	0.256377
553.887091	0.257375
554.101093	0.257093
554.315077	0.257621
554.529042	0.257866
554.742990	0.258255
554.956919	0.258995
555.170830	0.259379
555.384722	0.259233
555.598597	0.259501
555.812453	0.259393
556.026291	0.259724
556.240111	0.259683
556.453913	0.259937
556.667696	0.259911
556.881461	0.259722
557.095208	0.259710
557.308937	0.259820
557.522647	0.260073
557.736339	0.260256
557.950013	0.260611
558.163669	0.260809
558.377307	0.261111
558.590926	0.261129
558.804527	0.261435
559.018110	0.261383
559.231675	0.261738
559.445221	0.261758
559.658749	0.262099
559.872259	0.262184
560.085751	0.262519
560.299225	0.262818
560.512680	0.263073
560.726117	0.263500
560.939536	0.264105
561.152937	0.264147
561.366319	0.264386
561.579683	0.264419
561.793029	0.264674
562.006357	0.264200
562.219667	0.264272
562.432958	0.264579
562.646231	0.264087
562.859486	0.264332
563.072723	0.264812
563.285941	0.264441
563.499141	0.264951
563.712323	0.264966
563.925487	0.265324
564.138632	0.265720
564.351760	0.265143
564.564869	0.265423
564.777960	0.265715
564.991032	0.265590
565.204087	0.265883
565.417123	0.265393
565.630141	0.265382
565.843140	0.265802
566.056122	0.265719
566.269085	0.266571
566.482030	0.266908
566.694957	0.266458
566.907866	0.266645
567.120756	0.267017
567.333628	0.267327
567.546482	0.267621
567.759318	0.268124
567.972135	0.268349
568.184935	0.268051
568.397716	0.268070
568.610478	0.268103
568.823223	0.268582
569.035949	0.268692
569.248657	0.269086
569.461347	0.269234
569.674019	0.268335
569.886672	0.268274
570.099308	0.268587
570.311925	0.268865
570.524523	0.269282
570.737104	0.269096
570.949666	0.269434
571.162210	0.269394
571.374736	0.269563
571.587244	0.270399
571.799733	0.270794
572.012205	0.270934
572.224658	0.270679
572.437092	0.270763
572.649509	0.270877
572.861907	0.270853
573.074287	0.270993
573.286649	0.271258
573.498993	0.271551
573.711318	0.271482
573.923625	0.271474
574.135914	0.271745
574.348185	0.272014
574.560438	0.272186
574.772672	0.272230
574.984888	0.272400
575.197086	0.272762
575.409266	0.272840
575.621427	0.273118
575.833570	0.273572
576.045695	0.273784
576.257802	0.274240
576.469890	0.274478
576.681961	0.274996
576.894013	0.275132
577.106046	0.275240
577.318062	0.275117
577.530059	0.275205
577.742039	0.274860
577.954000	0.275249
578.165942	0.275041
578.377867	0.275286
578.589773	0.275246
578.801661	0.275119
579.013531	0.274978
579.225382	0.275325
579.437216	0.275579
579.649031	0.276407
579.860828	0.276388
580.072606	0.276440
580.284367	0.276760
580.496109	0.277296
580.707833	0.277745
580.919539	0.278093
581.131227	0.278520
581.342896	0.278431
581.554547	0.277977
581.766180	0.278472
581.977795	0.278612
582.189391	0.278647
582.400969	0.278033
582.612529	0.278084
582.824071	0.278022
583.035595	0.277650
583.247100	0.278136
583.458587	0.278611
583.670056	0.278452
583.881506	0.279053
584.092939	0.278662
584.304353	0.279317
584.515749	0.279545
584.727127	0.279727
584.938486	0.280067
585.149828	0.279879
585.361151	0.280054
585.572456	0.280324
585.783742	0.280169
585.995011	0.280437
586.206261	0.280251
586.417493	0.280147
586.628706	0.280210
586.839902	0.280370
587.051079	0.280404
587.262238	0.280316
587.473379	0.280395
587.684502	0.280466
587.895606	0.280841
588.106692	0.280965
588.317760	0.281138
588.528810	0.281469
588.739841	0.281630
588.950855	0.281783
589.161850	0.282111
589.372827	0.282199
589.583785	0.282368
589.794726	0.282681
590.005648	0.283116
590.216552	0.283270
590.427437	0.283365
590.638305	0.283827
590.849154	0.284429
591.059985	0.284847
591.270798	0.285177
591.481592	0.285315
591.692369	0.285165
591.903127	0.285318
592.113867	0.285660
592.324588	0.285884
592.535292	0.285868
592.745977	0.285597
592.956644	0.285661
593.167293	0.285666
593.377923	0.285379
593.588536	0.285773
593.799130	0.285904
594.009706	0.286101
594.220263	0.286290
594.430803	0.286451
594.641324	0.286579
594.851827	0.287358
595.062312	0.287454
595.272778	0.288249
595.483227	0.288126
595.693657	0.288230
595.904069	0.288345
596.114462	0.288400
596.324838	0.288454
596.535195	0.289028
596.745534	0.288209
596.955855	0.288518
597.166157	0.288838
597.376441	0.288866
597.586707	0.288674
597.796955	0.288582
598.007185	0.288928
598.217396	0.288709
598.427589	0.288244
598.637764	0.288441
598.847921	0.288416
599.058060	0.288073
599.268180	0.288675
599.478282	0.289022
599.688366	0.289266
599.898431	0.289173
600.108479	0.289602
600.318508	0.289906
600.528519	0.290291
600.738511	0.290552
600.948486	0.290655
601.158442	0.290381
601.368380	0.289940
601.578300	0.290303
601.788202	0.290492
601.998085	0.290557
602.207950	0.290685
602.417797	0.290725
602.627626	0.290753
602.837436	0.291015
603.047228	0.291348
603.257002	0.291963
603.466758	0.292020
603.676496	0.292382
603.886215	0.292455
604.095916	0.292684
604.305599	0.292887
604.515264	0.293268
604.724910	0.293230
604.934538	0.293092
605.144148	0.293283
605.353740	0.293327
605.563314	0.293053
605.772869	0.293286
605.982406	0.293056
606.191925	0.293168
606.401425	0.292914
606.610908	0.293220
606.820372	0.293659
607.029818	0.293634
607.239246	0.293826
607.448655	0.293705
607.658047	0.293448
607.867420	0.293464
608.076775	0.293387
608.286111	0.293179
608.495430	0.293206
608.704730	0.293245
608.914012	0.293343
609.123275	0.293399
609.332521	0.293861
609.541748	0.294673
609.750957	0.294944
609.960148	0.295050
610.169321	0.295406
610.378475	0.295472
610.587611	0.295469
610.796729	0.295498
611.005829	0.295685
611.214910	0.295842
611.423974	0.295509
611.633019	0.295786
611.842045	0.296114
612.051054	0.296215
612.260044	0.296364
612.469017	0.296608
612.677970	0.297099
612.886906	0.296971
613.095824	0.296921
613.304723	0.297021
613.513604	0.297076
613.722467	0.297169
613.931311	0.297264
614.140138	0.297219
614.348946	0.297702
614.557736	0.297842
614.766507	0.297867
614.975261	0.297929
615.183996	0.298246
615.392713	0.298252
615.601412	0.298114
615.810092	0.298227
616.018754	0.298373
616.227399	0.298123
616.436024	0.298187
616.644632	0.298576
616.853222	0.298498
617.061793	0.298599
617.270346	0.298776
617.478880	0.298950
617.687397	0.298815
617.895895	0.298754
618.104375	0.298621
618.312837	0.298504
618.521281	0.298605
618.729706	0.298787
618.938113	0.298957
619.146502	0.299217
619.354873	0.299318
619.563226	0.299767
619.771560	0.299852
619.979876	0.300112
620.188174	0.300426
620.396453	0.300666
620.604715	0.300824
620.812958	0.301193
621.021183	0.301560
621.229390	0.302134
621.437578	0.302704
621.645748	0.302960
621.853900	0.303157
622.062034	0.302939
622.270150	0.302936
622.478247	0.303249
622.686326	0.302696
622.894387	0.302427
623.102430	0.302137
623.310454	0.301454
623.518461	0.301585
623.726449	0.301806
623.934418	0.301905
624.142370	0.301986
624.350303	0.302178
624.558218	0.302670
624.766115	0.302664
624.973994	0.302761
625.181855	0.303332
625.389697	0.303640
625.597521	0.303757
625.805327	0.304065
626.013114	0.304238
626.220883	0.304267
626.428634	0.304619
626.636367	0.305006
626.844082	0.305064
627.051778	0.305326
627.259457	0.305148
627.467117	0.305214
627.674758	0.305195
627.882382	0.305484
628.089987	0.305385
628.297574	0.305041
628.505143	0.305224
628.712694	0.305830
628.920226	0.305714
629.127740	0.306151
629.335236	0.306345
629.542714	0.306404
629.750174	0.306298
629.957615	0.306497
630.165038	0.306637
630.372443	0.306511
630.579829	0.306227
630.787198	0.306383
630.994548	0.306471
631.201880	0.306452
631.409194	0.306551
631.616489	0.306528
631.823766	0.306821
632.031025	0.307012
632.238266	0.307201
632.445489	0.307265
632.652693	0.307110
632.859879	0.307034
633.067047	0.307040
633.274197	0.307274
633.481329	0.307408
633.688442	0.307371
633.895537	0.307475
634.102614	0.307750
634.309672	0.307938
634.516713	0.308267
634.723735	0.308529
634.930739	0.308851
635.137724	0.309157
635.344692	0.309396
635.551641	0.309929
635.758572	0.310242
635.965485	0.310447
636.172379	0.310743
636.379256	0.311221
636.586114	0.311236
636.792954	0.311420
636.999775	0.311614
637.206579	0.311973
637.413364	0.311724
637.620131	0.311564
637.826880	0.311791
638.033610	0.311758
638.240323	0.311447
638.447017	0.311856
638.653692	0.311735
638.860350	0.311729
639.066990	0.311854
639.273611	0.312087
639.480214	0.312648
639.686798	0.312402
639.893365	0.312501
640.099913	0.312808
640.306443	0.312941
640.512955	0.313248
640.719449	0.313467
640.925924	0.313401
641.132381	0.313677
641.338820	0.313605
641.545241	0.313886
641.751644	0.314066
641.958028	0.314237
642.164394	0.314197
642.370742	0.314385
642.577071	0.314559
642.783383	0.314610
642.989676	0.314872
643.195951	0.314742
643.402207	0.314940
643.608446	0.315224
643.814666	0.315200
644.020868	0.315202
644.227052	0.315260
644.433218	0.315207
644.639365	0.315569
644.845494	0.315469
645.051605	0.315909
645.257698	0.316007
645.463772	0.315988
645.669828	0.316333
645.875866	0.316422
646.081886	0.316714
646.287888	0.317054
646.493871	0.317196
646.699836	0.317512
646.905783	0.317720
647.111712	0.317833
647.317622	0.317905
647.523514	0.317994
647.729388	0.318502
647.935244	0.318597
648.141082	0.318678
648.346901	0.318855
648.552702	0.318812
648.758485	0.319129
648.964250	0.319322
649.169996	0.319690
649.375724	0.319729
649.581434	0.319602
649.787126	0.319662
649.992800	0.319860
650.198455	0.319991
650.404092	0.320259
650.609711	0.320475
650.815311	0.320594
651.020894	0.320884
651.226458	0.321320
651.432004	0.321822
651.637532	0.322073
651.843041	0.322170
652.048532	0.322497
652.254006	0.322757
652.459460	0.322709
652.664897	0.323152
652.870315	0.323168
653.075716	0.323501
653.281097	0.323767
653.486461	0.324054
653.691807	0.324410
653.897134	0.324668
654.102443	0.324724
654.307734	0.324931
654.513006	0.325419
654.718261	0.325713
654.923497	0.325983
655.128715	0.326209
655.333915	0.326285
655.539096	0.326465
655.744259	0.326308
655.949404	0.326645
656.154531	0.326885
656.359640	0.326660
656.564730	0.326644
656.769802	0.326495
656.974856	0.326676
657.179892	0.326973
657.384909	0.327359
657.589908	0.327749
657.794889	0.327790
657.999852	0.328184
658.204797	0.328594
658.409723	0.328876
658.614631	0.329398
658.819521	0.329430
659.024393	0.329451
659.229246	0.329444
659.434081	0.329661
659.638898	0.330140
659.843697	0.329952
660.048478	0.330518
660.253240	0.331062
660.457984	0.331221
660.662710	0.331725
660.867417	0.332191
661.072107	0.332542
661.276778	0.332755
661.481431	0.332985
661.686066	0.333172
661.890682	0.332793
662.095281	0.332853
662.299861	0.332836
662.504422	0.332669
662.708966	0.332845
662.913491	0.333078
663.117999	0.333017
663.322488	0.333077
663.526958	0.333393
663.731411	0.333394
663.935845	0.333240
664.140261	0.333556
664.344659	0.333542
664.549038	0.333441
664.753400	0.333223
664.957743	0.333667
665.162068	0.333847
665.366375	0.333931
665.570663	0.334264
665.774933	0.334839
665.979185	0.335075
666.183419	0.335388
666.387635	0.335779
666.591832	0.336142
666.796011	0.336237
667.000172	0.336211
667.204315	0.336434
667.408439	0.336615
667.612545	0.336827
667.816634	0.336606
668.020703	0.336989
668.224755	0.337014
668.428788	0.337077
668.632803	0.337093
668.836800	0.337307
669.040779	0.337411
669.244739	0.337741
669.448681	0.337571
669.652605	0.337780
669.856511	0.337874
670.060399	0.338177
670.264268	0.338625
670.468119	0.338792
670.671952	0.339305
670.875767	0.339540
671.079563	0.339561
671.283341	0.340099
671.487101	0.340585
671.690843	0.340657
671.894567	0.340779
672.098272	0.340867
672.301959	0.341143
672.505628	0.341006
672.709278	0.341357
672.912911	0.341658
673.116525	0.341642
673.320121	0.341829
673.523699	0.342081
673.727258	0.342249
673.930799	0.342086
674.134322	0.342416
674.337827	0.342569
674.541314	0.342775
674.744782	0.343040
674.948232	0.343275
675.151664	0.343190
675.355078	0.343771
675.558474	0.344161
675.761851	0.344676
675.965210	0.344899
676.168551	0.345318
676.371873	0.345348
676.575178	0.345614
676.778464	0.345861
676.981732	0.346276
677.184981	0.346183
677.388213	0.346178
677.591426	0.346365
677.794621	0.346674
677.997798	0.346864
678.200956	0.346916
678.404097	0.347164
678.607219	0.347356
678.810323	0.347611
679.013408	0.347874
679.216476	0.348219
679.419525	0.348344
679.622556	0.348413
679.825569	0.348564
680.028563	0.348841
680.231540	0.348911
680.434498	0.349024
680.637438	0.349298
680.840359	0.349399
681.043263	0.349375
681.246148	0.349566
681.449015	0.349475
681.651864	0.349696
681.854694	0.349750
682.057506	0.349783
682.260301	0.349992
682.463076	0.349957
682.665834	0.349828
682.868573	0.349995
683.071295	0.350231
683.273998	0.350594
683.476682	0.350607
683.679349	0.350888
683.881997	0.351009
684.084627	0.351324
684.287239	0.351464
684.489833	0.351994
684.692408	0.352185
684.894965	0.352474
685.097504	0.352382
685.300025	0.352384
685.502527	0.352767
685.705012	0.352865
685.907478	0.352688
686.109925	0.352876
686.312355	0.352980
686.514766	0.353347
686.717159	0.353398
686.919534	0.353861
687.121891	0.354269
687.324230	0.354384
687.526550	0.354562
687.728852	0.354784
687.931136	0.354792
688.133401	0.354977
688.335649	0.354938
688.537878	0.355100
688.740089	0.355039
688.942281	0.355077
689.144456	0.355051
689.346612	0.355110
689.548750	0.355438
689.750870	0.355664
689.952971	0.355517
690.155055	0.355688
690.357120	0.355525
690.559167	0.355989
690.761195	0.356066
690.963206	0.356233
691.165198	0.356112
691.367172	0.356242
691.569128	0.356557
691.771065	0.356851
691.972984	0.356959
692.174885	0.357212
692.376768	0.357320
692.578633	0.357538
692.780479	0.357883
692.982308	0.358491
693.184118	0.358644
693.385909	0.358673
