sample name	sample
index	532
start time	 03-11-2021  04:41:23 PM


Wavelength (nm)	Absorbance
494.344910	NaN
494.563924	NaN
494.782919	NaN
495.001897	-0.726999
495.220856	-0.401599
495.439797	-0.261038
495.658719	-0.163198
495.877624	0.133253
496.096510	0.301490
496.315378	0.438646
496.534227	0.472224
496.753059	0.325126
496.971872	0.352471
497.190667	0.090125
497.409444	0.081230
497.628203	0.080464
497.846943	0.073574
498.065665	0.073588
498.284369	0.073329
498.503055	0.073056
498.721723	0.071856
498.940372	0.072803
499.159003	0.072915
499.377616	0.073133
499.596210	0.073098
499.814787	0.073613
500.033345	0.073083
500.251885	0.073556
500.470406	0.074008
500.688910	0.074370
500.907395	0.074256
501.125862	0.074379
501.344311	0.073231
501.562742	0.072941
501.781154	0.074180
501.999548	0.075389
502.217924	0.075285
502.436282	0.075054
502.654621	0.075278
502.872942	0.075345
503.091245	0.075095
503.309530	0.075258
503.527797	0.074854
503.746045	0.074461
503.964275	0.072825
504.182487	0.072603
504.400681	0.072686
504.618856	0.072716
504.837013	0.072525
505.055152	0.072513
505.273273	0.072965
505.491376	0.073390
505.709460	0.073516
505.927526	0.075263
506.145574	0.075406
506.363604	0.074924
506.581615	0.074844
506.799608	0.074691
507.017583	0.074984
507.235540	0.074805
507.453478	0.074437
507.671399	0.073977
507.889301	0.073368
508.107185	0.072797
508.325050	0.073068
508.542898	0.073433
508.760727	0.073385
508.978538	0.073303
509.196330	0.072975
509.414105	0.073504
509.631861	0.073441
509.849599	0.073878
510.067319	0.073744
510.285021	0.074338
510.502704	0.074237
510.720369	0.074016
510.938016	0.073890
511.155645	0.074299
511.373255	0.074518
511.590848	0.074902
511.808422	0.074279
512.025977	0.074377
512.243515	0.074058
512.461034	0.074212
512.678536	0.074666
512.896018	0.074514
513.113483	0.074052
513.330930	0.074133
513.548358	0.074713
513.765768	0.074933
513.983160	0.075751
514.200533	0.076609
514.417889	0.076626
514.635226	0.077141
514.852545	0.077762
515.069845	0.078809
515.287128	0.077975
515.504392	0.077653
515.721638	0.078003
515.938866	0.077913
516.156075	0.076854
516.373267	0.076761
516.590440	0.076958
516.807594	0.076648
517.024731	0.076468
517.241850	0.077478
517.458950	0.076945
517.676032	0.076595
517.893095	0.077006
518.110141	0.077428
518.327168	0.078014
518.544177	0.077895
518.761168	0.078563
518.978141	0.078840
519.195095	0.079014
519.412031	0.079594
519.628949	0.079862
519.845849	0.079792
520.062731	0.079856
520.279594	0.079553
520.496439	0.079247
520.713266	0.078843
520.930074	0.078305
521.146865	0.078496
521.363637	0.078574
521.580391	0.078168
521.797127	0.077766
522.013844	0.077484
522.230543	0.077555
522.447224	0.077930
522.663887	0.077911
522.880532	0.078228
523.097158	0.078064
523.313766	0.078034
523.530356	0.078054
523.746928	0.078249
523.963481	0.078365
524.180017	0.078043
524.396534	0.078182
524.613032	0.078000
524.829513	0.078144
525.045975	0.078075
525.262420	0.078115
525.478845	0.078735
525.695253	0.079091
525.911643	0.079428
526.128014	0.080204
526.344367	0.079981
526.560702	0.080439
526.777018	0.080163
526.993316	0.080129
527.209597	0.080559
527.425858	0.080718
527.642102	0.080844
527.858328	0.080788
528.074535	0.080864
528.290724	0.080715
528.506894	0.080199
528.723047	0.080453
528.939181	0.080538
529.155297	0.080514
529.371395	0.080567
529.587475	0.080430
529.803536	0.080412
530.019579	0.080326
530.235604	0.080818
530.451611	0.081484
530.667600	0.082038
530.883570	0.082414
531.099522	0.082419
531.315456	0.082336
531.531372	0.081840
531.747269	0.082216
531.963148	0.082077
532.179009	0.082238
532.394852	0.082311
532.610676	0.081539
532.826482	0.081392
533.042271	0.081707
533.258040	0.081800
533.473792	0.082020
533.689525	0.082287
533.905240	0.082584
534.120937	0.082517
534.336616	0.082780
534.552277	0.083228
534.767919	0.083416
534.983543	0.083490
535.199149	0.083763
535.414736	0.084093
535.630306	0.084326
535.845857	0.084339
536.061390	0.084021
536.276904	0.083625
536.492401	0.083643
536.707879	0.083658
536.923339	0.083386
537.138781	0.082885
537.354204	0.083245
537.569610	0.083165
537.784997	0.083186
538.000366	0.083694
538.215716	0.084317
538.431049	0.084592
538.646363	0.085060
538.861659	0.085089
539.076937	0.085360
539.292196	0.085074
539.507438	0.084916
539.722661	0.085024
539.937866	0.084833
540.153052	0.084940
540.368221	0.084864
540.583371	0.084467
540.798503	0.085157
541.013617	0.085804
541.228712	0.085815
541.443789	0.086156
541.658848	0.086103
541.873889	0.086240
542.088912	0.085788
542.303916	0.086069
542.518902	0.086107
542.733870	0.085759
542.948820	0.085437
543.163752	0.085782
543.378665	0.085911
543.593560	0.086393
543.808437	0.087013
544.023295	0.087340
544.238136	0.087316
544.452958	0.087946
544.667762	0.088151
544.882548	0.088304
545.097315	0.088202
545.312064	0.087908
545.526795	0.087891
545.741508	0.087536
545.956203	0.087819
546.170879	0.088082
546.385537	0.087668
546.600177	0.087868
546.814799	0.087839
547.029402	0.088114
547.243988	0.088245
547.458555	0.088010
547.673103	0.088123
547.887634	0.087960
548.102146	0.087977
548.316640	0.088175
548.531116	0.087545
548.745574	0.087530
548.960013	0.087846
549.174435	0.087801
549.388838	0.087948
549.603222	0.088021
549.817589	0.088249
550.031937	0.088452
550.246267	0.088121
550.460579	0.088438
550.674873	0.088498
550.889148	0.088567
551.103405	0.089003
551.317644	0.089273
551.531865	0.089177
551.746068	0.088883
551.960252	0.088603
552.174418	0.089123
552.388566	0.089210
552.602696	0.089267
552.816807	0.089215
553.030900	0.089122
553.244975	0.089415
553.459032	0.089425
553.673070	0.089670
553.887091	0.089853
554.101093	0.089748
554.315077	0.089703
554.529042	0.089887
554.742990	0.090103
554.956919	0.089739
555.170830	0.089472
555.384722	0.089848
555.598597	0.090103
555.812453	0.089880
556.026291	0.089743
556.240111	0.090151
556.453913	0.089835
556.667696	0.089502
556.881461	0.089869
557.095208	0.089948
557.308937	0.090024
557.522647	0.090155
557.736339	0.090208
557.950013	0.090449
558.163669	0.090440
558.377307	0.090877
558.590926	0.090973
558.804527	0.091205
559.018110	0.091604
559.231675	0.091443
559.445221	0.091359
559.658749	0.091686
559.872259	0.091708
560.085751	0.091806
560.299225	0.091600
560.512680	0.091794
560.726117	0.091943
560.939536	0.091705
561.152937	0.091721
561.366319	0.091910
561.579683	0.091800
561.793029	0.091631
562.006357	0.091490
562.219667	0.092016
562.432958	0.091995
562.646231	0.091550
562.859486	0.091600
563.072723	0.091606
563.285941	0.091379
563.499141	0.091860
563.712323	0.092215
563.925487	0.092269
564.138632	0.092159
564.351760	0.092114
564.564869	0.092477
564.777960	0.092356
564.991032	0.092551
565.204087	0.092645
565.417123	0.092461
565.630141	0.092610
565.843140	0.092883
566.056122	0.092915
566.269085	0.093486
566.482030	0.093651
566.694957	0.093838
566.907866	0.093954
567.120756	0.093761
567.333628	0.093768
567.546482	0.093651
567.759318	0.093657
567.972135	0.094009
568.184935	0.093610
568.397716	0.093363
568.610478	0.093431
568.823223	0.093487
569.035949	0.093964
569.248657	0.093925
569.461347	0.094150
569.674019	0.094443
569.886672	0.093894
570.099308	0.093779
570.311925	0.094321
570.524523	0.094421
570.737104	0.094485
570.949666	0.094361
571.162210	0.094205
571.374736	0.094389
571.587244	0.094300
571.799733	0.094463
572.012205	0.094951
572.224658	0.094856
572.437092	0.094976
572.649509	0.094787
572.861907	0.094905
573.074287	0.095492
573.286649	0.095134
573.498993	0.095177
573.711318	0.095273
573.923625	0.095329
574.135914	0.095297
574.348185	0.095211
574.560438	0.095551
574.772672	0.095405
574.984888	0.095285
575.197086	0.095184
575.409266	0.095336
575.621427	0.095395
575.833570	0.095630
576.045695	0.095528
576.257802	0.095642
576.469890	0.095556
576.681961	0.095611
576.894013	0.095656
577.106046	0.096288
577.318062	0.096011
577.530059	0.096136
577.742039	0.095750
577.954000	0.095827
578.165942	0.095789
578.377867	0.095785
578.589773	0.096133
578.801661	0.095810
579.013531	0.095323
579.225382	0.095530
579.437216	0.095523
579.649031	0.095371
579.860828	0.095454
580.072606	0.095929
580.284367	0.096223
580.496109	0.096199
580.707833	0.096424
580.919539	0.096473
581.131227	0.096220
581.342896	0.096016
581.554547	0.096017
581.766180	0.096139
581.977795	0.095471
582.189391	0.094955
582.400969	0.095074
582.612529	0.095095
582.824071	0.095131
583.035595	0.095559
583.247100	0.095680
583.458587	0.096143
583.670056	0.096236
583.881506	0.096550
584.092939	0.097086
584.304353	0.097109
584.515749	0.096948
584.727127	0.097167
584.938486	0.097043
585.149828	0.097184
585.361151	0.097101
585.572456	0.096932
585.783742	0.097014
585.995011	0.096810
586.206261	0.096779
586.417493	0.097480
586.628706	0.097484
586.839902	0.097510
587.051079	0.097510
587.262238	0.097515
587.473379	0.097440
587.684502	0.097673
587.895606	0.097679
588.106692	0.097833
588.317760	0.097697
588.528810	0.097666
588.739841	0.097651
588.950855	0.097702
589.161850	0.097570
589.372827	0.097229
589.583785	0.097252
589.794726	0.097608
590.005648	0.097812
590.216552	0.097701
590.427437	0.097846
590.638305	0.098015
590.849154	0.098228
591.059985	0.098500
591.270798	0.099103
591.481592	0.098653
591.692369	0.098529
591.903127	0.098027
592.113867	0.098162
592.324588	0.098243
592.535292	0.098011
592.745977	0.097902
592.956644	0.097716
593.167293	0.097528
593.377923	0.098093
593.588536	0.098433
593.799130	0.098716
594.009706	0.098565
594.220263	0.098648
594.430803	0.099005
594.641324	0.098989
594.851827	0.099273
595.062312	0.099556
595.272778	0.099558
595.483227	0.099318
595.693657	0.099254
595.904069	0.099568
596.114462	0.099366
596.324838	0.099017
596.535195	0.099237
596.745534	0.099015
596.955855	0.099133
597.166157	0.098820
597.376441	0.098828
597.586707	0.098698
597.796955	0.098317
598.007185	0.098539
598.217396	0.098860
598.427589	0.099138
598.637764	0.099302
598.847921	0.099192
599.058060	0.099356
599.268180	0.099269
599.478282	0.099827
599.688366	0.100257
599.898431	0.100353
600.108479	0.100393
600.318508	0.100381
600.528519	0.100441
600.738511	0.100608
600.948486	0.100633
601.158442	0.100827
601.368380	0.100848
601.578300	0.100559
601.788202	0.100465
601.998085	0.100328
602.207950	0.100124
602.417797	0.100530
602.627626	0.100600
602.837436	0.100737
603.047228	0.100656
603.257002	0.100391
603.466758	0.100651
603.676496	0.100853
603.886215	0.101236
604.095916	0.101404
604.305599	0.100971
604.515264	0.100967
604.724910	0.101016
604.934538	0.101178
605.144148	0.101048
605.353740	0.101266
605.563314	0.101200
605.772869	0.100982
605.982406	0.100808
606.191925	0.101133
606.401425	0.101222
606.610908	0.101461
606.820372	0.101324
607.029818	0.101679
607.239246	0.101719
607.448655	0.101656
607.658047	0.101449
607.867420	0.101862
608.076775	0.101788
608.286111	0.101639
608.495430	0.101494
608.704730	0.101675
608.914012	0.101695
609.123275	0.101522
609.332521	0.101629
609.541748	0.102016
609.750957	0.101901
609.960148	0.102028
610.169321	0.102018
610.378475	0.102151
610.587611	0.102243
610.796729	0.102196
611.005829	0.102133
611.214910	0.102133
611.423974	0.102147
611.633019	0.102211
611.842045	0.102348
612.051054	0.102655
612.260044	0.102809
612.469017	0.102825
612.677970	0.102939
612.886906	0.102917
613.095824	0.102788
613.304723	0.102885
613.513604	0.102991
613.722467	0.102664
613.931311	0.102372
614.140138	0.101989
614.348946	0.101973
614.557736	0.101913
614.766507	0.102194
614.975261	0.102463
615.183996	0.102611
615.392713	0.102563
615.601412	0.102637
615.810092	0.102794
616.018754	0.103148
616.227399	0.103228
616.436024	0.103391
616.644632	0.103302
616.853222	0.103356
617.061793	0.103156
617.270346	0.103464
617.478880	0.103603
617.687397	0.103630
617.895895	0.103570
618.104375	0.103723
618.312837	0.103673
618.521281	0.103669
618.729706	0.103665
618.938113	0.103821
619.146502	0.103730
619.354873	0.103755
619.563226	0.103807
619.771560	0.103842
619.979876	0.103834
620.188174	0.103938
620.396453	0.104086
620.604715	0.104268
620.812958	0.104257
621.021183	0.104140
621.229390	0.104305
621.437578	0.104332
621.645748	0.104336
621.853900	0.104356
622.062034	0.104692
622.270150	0.104738
622.478247	0.104500
622.686326	0.104557
622.894387	0.104515
623.102430	0.104483
623.310454	0.104585
623.518461	0.104626
623.726449	0.104574
623.934418	0.104294
624.142370	0.104380
624.350303	0.104825
624.558218	0.104814
624.766115	0.105111
624.973994	0.105158
625.181855	0.105187
625.389697	0.105273
625.597521	0.105509
625.805327	0.105433
626.013114	0.105555
626.220883	0.105478
626.428634	0.105603
626.636367	0.105490
626.844082	0.105639
627.051778	0.105776
627.259457	0.105750
627.467117	0.105544
627.674758	0.105586
627.882382	0.105474
628.089987	0.105347
628.297574	0.105372
628.505143	0.105390
628.712694	0.105320
628.920226	0.105262
629.127740	0.105274
629.335236	0.105479
629.542714	0.105628
629.750174	0.105699
629.957615	0.105873
630.165038	0.105889
630.372443	0.105867
630.579829	0.105772
630.787198	0.105808
630.994548	0.105885
631.201880	0.105791
631.409194	0.105864
631.616489	0.105935
631.823766	0.106020
632.031025	0.105899
632.238266	0.105953
632.445489	0.106053
632.652693	0.106072
632.859879	0.106272
633.067047	0.106318
633.274197	0.106362
633.481329	0.106475
633.688442	0.106568
633.895537	0.106644
634.102614	0.106798
634.309672	0.106826
634.516713	0.107172
634.723735	0.107211
634.930739	0.107442
635.137724	0.107363
635.344692	0.107462
635.551641	0.107160
635.758572	0.107299
635.965485	0.107200
636.172379	0.107328
636.379256	0.107211
636.586114	0.107099
636.792954	0.107052
636.999775	0.107131
637.206579	0.107070
637.413364	0.107332
637.620131	0.107574
637.826880	0.107764
638.033610	0.107981
638.240323	0.107924
638.447017	0.108051
638.653692	0.108096
638.860350	0.108229
639.066990	0.108055
639.273611	0.108105
639.480214	0.108115
639.686798	0.108004
639.893365	0.107778
640.099913	0.107718
640.306443	0.107679
640.512955	0.107915
640.719449	0.107981
640.925924	0.108398
641.132381	0.108400
641.338820	0.108398
641.545241	0.108529
641.751644	0.108820
641.958028	0.109022
642.164394	0.109200
642.370742	0.109085
642.577071	0.108947
642.783383	0.108703
642.989676	0.108782
643.195951	0.108780
643.402207	0.109007
643.608446	0.108963
643.814666	0.109107
644.020868	0.109144
644.227052	0.109139
644.433218	0.109498
644.639365	0.109750
644.845494	0.109992
645.051605	0.109992
645.257698	0.109943
645.463772	0.109897
645.669828	0.109780
645.875866	0.109727
646.081886	0.109733
646.287888	0.109630
646.493871	0.109577
646.699836	0.109441
646.905783	0.109598
647.111712	0.109493
647.317622	0.109603
647.523514	0.109749
647.729388	0.109871
647.935244	0.110038
648.141082	0.110187
648.346901	0.110268
648.552702	0.110345
648.758485	0.110441
648.964250	0.110698
649.169996	0.110683
649.375724	0.110693
649.581434	0.110763
649.787126	0.110864
649.992800	0.110720
650.198455	0.110730
650.404092	0.110788
650.609711	0.110778
650.815311	0.110738
651.020894	0.111008
651.226458	0.111015
651.432004	0.110977
651.637532	0.110923
651.843041	0.111083
652.048532	0.111148
652.254006	0.111296
652.459460	0.111418
652.664897	0.111484
652.870315	0.111370
653.075716	0.111479
653.281097	0.111564
653.486461	0.111755
653.691807	0.111838
653.897134	0.111909
654.102443	0.111873
654.307734	0.111918
654.513006	0.112021
654.718261	0.112203
654.923497	0.112234
655.128715	0.112466
655.333915	0.112437
655.539096	0.112510
655.744259	0.112561
655.949404	0.112609
656.154531	0.112667
656.359640	0.112682
656.564730	0.112742
656.769802	0.112787
656.974856	0.112775
657.179892	0.113000
657.384909	0.112943
657.589908	0.112900
657.794889	0.112790
657.999852	0.112828
658.204797	0.112914
658.409723	0.113046
658.614631	0.113123
658.819521	0.113199
659.024393	0.113026
659.229246	0.113303
659.434081	0.113507
659.638898	0.113921
659.843697	0.113952
660.048478	0.113930
660.253240	0.113955
660.457984	0.114193
660.662710	0.114307
660.867417	0.114497
661.072107	0.114514
661.276778	0.114634
661.481431	0.114549
661.686066	0.114695
661.890682	0.114741
662.095281	0.114795
662.299861	0.114878
662.504422	0.114870
662.708966	0.114996
662.913491	0.115149
663.117999	0.115258
663.322488	0.115401
663.526958	0.115503
663.731411	0.115638
663.935845	0.115594
664.140261	0.115640
664.344659	0.115718
664.549038	0.115595
664.753400	0.115567
664.957743	0.115463
665.162068	0.115409
665.366375	0.115373
665.570663	0.115238
665.774933	0.115215
665.979185	0.115214
666.183419	0.115149
666.387635	0.115264
666.591832	0.115039
666.796011	0.115155
667.000172	0.115371
667.204315	0.115409
667.408439	0.115698
667.612545	0.115955
667.816634	0.116013
668.020703	0.116203
668.224755	0.116399
668.428788	0.116578
668.632803	0.116658
668.836800	0.116576
669.040779	0.116676
669.244739	0.116678
669.448681	0.116766
669.652605	0.116769
669.856511	0.116939
670.060399	0.116855
670.264268	0.117073
670.468119	0.117100
670.671952	0.117199
670.875767	0.117099
671.079563	0.117382
671.283341	0.117090
671.487101	0.117339
671.690843	0.117264
671.894567	0.117186
672.098272	0.117224
672.301959	0.117189
672.505628	0.117324
672.709278	0.117577
672.912911	0.117488
673.116525	0.117682
673.320121	0.117541
673.523699	0.117835
673.727258	0.118081
673.930799	0.118025
674.134322	0.118178
674.337827	0.118158
674.541314	0.118150
674.744782	0.118200
674.948232	0.118233
675.151664	0.118532
675.355078	0.118473
675.558474	0.118629
675.761851	0.118971
675.965210	0.119158
676.168551	0.119211
676.371873	0.119305
676.575178	0.119400
676.778464	0.119710
676.981732	0.119718
677.184981	0.119633
677.388213	0.119604
677.591426	0.119577
677.794621	0.119501
677.997798	0.119520
678.200956	0.119413
678.404097	0.119423
678.607219	0.119440
678.810323	0.119284
679.013408	0.119401
679.216476	0.119401
679.419525	0.119244
679.622556	0.119388
679.825569	0.119554
680.028563	0.119760
680.231540	0.119787
680.434498	0.119635
680.637438	0.119656
680.840359	0.119658
681.043263	0.119834
681.246148	0.119936
681.449015	0.119982
681.651864	0.119940
681.854694	0.119920
682.057506	0.119955
682.260301	0.120326
682.463076	0.120325
682.665834	0.120349
682.868573	0.120490
683.071295	0.120644
683.273998	0.120728
683.476682	0.120878
683.679349	0.121195
683.881997	0.121442
684.084627	0.121360
684.287239	0.121592
684.489833	0.121652
684.692408	0.121593
684.894965	0.121399
685.097504	0.121496
685.300025	0.121423
685.502527	0.121241
685.705012	0.121307
685.907478	0.121470
686.109925	0.121496
686.312355	0.121616
686.514766	0.121626
686.717159	0.121931
686.919534	0.121847
687.121891	0.122019
687.324230	0.122034
687.526550	0.121988
687.728852	0.121926
687.931136	0.122078
688.133401	0.122255
688.335649	0.122293
688.537878	0.122456
688.740089	0.122576
688.942281	0.122498
689.144456	0.122767
689.346612	0.122578
689.548750	0.122719
689.750870	0.122747
689.952971	0.122562
690.155055	0.122855
690.357120	0.122811
690.559167	0.122834
690.761195	0.122836
690.963206	0.122759
691.165198	0.122823
691.367172	0.122837
691.569128	0.122656
691.771065	0.122789
691.972984	0.122600
692.174885	0.122635
692.376768	0.122596
692.578633	0.122759
692.780479	0.122986
692.982308	0.123230
693.184118	0.123222
693.385909	0.123336
693.587683	0.123388
