sample name	sample
index	514
start time	 03-11-2021  03:30:03 PM


Wavelength (nm)	Absorbance
494.344910	0.108362
494.563924	0.108362
494.782919	0.108362
495.001897	1.557808
495.220856	0.462267
495.439797	0.395782
495.658719	0.223054
495.877624	0.213559
496.096510	0.190898
496.315378	0.021834
496.534227	-0.006297
496.753059	-0.010682
496.971872	-0.046795
497.190667	0.100173
497.409444	0.110614
497.628203	0.112175
497.846943	0.111968
498.065665	0.110968
498.284369	0.111888
498.503055	0.111853
498.721723	0.110954
498.940372	0.111275
499.159003	0.110290
499.377616	0.109594
499.596210	0.108886
499.814787	0.108988
500.033345	0.108422
500.251885	0.107908
500.470406	0.107263
500.688910	0.107581
500.907395	0.107616
501.125862	0.109192
501.344311	0.108724
501.562742	0.110250
501.781154	0.110799
501.999548	0.111620
502.217924	0.110977
502.436282	0.111473
502.654621	0.111701
502.872942	0.111521
503.091245	0.110963
503.309530	0.111806
503.527797	0.110317
503.746045	0.109531
503.964275	0.109067
504.182487	0.108555
504.400681	0.108288
504.618856	0.108120
504.837013	0.107961
505.055152	0.108281
505.273273	0.107554
505.491376	0.109020
505.709460	0.109777
505.927526	0.110664
506.145574	0.111284
506.363604	0.111925
506.581615	0.112160
506.799608	0.112280
507.017583	0.111856
507.235540	0.111827
507.453478	0.111735
507.671399	0.110968
507.889301	0.110860
508.107185	0.111586
508.325050	0.111344
508.542898	0.111190
508.760727	0.111190
508.978538	0.111460
509.196330	0.111545
509.414105	0.110317
509.631861	0.110921
509.849599	0.110688
510.067319	0.110913
510.285021	0.110966
510.502704	0.111082
510.720369	0.110725
510.938016	0.110238
511.155645	0.110232
511.373255	0.111356
511.590848	0.110896
511.808422	0.110490
512.025977	0.110131
512.243515	0.110121
512.461034	0.110300
512.678536	0.110659
512.896018	0.110770
513.113483	0.111462
513.330930	0.110161
513.548358	0.110237
513.765768	0.110255
513.983160	0.110434
514.200533	0.110452
514.417889	0.110335
514.635226	0.110437
514.852545	0.110772
515.069845	0.110469
515.287128	0.110791
515.504392	0.110407
515.721638	0.110820
515.938866	0.111180
516.156075	0.111400
516.373267	0.112150
516.590440	0.112717
516.807594	0.112535
517.024731	0.113624
517.241850	0.114337
517.458950	0.115117
517.676032	0.115709
517.893095	0.115684
518.110141	0.116259
518.327168	0.115960
518.544177	0.115781
518.761168	0.116681
518.978141	0.116450
519.195095	0.116311
519.412031	0.116117
519.628949	0.115906
519.845849	0.115870
520.062731	0.114572
520.279594	0.114647
520.496439	0.114246
520.713266	0.113886
520.930074	0.113196
521.146865	0.113760
521.363637	0.113653
521.580391	0.113083
521.797127	0.113229
522.013844	0.114012
522.230543	0.114381
522.447224	0.115001
522.663887	0.114726
522.880532	0.114849
523.097158	0.114802
523.313766	0.115045
523.530356	0.115257
523.746928	0.115095
523.963481	0.114829
524.180017	0.114759
524.396534	0.115103
524.613032	0.115723
524.829513	0.115885
525.045975	0.115865
525.262420	0.115934
525.478845	0.116546
525.695253	0.116834
525.911643	0.117541
526.128014	0.117798
526.344367	0.117372
526.560702	0.117265
526.777018	0.117598
526.993316	0.117692
527.209597	0.118246
527.425858	0.118539
527.642102	0.118710
527.858328	0.118449
528.074535	0.118212
528.290724	0.118813
528.506894	0.119017
528.723047	0.119003
528.939181	0.119224
529.155297	0.119035
529.371395	0.118858
529.587475	0.118759
529.803536	0.119077
530.019579	0.119462
530.235604	0.119293
530.451611	0.118951
530.667600	0.119160
530.883570	0.119232
531.099522	0.119335
531.315456	0.119741
531.531372	0.120305
531.747269	0.120568
531.963148	0.119923
532.179009	0.120078
532.394852	0.120287
532.610676	0.120444
532.826482	0.120326
533.042271	0.120348
533.258040	0.119772
533.473792	0.119552
533.689525	0.119888
533.905240	0.120533
534.120937	0.120400
534.336616	0.121241
534.552277	0.121035
534.767919	0.121250
534.983543	0.121315
535.199149	0.121835
535.414736	0.122377
535.630306	0.122346
535.845857	0.122829
536.061390	0.122916
536.276904	0.122656
536.492401	0.123042
536.707879	0.123046
536.923339	0.123149
537.138781	0.123137
537.354204	0.122950
537.569610	0.123017
537.784997	0.123121
538.000366	0.123599
538.215716	0.123448
538.431049	0.123556
538.646363	0.123192
538.861659	0.123185
539.076937	0.123624
539.292196	0.123567
539.507438	0.123418
539.722661	0.123433
539.937866	0.123443
540.153052	0.123922
540.368221	0.124191
540.583371	0.124682
540.798503	0.125056
541.013617	0.125095
541.228712	0.125423
541.443789	0.125862
541.658848	0.125665
541.873889	0.126269
542.088912	0.126129
542.303916	0.125965
542.518902	0.126245
542.733870	0.126331
542.948820	0.126321
543.163752	0.126043
543.378665	0.125643
543.593560	0.126217
543.808437	0.125894
544.023295	0.125743
544.238136	0.125941
544.452958	0.126279
544.667762	0.126431
544.882548	0.126470
545.097315	0.126998
545.312064	0.127516
545.526795	0.127219
545.741508	0.126792
545.956203	0.126873
546.170879	0.127149
546.385537	0.126927
546.600177	0.127399
546.814799	0.127541
547.029402	0.127716
547.243988	0.127480
547.458555	0.127496
547.673103	0.128176
547.887634	0.128802
548.102146	0.128944
548.316640	0.128982
548.531116	0.129021
548.745574	0.129061
548.960013	0.128688
549.174435	0.128960
549.388838	0.129294
549.603222	0.129206
549.817589	0.129127
550.031937	0.128750
550.246267	0.129160
550.460579	0.128843
550.674873	0.128593
550.889148	0.128927
551.103405	0.129006
551.317644	0.129007
551.531865	0.128726
551.746068	0.128623
551.960252	0.128802
552.174418	0.129068
552.388566	0.129243
552.602696	0.129586
552.816807	0.130156
553.030900	0.130166
553.244975	0.129956
553.459032	0.130517
553.673070	0.130482
553.887091	0.130902
554.101093	0.131056
554.315077	0.131264
554.529042	0.131440
554.742990	0.131120
554.956919	0.131714
555.170830	0.131666
555.384722	0.131791
555.598597	0.132234
555.812453	0.132182
556.026291	0.131502
556.240111	0.131371
556.453913	0.131609
556.667696	0.132224
556.881461	0.131749
557.095208	0.132362
557.308937	0.132471
557.522647	0.132417
557.736339	0.132927
557.950013	0.133442
558.163669	0.133533
558.377307	0.133768
558.590926	0.133444
558.804527	0.133364
559.018110	0.133333
559.231675	0.133598
559.445221	0.133861
559.658749	0.133295
559.872259	0.133703
560.085751	0.133722
560.299225	0.133735
560.512680	0.133471
560.726117	0.133675
560.939536	0.133802
561.152937	0.133775
561.366319	0.133609
561.579683	0.133849
561.793029	0.133553
562.006357	0.133448
562.219667	0.133626
562.432958	0.134131
562.646231	0.134582
562.859486	0.134557
563.072723	0.134627
563.285941	0.135051
563.499141	0.135168
563.712323	0.135744
563.925487	0.136339
564.138632	0.135899
564.351760	0.135533
564.564869	0.135449
564.777960	0.135501
564.991032	0.135423
565.204087	0.135339
565.417123	0.135382
565.630141	0.135144
565.843140	0.135150
566.056122	0.135671
566.269085	0.136264
566.482030	0.136443
566.694957	0.136821
566.907866	0.137011
567.120756	0.137093
567.333628	0.137250
567.546482	0.137171
567.759318	0.137176
567.972135	0.137191
568.184935	0.136823
568.397716	0.137003
568.610478	0.136921
568.823223	0.137114
569.035949	0.137090
569.248657	0.137036
569.461347	0.137238
569.674019	0.137506
569.886672	0.137446
570.099308	0.137708
570.311925	0.137606
570.524523	0.137870
570.737104	0.137943
570.949666	0.137915
571.162210	0.138194
571.374736	0.138329
571.587244	0.138486
571.799733	0.138716
572.012205	0.139018
572.224658	0.138995
572.437092	0.139057
572.649509	0.138736
572.861907	0.138965
573.074287	0.139211
573.286649	0.139390
573.498993	0.139271
573.711318	0.139258
573.923625	0.139403
574.135914	0.139760
574.348185	0.139814
574.560438	0.140319
574.772672	0.140339
574.984888	0.140447
575.197086	0.140210
575.409266	0.140357
575.621427	0.140423
575.833570	0.140095
576.045695	0.139775
576.257802	0.139676
576.469890	0.139353
576.681961	0.139805
576.894013	0.139726
577.106046	0.139909
577.318062	0.139760
577.530059	0.139760
577.742039	0.139950
577.954000	0.140074
578.165942	0.140472
578.377867	0.141240
578.589773	0.141087
578.801661	0.141016
579.013531	0.141082
579.225382	0.141610
579.437216	0.141864
579.649031	0.141904
579.860828	0.142241
580.072606	0.142273
580.284367	0.142065
580.496109	0.141956
580.707833	0.142133
580.919539	0.142113
581.131227	0.141708
581.342896	0.141976
581.554547	0.142250
581.766180	0.142316
581.977795	0.142338
582.189391	0.142351
582.400969	0.142418
582.612529	0.142249
582.824071	0.142727
583.035595	0.143258
583.247100	0.143185
583.458587	0.143214
583.670056	0.143547
583.881506	0.143445
584.092939	0.143275
584.304353	0.143378
584.515749	0.143752
584.727127	0.143620
584.938486	0.143423
585.149828	0.143322
585.361151	0.143648
585.572456	0.143623
585.783742	0.143602
585.995011	0.143729
586.206261	0.143776
586.417493	0.143884
586.628706	0.143928
586.839902	0.144022
587.051079	0.144125
587.262238	0.144260
587.473379	0.143855
587.684502	0.143919
587.895606	0.144088
588.106692	0.144223
588.317760	0.144197
588.528810	0.144289
588.739841	0.144603
588.950855	0.144491
589.161850	0.143971
589.372827	0.144569
589.583785	0.144740
589.794726	0.144866
590.005648	0.145246
590.216552	0.145345
590.427437	0.145432
590.638305	0.145331
590.849154	0.145780
591.059985	0.146139
591.270798	0.146064
591.481592	0.146127
591.692369	0.146460
591.903127	0.146326
592.113867	0.146532
592.324588	0.146849
592.535292	0.146822
592.745977	0.146733
592.956644	0.146583
593.167293	0.146497
593.377923	0.146628
593.588536	0.146465
593.799130	0.146565
594.009706	0.146407
594.220263	0.146153
594.430803	0.146304
594.641324	0.146198
594.851827	0.146367
595.062312	0.146491
595.272778	0.146688
595.483227	0.146817
595.693657	0.147006
595.904069	0.147387
596.114462	0.147615
596.324838	0.147445
596.535195	0.147819
596.745534	0.147937
596.955855	0.147894
597.166157	0.147534
597.376441	0.147816
597.586707	0.147941
597.796955	0.147877
598.007185	0.147955
598.217396	0.148193
598.427589	0.148146
598.637764	0.148333
598.847921	0.148387
599.058060	0.148781
599.268180	0.148559
599.478282	0.148479
599.688366	0.148644
599.898431	0.148442
600.108479	0.148606
600.318508	0.148524
600.528519	0.148482
600.738511	0.148620
600.948486	0.148451
601.158442	0.148560
601.368380	0.148590
601.578300	0.148508
601.788202	0.148773
601.998085	0.148723
602.207950	0.148873
602.417797	0.149312
602.627626	0.149726
602.837436	0.150073
603.047228	0.150073
603.257002	0.150408
603.466758	0.150566
603.676496	0.150789
603.886215	0.150968
604.095916	0.151503
604.305599	0.151692
604.515264	0.151523
604.724910	0.151621
604.934538	0.152104
605.144148	0.152204
605.353740	0.152040
605.563314	0.152166
605.772869	0.152286
605.982406	0.151822
606.191925	0.151435
606.401425	0.151465
606.610908	0.151515
606.820372	0.151193
607.029818	0.150914
607.239246	0.151085
607.448655	0.150853
607.658047	0.150709
607.867420	0.150930
608.076775	0.150820
608.286111	0.150824
608.495430	0.150963
608.704730	0.150899
608.914012	0.150943
609.123275	0.151098
609.332521	0.151069
609.541748	0.151269
609.750957	0.151290
609.960148	0.151547
610.169321	0.151621
610.378475	0.151364
610.587611	0.151358
610.796729	0.151402
611.005829	0.151506
611.214910	0.151882
611.423974	0.152166
611.633019	0.152091
611.842045	0.152282
612.051054	0.152517
612.260044	0.152546
612.469017	0.153022
612.677970	0.153050
612.886906	0.152922
613.095824	0.152905
613.304723	0.152808
613.513604	0.153038
613.722467	0.153057
613.931311	0.153173
614.140138	0.153594
614.348946	0.153716
614.557736	0.153919
614.766507	0.153964
614.975261	0.153975
615.183996	0.153914
615.392713	0.154085
615.601412	0.154058
615.810092	0.154040
616.018754	0.153938
616.227399	0.153751
616.436024	0.153822
616.644632	0.154139
616.853222	0.154072
617.061793	0.154336
617.270346	0.154224
617.478880	0.154267
617.687397	0.154267
617.895895	0.154652
618.104375	0.154751
618.312837	0.154764
618.521281	0.154664
618.729706	0.154974
618.938113	0.155194
619.146502	0.155634
619.354873	0.155962
619.563226	0.155996
619.771560	0.155967
619.979876	0.156034
620.188174	0.156234
620.396453	0.156386
620.604715	0.156294
620.812958	0.155959
621.021183	0.155768
621.229390	0.155537
621.437578	0.155582
621.645748	0.155470
621.853900	0.155392
622.062034	0.155365
622.270150	0.155557
622.478247	0.155638
622.686326	0.155934
622.894387	0.156009
623.102430	0.156107
623.310454	0.156466
623.518461	0.156548
623.726449	0.156691
623.934418	0.156902
624.142370	0.156923
624.350303	0.156805
624.558218	0.156606
624.766115	0.156763
624.973994	0.156888
625.181855	0.156868
625.389697	0.156849
625.597521	0.156856
625.805327	0.156544
626.013114	0.156265
626.220883	0.156502
626.428634	0.156740
626.636367	0.156792
626.844082	0.156736
627.051778	0.156542
627.259457	0.156616
627.467117	0.156680
627.674758	0.156849
627.882382	0.157175
628.089987	0.157276
628.297574	0.157194
628.505143	0.156851
628.712694	0.156930
628.920226	0.157127
629.127740	0.157478
629.335236	0.157629
629.542714	0.157773
629.750174	0.157734
629.957615	0.157831
630.165038	0.158225
630.372443	0.158584
630.579829	0.158717
630.787198	0.158565
630.994548	0.158340
631.201880	0.158548
631.409194	0.158682
631.616489	0.158707
631.823766	0.158734
632.031025	0.158433
632.238266	0.158412
632.445489	0.158472
632.652693	0.158641
632.859879	0.158895
633.067047	0.158758
633.274197	0.158834
633.481329	0.159084
633.688442	0.159143
633.895537	0.159592
634.102614	0.159725
634.309672	0.159830
634.516713	0.159984
634.723735	0.159884
634.930739	0.160129
635.137724	0.160326
635.344692	0.160401
635.551641	0.160214
635.758572	0.160014
635.965485	0.160021
636.172379	0.160091
636.379256	0.160214
636.586114	0.160373
636.792954	0.160259
636.999775	0.160299
637.206579	0.160548
637.413364	0.160696
637.620131	0.160633
637.826880	0.160686
638.033610	0.160470
638.240323	0.160525
638.447017	0.160536
638.653692	0.160634
638.860350	0.160531
639.066990	0.160031
639.273611	0.160056
639.480214	0.160451
639.686798	0.160618
639.893365	0.161038
640.099913	0.161042
640.306443	0.160987
640.512955	0.160936
640.719449	0.160870
640.925924	0.161296
641.132381	0.161505
641.338820	0.161264
641.545241	0.161242
641.751644	0.161045
641.958028	0.161199
642.164394	0.161278
642.370742	0.161486
642.577071	0.161789
642.783383	0.161690
642.989676	0.161858
643.195951	0.161945
643.402207	0.161874
643.608446	0.162188
643.814666	0.162248
644.020868	0.162413
644.227052	0.162379
644.433218	0.162579
644.639365	0.162875
644.845494	0.162820
645.051605	0.163207
645.257698	0.163481
645.463772	0.163469
645.669828	0.163492
645.875866	0.163471
646.081886	0.163661
646.287888	0.163569
646.493871	0.163471
646.699836	0.163575
646.905783	0.163322
647.111712	0.163317
647.317622	0.163355
647.523514	0.163343
647.729388	0.163471
647.935244	0.163304
648.141082	0.163392
648.346901	0.163408
648.552702	0.163486
648.758485	0.163724
648.964250	0.163715
649.169996	0.163878
649.375724	0.164135
649.581434	0.164374
649.787126	0.164629
649.992800	0.164724
650.198455	0.165008
650.404092	0.165296
650.609711	0.165426
650.815311	0.165818
651.020894	0.165847
651.226458	0.165833
651.432004	0.165792
651.637532	0.165862
651.843041	0.165962
652.048532	0.165996
652.254006	0.166055
652.459460	0.166070
652.664897	0.165775
652.870315	0.165848
653.075716	0.165864
653.281097	0.165715
653.486461	0.165856
653.691807	0.166000
653.897134	0.166118
654.102443	0.166146
654.307734	0.166247
654.513006	0.166424
654.718261	0.166508
654.923497	0.166750
655.128715	0.167005
655.333915	0.167154
655.539096	0.166998
655.744259	0.167016
655.949404	0.167129
656.154531	0.166936
656.359640	0.167141
656.564730	0.167007
656.769802	0.167034
656.974856	0.167168
657.179892	0.167349
657.384909	0.167576
657.589908	0.167624
657.794889	0.167598
657.999852	0.167961
658.204797	0.168163
658.409723	0.168392
658.614631	0.168534
658.819521	0.168544
659.024393	0.168557
659.229246	0.168517
659.434081	0.168556
659.638898	0.168908
659.843697	0.169038
660.048478	0.169095
660.253240	0.169248
660.457984	0.169249
660.662710	0.169328
660.867417	0.169329
661.072107	0.169656
661.276778	0.169919
661.481431	0.169771
661.686066	0.169693
661.890682	0.169731
662.095281	0.169920
662.299861	0.169927
662.504422	0.170130
662.708966	0.170116
662.913491	0.169976
663.117999	0.169825
663.322488	0.170143
663.526958	0.170371
663.731411	0.170611
663.935845	0.170816
664.140261	0.171127
664.344659	0.171013
664.549038	0.171145
664.753400	0.171293
664.957743	0.171610
665.162068	0.171573
665.366375	0.171654
665.570663	0.171620
665.774933	0.171531
665.979185	0.171424
666.183419	0.171682
666.387635	0.172019
666.591832	0.171942
666.796011	0.171831
667.000172	0.172023
667.204315	0.172120
667.408439	0.172212
667.612545	0.172316
667.816634	0.172497
668.020703	0.172634
668.224755	0.172662
668.428788	0.172963
668.632803	0.173083
668.836800	0.172816
669.040779	0.173025
669.244739	0.173018
669.448681	0.173026
669.652605	0.173026
669.856511	0.173068
670.060399	0.173137
670.264268	0.173299
670.468119	0.173282
670.671952	0.173582
670.875767	0.173297
671.079563	0.173414
671.283341	0.173571
671.487101	0.173798
671.690843	0.173805
671.894567	0.173709
672.098272	0.173805
672.301959	0.174057
672.505628	0.173943
672.709278	0.174069
672.912911	0.174198
673.116525	0.174238
673.320121	0.174252
673.523699	0.174530
673.727258	0.174774
673.930799	0.174863
674.134322	0.175019
674.337827	0.175224
674.541314	0.175521
674.744782	0.175603
674.948232	0.175884
675.151664	0.176146
675.355078	0.176234
675.558474	0.176409
675.761851	0.176387
675.965210	0.176393
676.168551	0.176518
676.371873	0.176467
676.575178	0.176473
676.778464	0.176494
676.981732	0.176439
677.184981	0.176497
677.388213	0.176601
677.591426	0.176734
677.794621	0.177195
677.997798	0.177236
678.200956	0.177411
678.404097	0.177559
678.607219	0.177629
678.810323	0.177664
679.013408	0.177774
679.216476	0.177969
679.419525	0.178105
679.622556	0.178076
679.825569	0.178333
680.028563	0.178725
680.231540	0.179007
680.434498	0.179046
680.637438	0.179448
680.840359	0.179305
681.043263	0.179414
681.246148	0.179568
681.449015	0.179408
681.651864	0.179539
681.854694	0.179473
682.057506	0.179359
682.260301	0.179730
682.463076	0.179648
682.665834	0.180134
682.868573	0.179970
683.071295	0.180056
683.273998	0.180242
683.476682	0.180351
683.679349	0.180405
683.881997	0.180673
684.084627	0.180639
684.287239	0.180688
684.489833	0.180510
684.692408	0.180473
684.894965	0.180614
685.097504	0.180712
685.300025	0.180809
685.502527	0.181025
685.705012	0.180916
685.907478	0.180959
686.109925	0.181039
686.312355	0.181235
686.514766	0.181626
686.717159	0.181775
686.919534	0.181937
687.121891	0.181723
687.324230	0.181949
687.526550	0.182099
687.728852	0.182056
687.931136	0.182157
688.133401	0.182099
688.335649	0.181821
688.537878	0.181756
688.740089	0.181831
688.942281	0.182174
689.144456	0.182063
689.346612	0.182185
689.548750	0.182266
689.750870	0.182420
689.952971	0.182626
690.155055	0.182834
690.357120	0.182951
690.559167	0.182871
690.761195	0.182841
690.963206	0.182962
691.165198	0.182966
691.367172	0.183077
691.569128	0.182921
691.771065	0.183064
691.972984	0.183184
692.174885	0.183342
692.376768	0.183515
692.578633	0.183737
692.780479	0.183680
692.982308	0.183956
693.184118	0.184100
693.385909	0.184186
