sample name	sample
index	213
start time	 02-22-2021  09:59:30 AM


Wavelength (nm)	Absorbance
494.344910	-0.056559
494.563924	-0.056559
494.782919	-0.056559
495.001897	0.087360
495.220856	-0.004831
495.439797	0.001033
495.658719	0.009025
495.877624	0.010837
496.096510	-0.004545
496.315378	-0.007619
496.534227	-0.008818
496.753059	-0.012358
496.971872	-0.012580
497.190667	0.086841
497.409444	0.122627
497.628203	0.132547
497.846943	0.140553
498.065665	0.146020
498.284369	0.149302
498.503055	0.149152
498.721723	0.150842
498.940372	0.152355
499.159003	0.151489
499.377616	0.151080
499.596210	0.151661
499.814787	0.151356
500.033345	0.151210
500.251885	0.150956
500.470406	0.151666
500.688910	0.151249
500.907395	0.151645
501.125862	0.152899
501.344311	0.153434
501.562742	0.154340
501.781154	0.154741
501.999548	0.154831
502.217924	0.154740
502.436282	0.155960
502.654621	0.156244
502.872942	0.156250
503.091245	0.156241
503.309530	0.157657
503.527797	0.158058
503.746045	0.158262
503.964275	0.158701
504.182487	0.159833
504.400681	0.160069
504.618856	0.161188
504.837013	0.162013
505.055152	0.161269
505.273273	0.160519
505.491376	0.160401
505.709460	0.160536
505.927526	0.160863
506.145574	0.161460
506.363604	0.160399
506.581615	0.160070
506.799608	0.160132
507.017583	0.161656
507.235540	0.162557
507.453478	0.162922
507.671399	0.162949
507.889301	0.163484
508.107185	0.163047
508.325050	0.164122
508.542898	0.164599
508.760727	0.165736
508.978538	0.165092
509.196330	0.164325
509.414105	0.163555
509.631861	0.164381
509.849599	0.164164
510.067319	0.164143
510.285021	0.163713
510.502704	0.163769
510.720369	0.162359
510.938016	0.163073
511.155645	0.163087
511.373255	0.164057
511.590848	0.164064
511.808422	0.164131
512.025977	0.164176
512.243515	0.165386
512.461034	0.166415
512.678536	0.166582
512.896018	0.166725
513.113483	0.167082
513.330930	0.166703
513.548358	0.167224
513.765768	0.168426
513.983160	0.168483
514.200533	0.168444
514.417889	0.167580
514.635226	0.168048
514.852545	0.168259
515.069845	0.167748
515.287128	0.168239
515.504392	0.168139
515.721638	0.167899
515.938866	0.168553
516.156075	0.168810
516.373267	0.169931
516.590440	0.170269
516.807594	0.171063
517.024731	0.172277
517.241850	0.173711
517.458950	0.173998
517.676032	0.174265
517.893095	0.174966
518.110141	0.175034
518.327168	0.175056
518.544177	0.175192
518.761168	0.175222
518.978141	0.176241
519.195095	0.175802
519.412031	0.176275
519.628949	0.176294
519.845849	0.176350
520.062731	0.176655
520.279594	0.177719
520.496439	0.178831
520.713266	0.178974
520.930074	0.178411
521.146865	0.178579
521.363637	0.178928
521.580391	0.178400
521.797127	0.178807
522.013844	0.179468
522.230543	0.177925
522.447224	0.177978
522.663887	0.177382
522.880532	0.177711
523.097158	0.177862
523.313766	0.177232
523.530356	0.178245
523.746928	0.178026
523.963481	0.178087
524.180017	0.179534
524.396534	0.179457
524.613032	0.180033
524.829513	0.180409
525.045975	0.180961
525.262420	0.182671
525.478845	0.183359
525.695253	0.183700
525.911643	0.183879
526.128014	0.184180
526.344367	0.184731
526.560702	0.185874
526.777018	0.186698
526.993316	0.186510
527.209597	0.186298
527.425858	0.186329
527.642102	0.186717
527.858328	0.186994
528.074535	0.187127
528.290724	0.187291
528.506894	0.187335
528.723047	0.186549
528.939181	0.187656
529.155297	0.187534
529.371395	0.187975
529.587475	0.188157
529.803536	0.188737
530.019579	0.189115
530.235604	0.189395
530.451611	0.189866
530.667600	0.190135
530.883570	0.190471
531.099522	0.190872
531.315456	0.191116
531.531372	0.191470
531.747269	0.191903
531.963148	0.192143
532.179009	0.192440
532.394852	0.192851
532.610676	0.193879
532.826482	0.193646
533.042271	0.194208
533.258040	0.194082
533.473792	0.194688
533.689525	0.194505
533.905240	0.195572
534.120937	0.195501
534.336616	0.195717
534.552277	0.196590
534.767919	0.196936
534.983543	0.197295
535.199149	0.198443
535.414736	0.199121
535.630306	0.199919
535.845857	0.199784
536.061390	0.200434
536.276904	0.200744
536.492401	0.200632
536.707879	0.200828
536.923339	0.200747
537.138781	0.200711
537.354204	0.200743
537.569610	0.200858
537.784997	0.201361
538.000366	0.201623
538.215716	0.201206
538.431049	0.201998
538.646363	0.202851
538.861659	0.203686
539.076937	0.204024
539.292196	0.204650
539.507438	0.205423
539.722661	0.205199
539.937866	0.205547
540.153052	0.206326
540.368221	0.206321
540.583371	0.206285
540.798503	0.206545
541.013617	0.206587
541.228712	0.206381
541.443789	0.206340
541.658848	0.206208
541.873889	0.207105
542.088912	0.207707
542.303916	0.207353
542.518902	0.207588
542.733870	0.207984
542.948820	0.208363
543.163752	0.209106
543.378665	0.208856
543.593560	0.209574
543.808437	0.209145
544.023295	0.209388
544.238136	0.209833
544.452958	0.209814
544.667762	0.210020
544.882548	0.210601
545.097315	0.211195
545.312064	0.211583
545.526795	0.212535
545.741508	0.212889
545.956203	0.213361
546.170879	0.214181
546.385537	0.215148
546.600177	0.215386
546.814799	0.215432
547.029402	0.214997
547.243988	0.215549
547.458555	0.214953
547.673103	0.215252
547.887634	0.215464
548.102146	0.215409
548.316640	0.215377
548.531116	0.215690
548.745574	0.215907
548.960013	0.216491
549.174435	0.216736
549.388838	0.217292
549.603222	0.217677
549.817589	0.217489
550.031937	0.217703
550.246267	0.218016
550.460579	0.218553
550.674873	0.219188
550.889148	0.219725
551.103405	0.219811
551.317644	0.219612
551.531865	0.219807
551.746068	0.220405
551.960252	0.220978
552.174418	0.221023
552.388566	0.220666
552.602696	0.220501
552.816807	0.220212
553.030900	0.220665
553.244975	0.221540
553.459032	0.222253
553.673070	0.222617
553.887091	0.223163
554.101093	0.223473
554.315077	0.224214
554.529042	0.224533
554.742990	0.225167
554.956919	0.225555
555.170830	0.225311
555.384722	0.225554
555.598597	0.225425
555.812453	0.225154
556.026291	0.225596
556.240111	0.225783
556.453913	0.226406
556.667696	0.226335
556.881461	0.226767
557.095208	0.227284
557.308937	0.227117
557.522647	0.227730
557.736339	0.227841
557.950013	0.227704
558.163669	0.227585
558.377307	0.227763
558.590926	0.228349
558.804527	0.228430
559.018110	0.228772
559.231675	0.228800
559.445221	0.228798
559.658749	0.229196
559.872259	0.229633
560.085751	0.229922
560.299225	0.229442
560.512680	0.229218
560.726117	0.229227
560.939536	0.229464
561.152937	0.230075
561.366319	0.229961
561.579683	0.230299
561.793029	0.230774
562.006357	0.231237
562.219667	0.231951
562.432958	0.231902
562.646231	0.232004
562.859486	0.232256
563.072723	0.232351
563.285941	0.233080
563.499141	0.233131
563.712323	0.233057
563.925487	0.233104
564.138632	0.233351
564.351760	0.234153
564.564869	0.234465
564.777960	0.234601
564.991032	0.235055
565.204087	0.234964
565.417123	0.235109
565.630141	0.235722
565.843140	0.235795
566.056122	0.235487
566.269085	0.235797
566.482030	0.235936
566.694957	0.236029
566.907866	0.235591
567.120756	0.235571
567.333628	0.236217
567.546482	0.236268
567.759318	0.236365
567.972135	0.236770
568.184935	0.236492
568.397716	0.236772
568.610478	0.236963
568.823223	0.237665
569.035949	0.238401
569.248657	0.238039
569.461347	0.238174
569.674019	0.238832
569.886672	0.239064
570.099308	0.239425
570.311925	0.239700
570.524523	0.240083
570.737104	0.239952
570.949666	0.239768
571.162210	0.239886
571.374736	0.239836
571.587244	0.239654
571.799733	0.239804
572.012205	0.240108
572.224658	0.239965
572.437092	0.239827
572.649509	0.240156
572.861907	0.240535
573.074287	0.240862
573.286649	0.241265
573.498993	0.241812
573.711318	0.242125
573.923625	0.241730
574.135914	0.242421
574.348185	0.242891
574.560438	0.243199
574.772672	0.242991
574.984888	0.243143
575.197086	0.242712
575.409266	0.242916
575.621427	0.242898
575.833570	0.243612
576.045695	0.243560
576.257802	0.243543
576.469890	0.243520
576.681961	0.243776
576.894013	0.243658
577.106046	0.244170
577.318062	0.244301
577.530059	0.244363
577.742039	0.244376
577.954000	0.244500
578.165942	0.244696
578.377867	0.245138
578.589773	0.245370
578.801661	0.246152
579.013531	0.246441
579.225382	0.246714
579.437216	0.247064
579.649031	0.247524
579.860828	0.247812
580.072606	0.248011
580.284367	0.247773
580.496109	0.248049
580.707833	0.247661
580.919539	0.247999
581.131227	0.247598
581.342896	0.248221
581.554547	0.247903
581.766180	0.248498
581.977795	0.248833
582.189391	0.249335
582.400969	0.249626
582.612529	0.250388
582.824071	0.250356
583.035595	0.250944
583.247100	0.250835
583.458587	0.251507
583.670056	0.251510
583.881506	0.251568
584.092939	0.251844
584.304353	0.251924
584.515749	0.252137
584.727127	0.252363
584.938486	0.252492
585.149828	0.252906
585.361151	0.252854
585.572456	0.252699
585.783742	0.253060
585.995011	0.252993
586.206261	0.253113
586.417493	0.253113
586.628706	0.253554
586.839902	0.253904
587.051079	0.253635
587.262238	0.253680
587.473379	0.254237
587.684502	0.254492
587.895606	0.254708
588.106692	0.255069
588.317760	0.255683
588.528810	0.255432
588.739841	0.255149
588.950855	0.255857
589.161850	0.256272
589.372827	0.256078
589.583785	0.255998
589.794726	0.256408
590.005648	0.256254
590.216552	0.255912
590.427437	0.256505
590.638305	0.257220
590.849154	0.257122
591.059985	0.256838
591.270798	0.257293
591.481592	0.257904
591.692369	0.257692
591.903127	0.258131
592.113867	0.258238
592.324588	0.258143
592.535292	0.257989
592.745977	0.258212
592.956644	0.258766
593.167293	0.258855
593.377923	0.258739
593.588536	0.259608
593.799130	0.259893
594.009706	0.260130
594.220263	0.260855
594.430803	0.261189
594.641324	0.261355
594.851827	0.261615
595.062312	0.261833
595.272778	0.262065
595.483227	0.261766
595.693657	0.261864
595.904069	0.261883
596.114462	0.261712
596.324838	0.261937
596.535195	0.262240
596.745534	0.262484
596.955855	0.263103
597.166157	0.262866
597.376441	0.262966
597.586707	0.263065
597.796955	0.263537
598.007185	0.263847
598.217396	0.264097
598.427589	0.264340
598.637764	0.264327
598.847921	0.264086
599.058060	0.264446
599.268180	0.264755
599.478282	0.265003
599.688366	0.265328
599.898431	0.265233
600.108479	0.265063
600.318508	0.264976
600.528519	0.265095
600.738511	0.265368
600.948486	0.265498
601.158442	0.265798
601.368380	0.266214
601.578300	0.265868
601.788202	0.266340
601.998085	0.266877
602.207950	0.267012
602.417797	0.267499
602.627626	0.267693
602.837436	0.268293
603.047228	0.268371
603.257002	0.268261
603.466758	0.268698
603.676496	0.268403
603.886215	0.268402
604.095916	0.268801
604.305599	0.268828
604.515264	0.268747
604.724910	0.268493
604.934538	0.268726
605.144148	0.269036
605.353740	0.269439
605.563314	0.270068
605.772869	0.270035
605.982406	0.269997
606.191925	0.270099
606.401425	0.270366
606.610908	0.270885
606.820372	0.270828
607.029818	0.270878
607.239246	0.270834
607.448655	0.270717
607.658047	0.271281
607.867420	0.271516
608.076775	0.271564
608.286111	0.271459
608.495430	0.271715
608.704730	0.272120
608.914012	0.272439
609.123275	0.272520
609.332521	0.272818
609.541748	0.272803
609.750957	0.272799
609.960148	0.273099
610.169321	0.273782
610.378475	0.273766
610.587611	0.273651
610.796729	0.273901
611.005829	0.273958
611.214910	0.274068
611.423974	0.274153
611.633019	0.274395
611.842045	0.274646
612.051054	0.274536
612.260044	0.274899
612.469017	0.275382
612.677970	0.275123
612.886906	0.275504
613.095824	0.275741
613.304723	0.275935
613.513604	0.276113
613.722467	0.276301
613.931311	0.276497
614.140138	0.276467
614.348946	0.276389
614.557736	0.276803
614.766507	0.277015
614.975261	0.277026
615.183996	0.277206
615.392713	0.277608
615.601412	0.277569
615.810092	0.277681
616.018754	0.277654
616.227399	0.277948
616.436024	0.278146
616.644632	0.278178
616.853222	0.278481
617.061793	0.278563
617.270346	0.278559
617.478880	0.278967
617.687397	0.279199
617.895895	0.279284
618.104375	0.279257
618.312837	0.279201
618.521281	0.279258
618.729706	0.279270
618.938113	0.279471
619.146502	0.280021
619.354873	0.280071
619.563226	0.280200
619.771560	0.280321
619.979876	0.280662
620.188174	0.281117
620.396453	0.281554
620.604715	0.281480
620.812958	0.281491
621.021183	0.281384
621.229390	0.281644
621.437578	0.281856
621.645748	0.282413
621.853900	0.282551
622.062034	0.282495
622.270150	0.282403
622.478247	0.282729
622.686326	0.283181
622.894387	0.282937
623.102430	0.282844
623.310454	0.282846
623.518461	0.282821
623.726449	0.282868
623.934418	0.282887
624.142370	0.283115
624.350303	0.283513
624.558218	0.283824
624.766115	0.284017
624.973994	0.284142
625.181855	0.284250
625.389697	0.284151
625.597521	0.284280
625.805327	0.284611
626.013114	0.284719
626.220883	0.284761
626.428634	0.284568
626.636367	0.284713
626.844082	0.284994
627.051778	0.285169
627.259457	0.285697
627.467117	0.285755
627.674758	0.285660
627.882382	0.285991
628.089987	0.286268
628.297574	0.286473
628.505143	0.286797
628.712694	0.286809
628.920226	0.286991
629.127740	0.286946
629.335236	0.287257
629.542714	0.287690
629.750174	0.287609
629.957615	0.287567
630.165038	0.287299
630.372443	0.287413
630.579829	0.287602
630.787198	0.287891
630.994548	0.288060
631.201880	0.288144
631.409194	0.288337
631.616489	0.288403
631.823766	0.288530
632.031025	0.288859
632.238266	0.288864
632.445489	0.289063
632.652693	0.289032
632.859879	0.289336
633.067047	0.289564
633.274197	0.289553
633.481329	0.289811
633.688442	0.290065
633.895537	0.290396
634.102614	0.290855
634.309672	0.290878
634.516713	0.291028
634.723735	0.291183
634.930739	0.291222
635.137724	0.291350
635.344692	0.291496
635.551641	0.291825
635.758572	0.292021
635.965485	0.291987
636.172379	0.292242
636.379256	0.292579
636.586114	0.292744
636.792954	0.293162
636.999775	0.293437
637.206579	0.293781
637.413364	0.293895
637.620131	0.293982
637.826880	0.294326
638.033610	0.294555
638.240323	0.294700
638.447017	0.294755
638.653692	0.294434
638.860350	0.294718
639.066990	0.294880
639.273611	0.294903
639.480214	0.295107
639.686798	0.295221
639.893365	0.295435
640.099913	0.295360
640.306443	0.295558
640.512955	0.296318
640.719449	0.296492
640.925924	0.296783
641.132381	0.297101
641.338820	0.297207
641.545241	0.297364
641.751644	0.297521
641.958028	0.298088
642.164394	0.298140
642.370742	0.298054
642.577071	0.298230
642.783383	0.298380
642.989676	0.298473
643.195951	0.298693
643.402207	0.298914
643.608446	0.298880
643.814666	0.298880
644.020868	0.299154
644.227052	0.299409
644.433218	0.299555
644.639365	0.299895
644.845494	0.299963
645.051605	0.300198
645.257698	0.300426
645.463772	0.300960
645.669828	0.300935
645.875866	0.301368
646.081886	0.301562
646.287888	0.301440
646.493871	0.301441
646.699836	0.301798
646.905783	0.301811
647.111712	0.301782
647.317622	0.301678
647.523514	0.302040
647.729388	0.302117
647.935244	0.302327
648.141082	0.302706
648.346901	0.302772
648.552702	0.302983
648.758485	0.303475
648.964250	0.303694
649.169996	0.303876
649.375724	0.304283
649.581434	0.304580
649.787126	0.304741
649.992800	0.304753
650.198455	0.305093
650.404092	0.305114
650.609711	0.305247
650.815311	0.305273
651.020894	0.305381
651.226458	0.305387
651.432004	0.305439
651.637532	0.305517
651.843041	0.305681
652.048532	0.305737
652.254006	0.306096
652.459460	0.306073
652.664897	0.306476
652.870315	0.306937
653.075716	0.306978
653.281097	0.307137
653.486461	0.307559
653.691807	0.307862
653.897134	0.307941
654.102443	0.308093
654.307734	0.308446
654.513006	0.308634
654.718261	0.308739
654.923497	0.309275
655.128715	0.309361
655.333915	0.309364
655.539096	0.309781
655.744259	0.310027
655.949404	0.310001
656.154531	0.309980
656.359640	0.310251
656.564730	0.310547
656.769802	0.310567
656.974856	0.311003
657.179892	0.311186
657.384909	0.311299
657.589908	0.311582
657.794889	0.312073
657.999852	0.312447
658.204797	0.312536
658.409723	0.312632
658.614631	0.312980
658.819521	0.313064
659.024393	0.313411
659.229246	0.313395
659.434081	0.313706
659.638898	0.313687
659.843697	0.313770
660.048478	0.313855
660.253240	0.314123
660.457984	0.314343
660.662710	0.314773
660.867417	0.314967
661.072107	0.315286
661.276778	0.315557
661.481431	0.315614
661.686066	0.316054
661.890682	0.316663
662.095281	0.316828
662.299861	0.316719
662.504422	0.316551
662.708966	0.316471
662.913491	0.316622
663.117999	0.316603
663.322488	0.316996
663.526958	0.317304
663.731411	0.317413
663.935845	0.317844
664.140261	0.318295
664.344659	0.318671
664.549038	0.319087
664.753400	0.319507
664.957743	0.319916
665.162068	0.320296
665.366375	0.320459
665.570663	0.320618
665.774933	0.320564
665.979185	0.320611
666.183419	0.321015
666.387635	0.321217
666.591832	0.321170
666.796011	0.321024
667.000172	0.321152
667.204315	0.321116
667.408439	0.321256
667.612545	0.321571
667.816634	0.321838
668.020703	0.321454
668.224755	0.321693
668.428788	0.322039
668.632803	0.322645
668.836800	0.322776
669.040779	0.323270
669.244739	0.323598
669.448681	0.323773
669.652605	0.323961
669.856511	0.324496
670.060399	0.324804
670.264268	0.324888
670.468119	0.324782
670.671952	0.325099
670.875767	0.325442
671.079563	0.325766
671.283341	0.325904
671.487101	0.326121
671.690843	0.326357
671.894567	0.326323
672.098272	0.326744
672.301959	0.327331
672.505628	0.327559
672.709278	0.327655
672.912911	0.327426
673.116525	0.327625
673.320121	0.327983
673.523699	0.328215
673.727258	0.328521
673.930799	0.328750
674.134322	0.328596
674.337827	0.328674
674.541314	0.328753
674.744782	0.329358
674.948232	0.329515
675.151664	0.329780
675.355078	0.330040
675.558474	0.330286
675.761851	0.330386
675.965210	0.330776
676.168551	0.330664
676.371873	0.330965
676.575178	0.331090
676.778464	0.331567
676.981732	0.331427
677.184981	0.331488
677.388213	0.331858
677.591426	0.332102
677.794621	0.332364
677.997798	0.333198
678.200956	0.333376
678.404097	0.333501
678.607219	0.333565
678.810323	0.333857
679.013408	0.334032
679.216476	0.333989
679.419525	0.334166
679.622556	0.334457
679.825569	0.334511
680.028563	0.334695
680.231540	0.335005
680.434498	0.335021
680.637438	0.335451
680.840359	0.335761
681.043263	0.336067
681.246148	0.336217
681.449015	0.336268
681.651864	0.336216
681.854694	0.336270
682.057506	0.336312
682.260301	0.336638
682.463076	0.336732
682.665834	0.336903
682.868573	0.337128
683.071295	0.337635
683.273998	0.337717
683.476682	0.338102
683.679349	0.338210
683.881997	0.338491
684.084627	0.338821
684.287239	0.338847
684.489833	0.339184
684.692408	0.339349
684.894965	0.339166
685.097504	0.339325
685.300025	0.339510
685.502527	0.339806
685.705012	0.339981
685.907478	0.340427
686.109925	0.340635
686.312355	0.340631
686.514766	0.340894
686.717159	0.341300
686.919534	0.341672
687.121891	0.341705
687.324230	0.342107
687.526550	0.342223
687.728852	0.342057
687.931136	0.342180
688.133401	0.342481
688.335649	0.342555
688.537878	0.342749
688.740089	0.342944
688.942281	0.343240
689.144456	0.343366
689.346612	0.343551
689.548750	0.343828
689.750870	0.344270
689.952971	0.344405
690.155055	0.344771
690.357120	0.345029
690.559167	0.345189
690.761195	0.345390
690.963206	0.345368
691.165198	0.345785
691.367172	0.345943
691.569128	0.345845
691.771065	0.346141
691.972984	0.346074
692.174885	0.346135
692.376768	0.346229
692.578633	0.346245
692.780479	0.346400
692.982308	0.346360
693.184118	0.346439
693.385909	0.346547
