sample name	sample
index	295
start time	 02-25-2021  01:01:28 PM


Wavelength (nm)	Absorbance
494.344910	-0.510086
494.563924	-0.510086
494.782919	-0.510086
495.001897	0.004117
495.220856	-0.261321
495.439797	-0.246562
495.658719	-0.161454
495.877624	-0.010440
496.096510	0.059384
496.315378	-0.074722
496.534227	0.009307
496.753059	0.008271
496.971872	0.035996
497.190667	0.104532
497.409444	0.118615
497.628203	0.116837
497.846943	0.117876
498.065665	0.116125
498.284369	0.117118
498.503055	0.117166
498.721723	0.119081
498.940372	0.119739
499.159003	0.120070
499.377616	0.119122
499.596210	0.119885
499.814787	0.120168
500.033345	0.122180
500.251885	0.121883
500.470406	0.121134
500.688910	0.120476
500.907395	0.119742
501.125862	0.120501
501.344311	0.121949
501.562742	0.122858
501.781154	0.122777
501.999548	0.121414
502.217924	0.122049
502.436282	0.123108
502.654621	0.122552
502.872942	0.123162
503.091245	0.123073
503.309530	0.123172
503.527797	0.122713
503.746045	0.124353
503.964275	0.124524
504.182487	0.124654
504.400681	0.124518
504.618856	0.125327
504.837013	0.126150
505.055152	0.126256
505.273273	0.125887
505.491376	0.126542
505.709460	0.124273
505.927526	0.124986
506.145574	0.124896
506.363604	0.125201
506.581615	0.125987
506.799608	0.125237
507.017583	0.126106
507.235540	0.126950
507.453478	0.126341
507.671399	0.127338
507.889301	0.127186
508.107185	0.128055
508.325050	0.128434
508.542898	0.127523
508.760727	0.127381
508.978538	0.127136
509.196330	0.126843
509.414105	0.127059
509.631861	0.125923
509.849599	0.126011
510.067319	0.125926
510.285021	0.124782
510.502704	0.125637
510.720369	0.126165
510.938016	0.126560
511.155645	0.127347
511.373255	0.127777
511.590848	0.129021
511.808422	0.128986
512.025977	0.129096
512.243515	0.131090
512.461034	0.130474
512.678536	0.130493
512.896018	0.130474
513.113483	0.130173
513.330930	0.130350
513.548358	0.130357
513.765768	0.130823
513.983160	0.130976
514.200533	0.130252
514.417889	0.131621
514.635226	0.132163
514.852545	0.132870
515.069845	0.132822
515.287128	0.134028
515.504392	0.134169
515.721638	0.134661
515.938866	0.135371
516.156075	0.135648
516.373267	0.134895
516.590440	0.135079
516.807594	0.134106
517.024731	0.133908
517.241850	0.133321
517.458950	0.134095
517.676032	0.133695
517.893095	0.133433
518.110141	0.134207
518.327168	0.134615
518.544177	0.134891
518.761168	0.134626
518.978141	0.135314
519.195095	0.135786
519.412031	0.135961
519.628949	0.136697
519.845849	0.137076
520.062731	0.136761
520.279594	0.137845
520.496439	0.138245
520.713266	0.139689
520.930074	0.140418
521.146865	0.140882
521.363637	0.141606
521.580391	0.142565
521.797127	0.142455
522.013844	0.142645
522.230543	0.142829
522.447224	0.143690
522.663887	0.143414
522.880532	0.143179
523.097158	0.142828
523.313766	0.142110
523.530356	0.142213
523.746928	0.142200
523.963481	0.142996
524.180017	0.143284
524.396534	0.143110
524.613032	0.143587
524.829513	0.143721
525.045975	0.143871
525.262420	0.144541
525.478845	0.144222
525.695253	0.145355
525.911643	0.145346
526.128014	0.145499
526.344367	0.145870
526.560702	0.146155
526.777018	0.146462
526.993316	0.147105
527.209597	0.147599
527.425858	0.148552
527.642102	0.148561
527.858328	0.148496
528.074535	0.148437
528.290724	0.148516
528.506894	0.148389
528.723047	0.149265
528.939181	0.149511
529.155297	0.150162
529.371395	0.149595
529.587475	0.149662
529.803536	0.150105
530.019579	0.150880
530.235604	0.151344
530.451611	0.152304
530.667600	0.151952
530.883570	0.151710
531.099522	0.151191
531.315456	0.152228
531.531372	0.152882
531.747269	0.152981
531.963148	0.152911
532.179009	0.152904
532.394852	0.153302
532.610676	0.153640
532.826482	0.154844
533.042271	0.155666
533.258040	0.155645
533.473792	0.156185
533.689525	0.156598
533.905240	0.156933
534.120937	0.157887
534.336616	0.158089
534.552277	0.158571
534.767919	0.158083
534.983543	0.158694
535.199149	0.159212
535.414736	0.159610
535.630306	0.160384
535.845857	0.160683
536.061390	0.160483
536.276904	0.160719
536.492401	0.161053
536.707879	0.161641
536.923339	0.161517
537.138781	0.161542
537.354204	0.161475
537.569610	0.161651
537.784997	0.162131
538.000366	0.162050
538.215716	0.162111
538.431049	0.162433
538.646363	0.162914
538.861659	0.163611
539.076937	0.163674
539.292196	0.164092
539.507438	0.164448
539.722661	0.164709
539.937866	0.165361
540.153052	0.166033
540.368221	0.165871
540.583371	0.166037
540.798503	0.165576
541.013617	0.166013
541.228712	0.166021
541.443789	0.166109
541.658848	0.166469
541.873889	0.166896
542.088912	0.167349
542.303916	0.167894
542.518902	0.168174
542.733870	0.168909
542.948820	0.169332
543.163752	0.169548
543.378665	0.169379
543.593560	0.169103
543.808437	0.169521
544.023295	0.169430
544.238136	0.169831
544.452958	0.169772
544.667762	0.170062
544.882548	0.170419
545.097315	0.170817
545.312064	0.171589
545.526795	0.172314
545.741508	0.172505
545.956203	0.173075
546.170879	0.173408
546.385537	0.174457
546.600177	0.174919
546.814799	0.175213
547.029402	0.176015
547.243988	0.176488
547.458555	0.176731
547.673103	0.176826
547.887634	0.176977
548.102146	0.177525
548.316640	0.177074
548.531116	0.177139
548.745574	0.177187
548.960013	0.176444
549.174435	0.176617
549.388838	0.176693
549.603222	0.176775
549.817589	0.176769
550.031937	0.176495
550.246267	0.177328
550.460579	0.177186
550.674873	0.177595
550.889148	0.178691
551.103405	0.179042
551.317644	0.179222
551.531865	0.179768
551.746068	0.179906
551.960252	0.180508
552.174418	0.180375
552.388566	0.181032
552.602696	0.180936
552.816807	0.180757
553.030900	0.180932
553.244975	0.181543
553.459032	0.181627
553.673070	0.182079
553.887091	0.182090
554.101093	0.182548
554.315077	0.182872
554.529042	0.183713
554.742990	0.184030
554.956919	0.183982
555.170830	0.183923
555.384722	0.184316
555.598597	0.184185
555.812453	0.184340
556.026291	0.184636
556.240111	0.184309
556.453913	0.184267
556.667696	0.184391
556.881461	0.184206
557.095208	0.184647
557.308937	0.184684
557.522647	0.185138
557.736339	0.185196
557.950013	0.185344
558.163669	0.185733
558.377307	0.186064
558.590926	0.186241
558.804527	0.186887
559.018110	0.186579
559.231675	0.186811
559.445221	0.187124
559.658749	0.187551
559.872259	0.187498
560.085751	0.188048
560.299225	0.188029
560.512680	0.188438
560.726117	0.188494
560.939536	0.188912
561.152937	0.189043
561.366319	0.189179
561.579683	0.189427
561.793029	0.189617
562.006357	0.189600
562.219667	0.189871
562.432958	0.189853
562.646231	0.189984
562.859486	0.190196
563.072723	0.190505
563.285941	0.190796
563.499141	0.190945
563.712323	0.191498
563.925487	0.191589
564.138632	0.191446
564.351760	0.191709
564.564869	0.192171
564.777960	0.192448
564.991032	0.192701
565.204087	0.192656
565.417123	0.193107
565.630141	0.192997
565.843140	0.193237
566.056122	0.193942
566.269085	0.194141
566.482030	0.194039
566.694957	0.194140
566.907866	0.194267
567.120756	0.194132
567.333628	0.193893
567.546482	0.193946
567.759318	0.194066
567.972135	0.194121
568.184935	0.194163
568.397716	0.194243
568.610478	0.194592
568.823223	0.194719
569.035949	0.195428
569.248657	0.195730
569.461347	0.195971
569.674019	0.196036
569.886672	0.195996
570.099308	0.196230
570.311925	0.196341
570.524523	0.196421
570.737104	0.196946
570.949666	0.196976
571.162210	0.197161
571.374736	0.197373
571.587244	0.197670
571.799733	0.197761
572.012205	0.198000
572.224658	0.198460
572.437092	0.198790
572.649509	0.198331
572.861907	0.198691
573.074287	0.198839
573.286649	0.198999
573.498993	0.199014
573.711318	0.199367
573.923625	0.199686
574.135914	0.199715
574.348185	0.199785
574.560438	0.199981
574.772672	0.200172
574.984888	0.200158
575.197086	0.200372
575.409266	0.200849
575.621427	0.200657
575.833570	0.200742
576.045695	0.201066
576.257802	0.201145
576.469890	0.201582
576.681961	0.201938
576.894013	0.202254
577.106046	0.202734
577.318062	0.203035
577.530059	0.203731
577.742039	0.203979
577.954000	0.204488
578.165942	0.204386
578.377867	0.204448
578.589773	0.204349
578.801661	0.204260
579.013531	0.204081
579.225382	0.204229
579.437216	0.204218
579.649031	0.204304
579.860828	0.204118
580.072606	0.204249
580.284367	0.204366
580.496109	0.204506
580.707833	0.204855
580.919539	0.204995
581.131227	0.204935
581.342896	0.205113
581.554547	0.205236
581.766180	0.205777
581.977795	0.206611
582.189391	0.206836
582.400969	0.207193
582.612529	0.207449
582.824071	0.207976
583.035595	0.208503
583.247100	0.208516
583.458587	0.208659
583.670056	0.208796
583.881506	0.208781
584.092939	0.209302
584.304353	0.209520
584.515749	0.209549
584.727127	0.209457
584.938486	0.209298
585.149828	0.209659
585.361151	0.209781
585.572456	0.209704
585.783742	0.209743
585.995011	0.209850
586.206261	0.209660
586.417493	0.210230
586.628706	0.210442
586.839902	0.210368
587.051079	0.210540
587.262238	0.210719
587.473379	0.211203
587.684502	0.211404
587.895606	0.211295
588.106692	0.211713
588.317760	0.212117
588.528810	0.212078
588.739841	0.212533
588.950855	0.212503
589.161850	0.212907
589.372827	0.212802
589.583785	0.213336
589.794726	0.213751
590.005648	0.214066
590.216552	0.213967
590.427437	0.214578
590.638305	0.214744
590.849154	0.215194
591.059985	0.215266
591.270798	0.215262
591.481592	0.215239
591.692369	0.215315
591.903127	0.215568
592.113867	0.215793
592.324588	0.215848
592.535292	0.216036
592.745977	0.216335
592.956644	0.216514
593.167293	0.216726
593.377923	0.216713
593.588536	0.217059
593.799130	0.216957
594.009706	0.217209
594.220263	0.217275
594.430803	0.217600
594.641324	0.217461
594.851827	0.217970
595.062312	0.218358
595.272778	0.218971
595.483227	0.219006
595.693657	0.219321
595.904069	0.219236
596.114462	0.219648
596.324838	0.219539
596.535195	0.219681
596.745534	0.219349
596.955855	0.219567
597.166157	0.219507
597.376441	0.220000
597.586707	0.220107
597.796955	0.220357
598.007185	0.220240
598.217396	0.220480
598.427589	0.220993
598.637764	0.221367
598.847921	0.221738
599.058060	0.222064
599.268180	0.222092
599.478282	0.222543
599.688366	0.222724
599.898431	0.223048
600.108479	0.223476
600.318508	0.223710
600.528519	0.224008
600.738511	0.223719
600.948486	0.223732
601.158442	0.224159
601.368380	0.224170
601.578300	0.224348
601.788202	0.224454
601.998085	0.224095
602.207950	0.224218
602.417797	0.224307
602.627626	0.224670
602.837436	0.224855
603.047228	0.224877
603.257002	0.225235
603.466758	0.225530
603.676496	0.225717
603.886215	0.226382
604.095916	0.226551
604.305599	0.226768
604.515264	0.227276
604.724910	0.227331
604.934538	0.227481
605.144148	0.227448
605.353740	0.227477
605.563314	0.227695
605.772869	0.227884
605.982406	0.227871
606.191925	0.227771
606.401425	0.227680
606.610908	0.227776
606.820372	0.227484
607.029818	0.227612
607.239246	0.227679
607.448655	0.227669
607.658047	0.227546
607.867420	0.227738
608.076775	0.228102
608.286111	0.228247
608.495430	0.228805
608.704730	0.229022
608.914012	0.229129
609.123275	0.229227
609.332521	0.229583
609.541748	0.229688
609.750957	0.229831
609.960148	0.229939
610.169321	0.229796
610.378475	0.229932
610.587611	0.230493
610.796729	0.230578
611.005829	0.231006
611.214910	0.231253
611.423974	0.231606
611.633019	0.231769
611.842045	0.232177
612.051054	0.232857
612.260044	0.232561
612.469017	0.232358
612.677970	0.232623
612.886906	0.232929
613.095824	0.232815
613.304723	0.233062
613.513604	0.233342
613.722467	0.233414
613.931311	0.233584
614.140138	0.234152
614.348946	0.234752
614.557736	0.234891
614.766507	0.234799
614.975261	0.235151
615.183996	0.235751
615.392713	0.235823
615.601412	0.236028
615.810092	0.236282
616.018754	0.236467
616.227399	0.236361
616.436024	0.236482
616.644632	0.236610
616.853222	0.236821
617.061793	0.237004
617.270346	0.237192
617.478880	0.237222
617.687397	0.237051
617.895895	0.236922
618.104375	0.237472
618.312837	0.237616
618.521281	0.237914
618.729706	0.237823
618.938113	0.237425
619.146502	0.237647
619.354873	0.237780
619.563226	0.238408
619.771560	0.238849
619.979876	0.238602
620.188174	0.238839
620.396453	0.238854
620.604715	0.239337
620.812958	0.239689
621.021183	0.239820
621.229390	0.240194
621.437578	0.239850
621.645748	0.239796
621.853900	0.239966
622.062034	0.240245
622.270150	0.240520
622.478247	0.240548
622.686326	0.240943
622.894387	0.241162
623.102430	0.241305
623.310454	0.241767
623.518461	0.241943
623.726449	0.242143
623.934418	0.242352
624.142370	0.242457
624.350303	0.242731
624.558218	0.242798
624.766115	0.242974
624.973994	0.243167
625.181855	0.243253
625.389697	0.243564
625.597521	0.243657
625.805327	0.243852
626.013114	0.244216
626.220883	0.244584
626.428634	0.244610
626.636367	0.244844
626.844082	0.244829
627.051778	0.245022
627.259457	0.245245
627.467117	0.245641
627.674758	0.245540
627.882382	0.245610
628.089987	0.245677
628.297574	0.245642
628.505143	0.245689
628.712694	0.245806
628.920226	0.245741
629.127740	0.245662
629.335236	0.245419
629.542714	0.245534
629.750174	0.245963
629.957615	0.245921
630.165038	0.246279
630.372443	0.246434
630.579829	0.246763
630.787198	0.247021
630.994548	0.247203
631.201880	0.247670
631.409194	0.247993
631.616489	0.247941
631.823766	0.248160
632.031025	0.248532
632.238266	0.248735
632.445489	0.249011
632.652693	0.249338
632.859879	0.249435
633.067047	0.249483
633.274197	0.249728
633.481329	0.249877
633.688442	0.250019
633.895537	0.250026
634.102614	0.250198
634.309672	0.250363
634.516713	0.250486
634.723735	0.250727
634.930739	0.251008
635.137724	0.250958
635.344692	0.251084
635.551641	0.251236
635.758572	0.251363
635.965485	0.251438
636.172379	0.251320
636.379256	0.251180
636.586114	0.251603
636.792954	0.251532
636.999775	0.251886
637.206579	0.252249
637.413364	0.252399
637.620131	0.252700
637.826880	0.252942
638.033610	0.253239
638.240323	0.253656
638.447017	0.253728
638.653692	0.253929
638.860350	0.254048
639.066990	0.254052
639.273611	0.254195
639.480214	0.254173
639.686798	0.254378
639.893365	0.254637
640.099913	0.254890
640.306443	0.255159
640.512955	0.255711
640.719449	0.255943
640.925924	0.256261
641.132381	0.256724
641.338820	0.256993
641.545241	0.257186
641.751644	0.257280
641.958028	0.257493
642.164394	0.257612
642.370742	0.257560
642.577071	0.257777
642.783383	0.258088
642.989676	0.258210
643.195951	0.258459
643.402207	0.258957
643.608446	0.259429
643.814666	0.259505
644.020868	0.259581
644.227052	0.260025
644.433218	0.260522
644.639365	0.260732
644.845494	0.260902
645.051605	0.261121
645.257698	0.260930
645.463772	0.260898
645.669828	0.261013
645.875866	0.261216
646.081886	0.261344
646.287888	0.261124
646.493871	0.260972
646.699836	0.261188
646.905783	0.261450
647.111712	0.261880
647.317622	0.262258
647.523514	0.262745
647.729388	0.262877
647.935244	0.262889
648.141082	0.263379
648.346901	0.263492
648.552702	0.263624
648.758485	0.263608
648.964250	0.263647
649.169996	0.263595
649.375724	0.263653
649.581434	0.263787
649.787126	0.264039
649.992800	0.264068
650.198455	0.264328
650.404092	0.264565
650.609711	0.264824
650.815311	0.265029
651.020894	0.265255
651.226458	0.265207
651.432004	0.265737
651.637532	0.265968
651.843041	0.265981
652.048532	0.266182
652.254006	0.266050
652.459460	0.266293
652.664897	0.266472
652.870315	0.266803
653.075716	0.267300
653.281097	0.267335
653.486461	0.267733
653.691807	0.268379
653.897134	0.268941
654.102443	0.269632
654.307734	0.269865
654.513006	0.270229
654.718261	0.270432
654.923497	0.270528
655.128715	0.270783
655.333915	0.270924
655.539096	0.270907
655.744259	0.271009
655.949404	0.271290
656.154531	0.271403
656.359640	0.271678
656.564730	0.271939
656.769802	0.272208
656.974856	0.272506
657.179892	0.272702
657.384909	0.272943
657.589908	0.273212
657.794889	0.273318
657.999852	0.273705
658.204797	0.273907
658.409723	0.274185
658.614631	0.274663
658.819521	0.274923
659.024393	0.275024
659.229246	0.275221
659.434081	0.275255
659.638898	0.275525
659.843697	0.275716
660.048478	0.276077
660.253240	0.276107
660.457984	0.276157
660.662710	0.276462
660.867417	0.276795
661.072107	0.277107
661.276778	0.277356
661.481431	0.277424
661.686066	0.277833
661.890682	0.277791
662.095281	0.278379
662.299861	0.278271
662.504422	0.278428
662.708966	0.278607
662.913491	0.278708
663.117999	0.279095
663.322488	0.279300
663.526958	0.279396
663.731411	0.279841
663.935845	0.279962
664.140261	0.280599
664.344659	0.280905
664.549038	0.280977
664.753400	0.281356
664.957743	0.281559
665.162068	0.281987
665.366375	0.282328
665.570663	0.282353
665.774933	0.282515
665.979185	0.282693
666.183419	0.282582
666.387635	0.282938
666.591832	0.283074
666.796011	0.283312
667.000172	0.283301
667.204315	0.283340
667.408439	0.283608
667.612545	0.283746
667.816634	0.283852
668.020703	0.284160
668.224755	0.284485
668.428788	0.284744
668.632803	0.284987
668.836800	0.285279
669.040779	0.285629
669.244739	0.285865
669.448681	0.286065
669.652605	0.286459
669.856511	0.286779
670.060399	0.286948
670.264268	0.287091
670.468119	0.287222
670.671952	0.287417
670.875767	0.287540
671.079563	0.287790
671.283341	0.288113
671.487101	0.288246
671.690843	0.288618
671.894567	0.288740
672.098272	0.289089
672.301959	0.289230
672.505628	0.289357
672.709278	0.289536
672.912911	0.289746
673.116525	0.289922
673.320121	0.290369
673.523699	0.290544
673.727258	0.291063
673.930799	0.291114
674.134322	0.291610
674.337827	0.292142
674.541314	0.292433
674.744782	0.292783
674.948232	0.293028
675.151664	0.293307
675.355078	0.293705
675.558474	0.293806
675.761851	0.294183
675.965210	0.294374
676.168551	0.294560
676.371873	0.294861
676.575178	0.294986
676.778464	0.295364
676.981732	0.295526
677.184981	0.295456
677.388213	0.295927
677.591426	0.296286
677.794621	0.296567
677.997798	0.296844
678.200956	0.297066
678.404097	0.297397
678.607219	0.297642
678.810323	0.297753
679.013408	0.298101
679.216476	0.298134
679.419525	0.298434
679.622556	0.298526
679.825569	0.298864
680.028563	0.299219
680.231540	0.299589
680.434498	0.299510
680.637438	0.299987
680.840359	0.300060
681.043263	0.300273
681.246148	0.300210
681.449015	0.300471
681.651864	0.300443
681.854694	0.300459
682.057506	0.300514
682.260301	0.300840
682.463076	0.300579
682.665834	0.301054
682.868573	0.301213
683.071295	0.301596
683.273998	0.302047
683.476682	0.302412
683.679349	0.302727
683.881997	0.302719
684.084627	0.302995
684.287239	0.303313
684.489833	0.303177
684.692408	0.303429
684.894965	0.303357
685.097504	0.303249
685.300025	0.303311
685.502527	0.303450
685.705012	0.303792
685.907478	0.303713
686.109925	0.303923
686.312355	0.304542
686.514766	0.304892
686.717159	0.305392
686.919534	0.305611
687.121891	0.306060
687.324230	0.306232
687.526550	0.306383
687.728852	0.306831
687.931136	0.307250
688.133401	0.306997
688.335649	0.306988
688.537878	0.306981
688.740089	0.307005
688.942281	0.306886
689.144456	0.307204
689.346612	0.307376
689.548750	0.307470
689.750870	0.307604
689.952971	0.307852
690.155055	0.308041
690.357120	0.308416
690.559167	0.308648
690.761195	0.308681
690.963206	0.308719
691.165198	0.308890
691.367172	0.309231
691.569128	0.309288
691.771065	0.309428
691.972984	0.309396
692.174885	0.309604
692.376768	0.309903
692.578633	0.310131
692.780479	0.310483
692.982308	0.310880
693.184118	0.310911
693.385909	0.310901
