sample name	sample
index	193
start time	 02-18-2021  12:01:11 PM


Wavelength (nm)	Absorbance
494.344910	-0.209350
494.563924	-0.209350
494.782919	-0.209350
495.001897	-0.115539
495.220856	-0.096579
495.439797	-0.081791
495.658719	-0.053909
495.877624	-0.079459
496.096510	-0.078863
496.315378	-0.073958
496.534227	-0.045582
496.753059	-0.067097
496.971872	-0.058274
497.190667	0.089181
497.409444	0.110081
497.628203	0.111578
497.846943	0.111200
498.065665	0.113786
498.284369	0.116078
498.503055	0.115631
498.721723	0.116376
498.940372	0.117984
499.159003	0.117692
499.377616	0.116723
499.596210	0.117921
499.814787	0.120128
500.033345	0.119948
500.251885	0.120437
500.470406	0.120119
500.688910	0.120191
500.907395	0.120469
501.125862	0.120489
501.344311	0.120167
501.562742	0.119568
501.781154	0.118818
501.999548	0.118975
502.217924	0.118131
502.436282	0.118624
502.654621	0.119149
502.872942	0.118489
503.091245	0.118080
503.309530	0.119027
503.527797	0.118362
503.746045	0.118788
503.964275	0.118930
504.182487	0.119523
504.400681	0.119764
504.618856	0.118826
504.837013	0.118918
505.055152	0.119430
505.273273	0.120115
505.491376	0.120658
505.709460	0.121017
505.927526	0.120421
506.145574	0.120458
506.363604	0.121297
506.581615	0.122469
506.799608	0.122563
507.017583	0.123462
507.235540	0.122674
507.453478	0.123765
507.671399	0.123924
507.889301	0.124979
508.107185	0.124101
508.325050	0.124596
508.542898	0.124653
508.760727	0.124974
508.978538	0.124387
509.196330	0.125231
509.414105	0.124331
509.631861	0.124404
509.849599	0.123410
510.067319	0.123848
510.285021	0.123754
510.502704	0.123914
510.720369	0.123114
510.938016	0.123197
511.155645	0.122530
511.373255	0.123711
511.590848	0.123843
511.808422	0.125360
512.025977	0.126839
512.243515	0.127174
512.461034	0.127402
512.678536	0.128256
512.896018	0.128977
513.113483	0.130076
513.330930	0.128930
513.548358	0.129449
513.765768	0.129173
513.983160	0.128667
514.200533	0.128362
514.417889	0.128291
514.635226	0.128717
514.852545	0.128496
515.069845	0.128635
515.287128	0.130086
515.504392	0.129519
515.721638	0.130359
515.938866	0.131262
516.156075	0.131657
516.373267	0.132019
516.590440	0.131390
516.807594	0.131798
517.024731	0.132030
517.241850	0.131520
517.458950	0.132406
517.676032	0.132511
517.893095	0.131814
518.110141	0.132018
518.327168	0.131875
518.544177	0.132441
518.761168	0.133723
518.978141	0.133442
519.195095	0.134111
519.412031	0.134511
519.628949	0.135149
519.845849	0.134910
520.062731	0.135195
520.279594	0.136167
520.496439	0.136371
520.713266	0.135330
520.930074	0.135761
521.146865	0.136250
521.363637	0.135809
521.580391	0.135393
521.797127	0.136602
522.013844	0.136949
522.230543	0.136988
522.447224	0.137195
522.663887	0.137189
522.880532	0.137108
523.097158	0.136643
523.313766	0.137532
523.530356	0.137556
523.746928	0.137502
523.963481	0.137685
524.180017	0.137404
524.396534	0.138263
524.613032	0.139197
524.829513	0.139750
525.045975	0.140082
525.262420	0.140348
525.478845	0.140394
525.695253	0.140545
525.911643	0.140483
526.128014	0.141185
526.344367	0.141097
526.560702	0.141340
526.777018	0.141913
526.993316	0.142925
527.209597	0.143136
527.425858	0.144442
527.642102	0.145179
527.858328	0.145437
528.074535	0.145416
528.290724	0.145513
528.506894	0.145871
528.723047	0.146149
528.939181	0.146117
529.155297	0.146145
529.371395	0.145545
529.587475	0.145379
529.803536	0.145504
530.019579	0.145808
530.235604	0.146722
530.451611	0.147110
530.667600	0.147015
530.883570	0.147374
531.099522	0.148223
531.315456	0.148935
531.531372	0.149071
531.747269	0.149560
531.963148	0.150016
532.179009	0.149645
532.394852	0.149437
532.610676	0.149464
532.826482	0.149335
533.042271	0.149493
533.258040	0.149776
533.473792	0.150560
533.689525	0.150882
533.905240	0.150831
534.120937	0.151837
534.336616	0.152390
534.552277	0.153368
534.767919	0.153863
534.983543	0.154751
535.199149	0.155099
535.414736	0.155412
535.630306	0.155640
535.845857	0.156275
536.061390	0.155953
536.276904	0.156419
536.492401	0.156861
536.707879	0.157737
536.923339	0.157867
537.138781	0.157850
537.354204	0.158100
537.569610	0.158679
537.784997	0.158616
538.000366	0.158698
538.215716	0.159455
538.431049	0.159496
538.646363	0.159527
538.861659	0.159546
539.076937	0.160043
539.292196	0.160456
539.507438	0.160345
539.722661	0.160866
539.937866	0.161547
540.153052	0.161047
540.368221	0.160818
540.583371	0.160951
540.798503	0.160787
541.013617	0.161444
541.228712	0.161789
541.443789	0.162931
541.658848	0.163343
541.873889	0.163974
542.088912	0.164615
542.303916	0.165226
542.518902	0.165775
542.733870	0.166505
542.948820	0.166493
543.163752	0.166255
543.378665	0.166061
543.593560	0.166200
543.808437	0.166273
544.023295	0.166387
544.238136	0.166422
544.452958	0.166842
544.667762	0.166660
544.882548	0.167128
545.097315	0.167567
545.312064	0.167943
545.526795	0.168518
545.741508	0.168814
545.956203	0.168700
546.170879	0.169603
546.385537	0.168810
546.600177	0.169163
546.814799	0.169043
547.029402	0.169071
547.243988	0.169227
547.458555	0.169029
547.673103	0.169294
547.887634	0.169858
548.102146	0.169873
548.316640	0.170864
548.531116	0.171219
548.745574	0.171662
548.960013	0.172643
549.174435	0.172436
549.388838	0.172713
549.603222	0.172558
549.817589	0.173204
550.031937	0.173749
550.246267	0.174177
550.460579	0.174348
550.674873	0.174419
550.889148	0.174945
551.103405	0.175686
551.317644	0.176284
551.531865	0.177253
551.746068	0.177598
551.960252	0.177659
552.174418	0.177246
552.388566	0.177648
552.602696	0.177575
552.816807	0.177386
553.030900	0.177591
553.244975	0.177828
553.459032	0.177607
553.673070	0.177383
553.887091	0.177464
554.101093	0.178201
554.315077	0.178185
554.529042	0.178352
554.742990	0.178354
554.956919	0.178713
555.170830	0.178803
555.384722	0.178657
555.598597	0.178943
555.812453	0.179350
556.026291	0.179132
556.240111	0.179612
556.453913	0.180281
556.667696	0.180478
556.881461	0.180248
557.095208	0.180501
557.308937	0.181208
557.522647	0.181281
557.736339	0.181288
557.950013	0.181867
558.163669	0.181902
558.377307	0.182105
558.590926	0.182135
558.804527	0.182703
559.018110	0.183024
559.231675	0.183248
559.445221	0.183484
559.658749	0.183914
559.872259	0.184124
560.085751	0.184751
560.299225	0.185047
560.512680	0.185506
560.726117	0.185528
560.939536	0.185684
561.152937	0.185672
561.366319	0.185947
561.579683	0.186014
561.793029	0.185880
562.006357	0.185845
562.219667	0.186222
562.432958	0.186318
562.646231	0.187215
562.859486	0.187449
563.072723	0.187374
563.285941	0.187769
563.499141	0.188252
563.712323	0.188724
563.925487	0.188804
564.138632	0.188666
564.351760	0.188682
564.564869	0.188418
564.777960	0.188562
564.991032	0.189427
565.204087	0.189590
565.417123	0.189676
565.630141	0.190039
565.843140	0.190061
566.056122	0.190252
566.269085	0.190310
566.482030	0.190247
566.694957	0.190637
566.907866	0.190946
567.120756	0.191535
567.333628	0.191560
567.546482	0.191166
567.759318	0.191830
567.972135	0.192087
568.184935	0.192807
568.397716	0.193008
568.610478	0.193446
568.823223	0.193658
569.035949	0.193455
569.248657	0.193535
569.461347	0.194254
569.674019	0.194391
569.886672	0.194494
570.099308	0.194335
570.311925	0.194383
570.524523	0.194070
570.737104	0.193791
570.949666	0.193581
571.162210	0.193953
571.374736	0.193944
571.587244	0.193740
571.799733	0.193936
572.012205	0.194225
572.224658	0.194876
572.437092	0.195106
572.649509	0.195596
572.861907	0.196027
573.074287	0.196185
573.286649	0.196377
573.498993	0.197015
573.711318	0.197601
573.923625	0.198166
574.135914	0.198467
574.348185	0.198943
574.560438	0.198861
574.772672	0.199302
574.984888	0.199808
575.197086	0.200111
575.409266	0.200074
575.621427	0.199690
575.833570	0.199424
576.045695	0.199160
576.257802	0.199454
576.469890	0.199841
576.681961	0.199712
576.894013	0.199149
577.106046	0.199438
577.318062	0.199685
577.530059	0.200245
577.742039	0.200360
577.954000	0.200703
578.165942	0.200858
578.377867	0.201410
578.589773	0.202094
578.801661	0.202730
579.013531	0.202761
579.225382	0.203225
579.437216	0.203279
579.649031	0.203787
579.860828	0.203905
580.072606	0.204219
580.284367	0.203925
580.496109	0.204004
580.707833	0.204292
580.919539	0.204993
581.131227	0.205015
581.342896	0.205802
581.554547	0.206307
581.766180	0.206468
581.977795	0.206677
582.189391	0.207180
582.400969	0.207219
582.612529	0.207491
582.824071	0.207361
583.035595	0.207643
583.247100	0.207716
583.458587	0.207571
583.670056	0.207854
583.881506	0.208149
584.092939	0.208567
584.304353	0.208659
584.515749	0.208782
584.727127	0.208809
584.938486	0.209157
585.149828	0.209431
585.361151	0.209902
585.572456	0.210452
585.783742	0.210446
585.995011	0.210754
586.206261	0.211080
586.417493	0.211132
586.628706	0.211615
586.839902	0.211335
587.051079	0.211222
587.262238	0.211024
587.473379	0.211429
587.684502	0.211270
587.895606	0.211251
588.106692	0.211686
588.317760	0.211680
588.528810	0.211981
588.739841	0.212575
588.950855	0.212832
589.161850	0.213238
589.372827	0.213147
589.583785	0.213601
589.794726	0.213334
590.005648	0.213290
590.216552	0.213973
590.427437	0.214439
590.638305	0.214546
590.849154	0.214522
591.059985	0.214760
591.270798	0.215101
591.481592	0.215677
591.692369	0.215767
591.903127	0.216159
592.113867	0.216074
592.324588	0.215881
592.535292	0.216143
592.745977	0.216619
592.956644	0.217267
593.167293	0.217273
593.377923	0.217355
593.588536	0.218209
593.799130	0.218584
594.009706	0.218783
594.220263	0.218957
594.430803	0.219057
594.641324	0.219128
594.851827	0.219225
595.062312	0.219376
595.272778	0.219298
595.483227	0.219133
595.693657	0.219336
595.904069	0.219927
596.114462	0.220597
596.324838	0.221094
596.535195	0.221661
596.745534	0.221787
596.955855	0.221966
597.166157	0.221895
597.376441	0.222336
597.586707	0.222447
597.796955	0.222784
598.007185	0.222476
598.217396	0.222746
598.427589	0.222578
598.637764	0.222791
598.847921	0.222977
599.058060	0.223609
599.268180	0.223926
599.478282	0.224260
599.688366	0.224175
599.898431	0.224595
600.108479	0.224893
600.318508	0.225691
600.528519	0.225820
600.738511	0.226218
600.948486	0.226215
601.158442	0.226206
601.368380	0.226380
601.578300	0.226833
601.788202	0.227062
601.998085	0.227003
602.207950	0.227169
602.417797	0.227024
602.627626	0.227245
602.837436	0.227806
603.047228	0.227984
603.257002	0.228348
603.466758	0.228671
603.676496	0.229032
603.886215	0.229383
604.095916	0.229365
604.305599	0.230098
604.515264	0.230466
604.724910	0.230697
604.934538	0.231102
605.144148	0.231147
605.353740	0.230983
605.563314	0.231021
605.772869	0.231160
605.982406	0.231353
606.191925	0.231432
606.401425	0.231550
606.610908	0.231582
606.820372	0.231672
607.029818	0.231705
607.239246	0.231929
607.448655	0.232187
607.658047	0.232464
607.867420	0.232274
608.076775	0.232223
608.286111	0.232655
608.495430	0.232935
608.704730	0.233083
608.914012	0.233604
609.123275	0.233892
609.332521	0.233932
609.541748	0.234072
609.750957	0.234712
609.960148	0.235221
610.169321	0.235365
610.378475	0.235478
610.587611	0.235740
610.796729	0.235540
611.005829	0.235929
611.214910	0.236218
611.423974	0.236104
611.633019	0.236330
611.842045	0.236423
612.051054	0.236574
612.260044	0.236685
612.469017	0.236811
612.677970	0.237097
612.886906	0.237004
613.095824	0.237158
613.304723	0.237467
613.513604	0.237325
613.722467	0.237307
613.931311	0.237183
614.140138	0.237393
614.348946	0.237513
614.557736	0.237638
614.766507	0.238144
614.975261	0.238289
615.183996	0.238586
615.392713	0.239027
615.601412	0.239251
615.810092	0.239606
616.018754	0.239954
616.227399	0.240323
616.436024	0.240490
616.644632	0.240567
616.853222	0.240773
617.061793	0.241060
617.270346	0.240990
617.478880	0.241071
617.687397	0.241196
617.895895	0.241179
618.104375	0.241152
618.312837	0.241270
618.521281	0.241408
618.729706	0.241508
618.938113	0.241535
619.146502	0.241629
619.354873	0.242328
619.563226	0.242512
619.771560	0.242516
619.979876	0.242815
620.188174	0.243203
620.396453	0.243294
620.604715	0.243727
620.812958	0.243817
621.021183	0.244178
621.229390	0.243672
621.437578	0.243834
621.645748	0.244196
621.853900	0.244441
622.062034	0.244755
622.270150	0.244988
622.478247	0.244750
622.686326	0.245030
622.894387	0.245427
623.102430	0.245704
623.310454	0.245937
623.518461	0.246157
623.726449	0.246267
623.934418	0.246003
624.142370	0.246111
624.350303	0.246730
624.558218	0.246770
624.766115	0.246668
624.973994	0.247063
625.181855	0.247262
625.389697	0.247710
625.597521	0.248094
625.805327	0.248669
626.013114	0.248901
626.220883	0.248997
626.428634	0.249099
626.636367	0.249444
626.844082	0.249479
627.051778	0.249493
627.259457	0.249308
627.467117	0.249329
627.674758	0.249453
627.882382	0.249751
628.089987	0.249964
628.297574	0.250296
628.505143	0.250593
628.712694	0.250914
628.920226	0.251205
629.127740	0.251553
629.335236	0.251688
629.542714	0.251656
629.750174	0.251686
629.957615	0.252000
630.165038	0.252330
630.372443	0.252326
630.579829	0.252587
630.787198	0.253026
630.994548	0.253076
631.201880	0.253244
631.409194	0.253792
631.616489	0.253934
631.823766	0.253935
632.031025	0.253848
632.238266	0.253981
632.445489	0.254415
632.652693	0.254415
632.859879	0.254608
633.067047	0.254574
633.274197	0.254468
633.481329	0.254700
633.688442	0.254610
633.895537	0.255030
634.102614	0.255296
634.309672	0.255279
634.516713	0.255381
634.723735	0.255643
634.930739	0.256112
635.137724	0.256223
635.344692	0.256317
635.551641	0.256872
635.758572	0.256920
635.965485	0.257040
636.172379	0.257415
636.379256	0.257812
636.586114	0.258190
636.792954	0.258550
636.999775	0.258927
637.206579	0.259272
637.413364	0.259477
637.620131	0.259838
637.826880	0.260311
638.033610	0.260227
638.240323	0.260157
638.447017	0.260367
638.653692	0.260286
638.860350	0.260290
639.066990	0.260433
639.273611	0.260705
639.480214	0.260812
639.686798	0.260813
639.893365	0.260983
640.099913	0.261192
640.306443	0.261237
640.512955	0.261455
640.719449	0.261800
640.925924	0.262084
641.132381	0.261967
641.338820	0.262297
641.545241	0.262688
641.751644	0.263048
641.958028	0.263160
642.164394	0.263109
642.370742	0.263430
642.577071	0.263697
642.783383	0.263972
642.989676	0.264500
643.195951	0.264569
643.402207	0.264773
643.608446	0.265011
643.814666	0.265484
644.020868	0.266018
644.227052	0.266248
644.433218	0.266406
644.639365	0.266438
644.845494	0.266504
645.051605	0.266778
645.257698	0.266644
645.463772	0.267023
645.669828	0.267261
645.875866	0.267558
646.081886	0.267730
646.287888	0.268061
646.493871	0.268159
646.699836	0.268430
646.905783	0.268667
647.111712	0.269308
647.317622	0.269383
647.523514	0.269426
647.729388	0.269320
647.935244	0.269486
648.141082	0.269500
648.346901	0.269801
648.552702	0.269961
648.758485	0.270104
648.964250	0.270251
649.169996	0.270251
649.375724	0.270562
649.581434	0.271152
649.787126	0.271453
649.992800	0.271578
650.198455	0.271940
650.404092	0.272054
650.609711	0.272442
650.815311	0.272275
651.020894	0.272716
651.226458	0.272796
651.432004	0.272690
651.637532	0.272632
651.843041	0.272842
652.048532	0.272843
652.254006	0.273064
652.459460	0.273468
652.664897	0.273856
652.870315	0.273942
653.075716	0.274144
653.281097	0.274101
653.486461	0.274425
653.691807	0.274759
653.897134	0.275185
654.102443	0.275309
654.307734	0.275112
654.513006	0.275385
654.718261	0.275699
654.923497	0.276074
655.128715	0.276421
655.333915	0.276680
655.539096	0.277009
655.744259	0.276960
655.949404	0.277455
656.154531	0.277742
656.359640	0.277931
656.564730	0.278058
656.769802	0.278304
656.974856	0.278611
657.179892	0.279084
657.384909	0.279234
657.589908	0.279539
657.794889	0.279304
657.999852	0.279115
658.204797	0.279255
658.409723	0.279361
658.614631	0.279379
658.819521	0.279594
659.024393	0.279874
659.229246	0.280217
659.434081	0.280416
659.638898	0.281032
659.843697	0.281592
660.048478	0.281983
660.253240	0.282284
660.457984	0.282458
660.662710	0.282862
660.867417	0.282790
661.072107	0.283073
661.276778	0.283252
661.481431	0.283384
661.686066	0.283694
661.890682	0.283848
662.095281	0.284109
662.299861	0.284588
662.504422	0.285136
662.708966	0.285474
662.913491	0.285785
663.117999	0.286135
663.322488	0.286551
663.526958	0.286858
663.731411	0.287139
663.935845	0.287200
664.140261	0.287454
664.344659	0.287361
664.549038	0.287368
664.753400	0.287647
664.957743	0.287865
665.162068	0.287937
665.366375	0.288008
665.570663	0.288106
665.774933	0.288713
665.979185	0.289048
666.183419	0.289058
666.387635	0.289699
666.591832	0.289580
666.796011	0.289859
667.000172	0.290016
667.204315	0.290272
667.408439	0.290517
667.612545	0.290567
667.816634	0.290676
668.020703	0.291083
668.224755	0.290949
668.428788	0.291195
668.632803	0.291672
668.836800	0.292007
669.040779	0.292369
669.244739	0.292732
669.448681	0.292879
669.652605	0.292882
669.856511	0.293130
670.060399	0.293614
670.264268	0.294134
670.468119	0.294086
670.671952	0.294246
670.875767	0.294490
671.079563	0.294654
671.283341	0.295050
671.487101	0.295286
671.690843	0.295691
671.894567	0.295939
672.098272	0.296023
672.301959	0.296364
672.505628	0.296890
672.709278	0.297252
672.912911	0.297451
673.116525	0.297605
673.320121	0.298254
673.523699	0.298567
673.727258	0.298934
673.930799	0.299242
674.134322	0.299706
674.337827	0.299816
674.541314	0.299604
674.744782	0.299850
674.948232	0.300261
675.151664	0.300384
675.355078	0.300308
675.558474	0.300575
675.761851	0.300529
675.965210	0.300357
676.168551	0.300434
676.371873	0.300907
676.575178	0.301009
676.778464	0.301257
676.981732	0.301502
677.184981	0.301895
677.388213	0.301970
677.591426	0.302503
677.794621	0.302993
677.997798	0.303631
678.200956	0.304053
678.404097	0.304532
678.607219	0.304811
678.810323	0.304893
679.013408	0.305316
679.216476	0.305579
679.419525	0.305707
679.622556	0.306117
679.825569	0.306233
680.028563	0.306437
680.231540	0.306641
680.434498	0.306751
680.637438	0.307201
680.840359	0.307284
681.043263	0.307379
681.246148	0.307776
681.449015	0.307761
681.651864	0.307922
681.854694	0.308019
682.057506	0.308120
682.260301	0.308322
682.463076	0.308452
682.665834	0.308580
682.868573	0.308850
683.071295	0.309117
683.273998	0.309533
683.476682	0.309771
683.679349	0.309954
683.881997	0.310502
684.084627	0.310919
684.287239	0.311037
684.489833	0.311333
684.692408	0.311672
684.894965	0.311715
685.097504	0.311910
685.300025	0.312204
685.502527	0.312590
685.705012	0.312783
685.907478	0.312971
686.109925	0.313308
686.312355	0.313651
686.514766	0.313635
686.717159	0.313949
686.919534	0.314178
687.121891	0.314387
687.324230	0.314554
687.526550	0.314805
687.728852	0.314914
687.931136	0.315185
688.133401	0.315576
688.335649	0.316089
688.537878	0.316282
688.740089	0.316513
688.942281	0.316742
689.144456	0.317008
689.346612	0.317213
689.548750	0.317584
689.750870	0.317878
689.952971	0.317963
690.155055	0.318211
690.357120	0.318320
690.559167	0.318453
690.761195	0.318682
690.963206	0.318787
691.165198	0.318799
691.367172	0.318933
691.569128	0.319099
691.771065	0.319412
691.972984	0.319623
692.174885	0.320068
692.376768	0.320048
692.578633	0.320043
692.780479	0.320534
692.982308	0.320740
693.184118	0.320632
693.385909	0.320822
