sample name	sample
index	535
start time	 03-11-2021  05:03:06 PM


Wavelength (nm)	Absorbance
494.344910	0.045539
494.563924	0.045539
494.782919	0.045539
495.001897	0.380307
495.220856	-0.329342
495.439797	-0.433239
495.658719	-0.466523
495.877624	-0.496270
496.096510	-0.234344
496.315378	-0.427801
496.534227	-0.786968
496.753059	-0.492645
496.971872	-0.144278
497.190667	0.179374
497.409444	0.173440
497.628203	0.172814
497.846943	0.173117
498.065665	0.175306
498.284369	0.175431
498.503055	0.175652
498.721723	0.176590
498.940372	0.176500
499.159003	0.175888
499.377616	0.177057
499.596210	0.178188
499.814787	0.178399
500.033345	0.176599
500.251885	0.175997
500.470406	0.176620
500.688910	0.176823
500.907395	0.176778
501.125862	0.177819
501.344311	0.178625
501.562742	0.177994
501.781154	0.177694
501.999548	0.178018
502.217924	0.177760
502.436282	0.177710
502.654621	0.178409
502.872942	0.178079
503.091245	0.177857
503.309530	0.178167
503.527797	0.178446
503.746045	0.178583
503.964275	0.178912
504.182487	0.179466
504.400681	0.179735
504.618856	0.180020
504.837013	0.180826
505.055152	0.179946
505.273273	0.179251
505.491376	0.179701
505.709460	0.180542
505.927526	0.181015
506.145574	0.181340
506.363604	0.182656
506.581615	0.181806
506.799608	0.181770
507.017583	0.182759
507.235540	0.182867
507.453478	0.183177
507.671399	0.182908
507.889301	0.183260
508.107185	0.184150
508.325050	0.183086
508.542898	0.183982
508.760727	0.184290
508.978538	0.184421
509.196330	0.185632
509.414105	0.186078
509.631861	0.187807
509.849599	0.187060
510.067319	0.187465
510.285021	0.187880
510.502704	0.188338
510.720369	0.189084
510.938016	0.188451
511.155645	0.188527
511.373255	0.187852
511.590848	0.186286
511.808422	0.187629
512.025977	0.187860
512.243515	0.188189
512.461034	0.187054
512.678536	0.186669
512.896018	0.186582
513.113483	0.186054
513.330930	0.186731
513.548358	0.187652
513.765768	0.187536
513.983160	0.187606
514.200533	0.186882
514.417889	0.187174
514.635226	0.187144
514.852545	0.188224
515.069845	0.187915
515.287128	0.187573
515.504392	0.187505
515.721638	0.187713
515.938866	0.187283
516.156075	0.188217
516.373267	0.188548
516.590440	0.189435
516.807594	0.189926
517.024731	0.191379
517.241850	0.191813
517.458950	0.191959
517.676032	0.191014
517.893095	0.191933
518.110141	0.192404
518.327168	0.192841
518.544177	0.193173
518.761168	0.192980
518.978141	0.192632
519.195095	0.192998
519.412031	0.193117
519.628949	0.194010
519.845849	0.194121
520.062731	0.194864
520.279594	0.195469
520.496439	0.195155
520.713266	0.195925
520.930074	0.196725
521.146865	0.197086
521.363637	0.197889
521.580391	0.198442
521.797127	0.198499
522.013844	0.198042
522.230543	0.198165
522.447224	0.198881
522.663887	0.198981
522.880532	0.198431
523.097158	0.198535
523.313766	0.198168
523.530356	0.198793
523.746928	0.199151
523.963481	0.199625
524.180017	0.199809
524.396534	0.199744
524.613032	0.199887
524.829513	0.200884
525.045975	0.201380
525.262420	0.202419
525.478845	0.202941
525.695253	0.203408
525.911643	0.203652
526.128014	0.204096
526.344367	0.204222
526.560702	0.204333
526.777018	0.204111
526.993316	0.204162
527.209597	0.204259
527.425858	0.203707
527.642102	0.203404
527.858328	0.203471
528.074535	0.203367
528.290724	0.204140
528.506894	0.204840
528.723047	0.205009
528.939181	0.205905
529.155297	0.205951
529.371395	0.206842
529.587475	0.207367
529.803536	0.207613
530.019579	0.208096
530.235604	0.208273
530.451611	0.208846
530.667600	0.209657
530.883570	0.209911
531.099522	0.210231
531.315456	0.210425
531.531372	0.210897
531.747269	0.211733
531.963148	0.211968
532.179009	0.212870
532.394852	0.213228
532.610676	0.213706
532.826482	0.214255
533.042271	0.215424
533.258040	0.215897
533.473792	0.216313
533.689525	0.216349
533.905240	0.217703
534.120937	0.217989
534.336616	0.217924
534.552277	0.218279
534.767919	0.218050
534.983543	0.217305
535.199149	0.217958
535.414736	0.218354
535.630306	0.219171
535.845857	0.219218
536.061390	0.219165
536.276904	0.219265
536.492401	0.219449
536.707879	0.220079
536.923339	0.220791
537.138781	0.220617
537.354204	0.221171
537.569610	0.221141
537.784997	0.221171
538.000366	0.221251
538.215716	0.222239
538.431049	0.222377
538.646363	0.222596
538.861659	0.223736
539.076937	0.224047
539.292196	0.223943
539.507438	0.224041
539.722661	0.224364
539.937866	0.225453
540.153052	0.225286
540.368221	0.225754
540.583371	0.226245
540.798503	0.225924
541.013617	0.225828
541.228712	0.226648
541.443789	0.227797
541.658848	0.227847
541.873889	0.227470
542.088912	0.227689
542.303916	0.227423
542.518902	0.227613
542.733870	0.227911
542.948820	0.228981
543.163752	0.229460
543.378665	0.229320
543.593560	0.229642
543.808437	0.229938
544.023295	0.230675
544.238136	0.231602
544.452958	0.232173
544.667762	0.231894
544.882548	0.231727
545.097315	0.230893
545.312064	0.230971
545.526795	0.231647
545.741508	0.232273
545.956203	0.232055
546.170879	0.232270
546.385537	0.232551
546.600177	0.233396
546.814799	0.234047
547.029402	0.234879
547.243988	0.235337
547.458555	0.235632
547.673103	0.235654
547.887634	0.236122
548.102146	0.236185
548.316640	0.235954
548.531116	0.235914
548.745574	0.236110
548.960013	0.236368
549.174435	0.236753
549.388838	0.237040
549.603222	0.237703
549.817589	0.237668
550.031937	0.238438
550.246267	0.238890
550.460579	0.239123
550.674873	0.239485
550.889148	0.239663
551.103405	0.240125
551.317644	0.240150
551.531865	0.240069
551.746068	0.240637
551.960252	0.241134
552.174418	0.240962
552.388566	0.241477
552.602696	0.240964
552.816807	0.241836
553.030900	0.241802
553.244975	0.241787
553.459032	0.241839
553.673070	0.241432
553.887091	0.240751
554.101093	0.241295
554.315077	0.241227
554.529042	0.241912
554.742990	0.241694
554.956919	0.241427
555.170830	0.241637
555.384722	0.241951
555.598597	0.242467
555.812453	0.242891
556.026291	0.242977
556.240111	0.242823
556.453913	0.243199
556.667696	0.243247
556.881461	0.243910
557.095208	0.244151
557.308937	0.244360
557.522647	0.244824
557.736339	0.245021
557.950013	0.244948
558.163669	0.245930
558.377307	0.245865
558.590926	0.246071
558.804527	0.246291
559.018110	0.246285
559.231675	0.246627
559.445221	0.246777
559.658749	0.247141
559.872259	0.248098
560.085751	0.248107
560.299225	0.248248
560.512680	0.248379
560.726117	0.248457
560.939536	0.248963
561.152937	0.249140
561.366319	0.249188
561.579683	0.249411
561.793029	0.249242
562.006357	0.249841
562.219667	0.250231
562.432958	0.250517
562.646231	0.251169
562.859486	0.251520
563.072723	0.251584
563.285941	0.252205
563.499141	0.252363
563.712323	0.252584
563.925487	0.252317
564.138632	0.252633
564.351760	0.253142
564.564869	0.252620
564.777960	0.252815
564.991032	0.253008
565.204087	0.252875
565.417123	0.252953
565.630141	0.252852
565.843140	0.252851
566.056122	0.252956
566.269085	0.252967
566.482030	0.253395
566.694957	0.253305
566.907866	0.253244
567.120756	0.253355
567.333628	0.253285
567.546482	0.253651
567.759318	0.254124
567.972135	0.254512
568.184935	0.254052
568.397716	0.254452
568.610478	0.254551
568.823223	0.255078
569.035949	0.255711
569.248657	0.256085
569.461347	0.256396
569.674019	0.256734
569.886672	0.256823
570.099308	0.257787
570.311925	0.257702
570.524523	0.258130
570.737104	0.258188
570.949666	0.258027
571.162210	0.258689
571.374736	0.258667
571.587244	0.258274
571.799733	0.258284
572.012205	0.258458
572.224658	0.258578
572.437092	0.259092
572.649509	0.259295
572.861907	0.259493
573.074287	0.259372
573.286649	0.259583
573.498993	0.260304
573.711318	0.260460
573.923625	0.260263
574.135914	0.260338
574.348185	0.260362
574.560438	0.260499
574.772672	0.260764
574.984888	0.260673
575.197086	0.261006
575.409266	0.261195
575.621427	0.261214
575.833570	0.261194
576.045695	0.261567
576.257802	0.261331
576.469890	0.261384
576.681961	0.261478
576.894013	0.261843
577.106046	0.262136
577.318062	0.262313
577.530059	0.262612
577.742039	0.263064
577.954000	0.263285
578.165942	0.263694
578.377867	0.264204
578.589773	0.264171
578.801661	0.263942
579.013531	0.263831
579.225382	0.263591
579.437216	0.263865
579.649031	0.263957
579.860828	0.264017
580.072606	0.264318
580.284367	0.264034
580.496109	0.264615
580.707833	0.265136
580.919539	0.265744
581.131227	0.266084
581.342896	0.265873
581.554547	0.265842
581.766180	0.266103
581.977795	0.265732
582.189391	0.266274
582.400969	0.266386
582.612529	0.266416
582.824071	0.266157
583.035595	0.266287
583.247100	0.267049
583.458587	0.267399
583.670056	0.267778
583.881506	0.268387
584.092939	0.268393
584.304353	0.268390
584.515749	0.269062
584.727127	0.269239
584.938486	0.269385
585.149828	0.269353
585.361151	0.269808
585.572456	0.269592
585.783742	0.269627
585.995011	0.269787
586.206261	0.270113
586.417493	0.269803
586.628706	0.270238
586.839902	0.270655
587.051079	0.270979
587.262238	0.270900
587.473379	0.271477
587.684502	0.271717
587.895606	0.271930
588.106692	0.272132
588.317760	0.272253
588.528810	0.272227
588.739841	0.272315
588.950855	0.271934
589.161850	0.272302
589.372827	0.272440
589.583785	0.272677
589.794726	0.273223
590.005648	0.273264
590.216552	0.273835
590.427437	0.274161
590.638305	0.274198
590.849154	0.274260
591.059985	0.274522
591.270798	0.274562
591.481592	0.274851
591.692369	0.274851
591.903127	0.274947
592.113867	0.274785
592.324588	0.274872
592.535292	0.275249
592.745977	0.275903
592.956644	0.275943
593.167293	0.276000
593.377923	0.275899
593.588536	0.275816
593.799130	0.276149
594.009706	0.276505
594.220263	0.276681
594.430803	0.276798
594.641324	0.277172
594.851827	0.277488
595.062312	0.277475
595.272778	0.277809
595.483227	0.278041
595.693657	0.278057
595.904069	0.278009
596.114462	0.278102
596.324838	0.278498
596.535195	0.278292
596.745534	0.278241
596.955855	0.278777
597.166157	0.278911
597.376441	0.279089
597.586707	0.279199
597.796955	0.279549
598.007185	0.279582
598.217396	0.279225
598.427589	0.279674
598.637764	0.280038
598.847921	0.279936
599.058060	0.280169
599.268180	0.280626
599.478282	0.280821
599.688366	0.281092
599.898431	0.281503
600.108479	0.281851
600.318508	0.281888
600.528519	0.282091
600.738511	0.282265
600.948486	0.281998
601.158442	0.281545
601.368380	0.281875
601.578300	0.281383
601.788202	0.281784
601.998085	0.282266
602.207950	0.282556
602.417797	0.282541
602.627626	0.282775
602.837436	0.283420
603.047228	0.283974
603.257002	0.284255
603.466758	0.284879
603.676496	0.284693
603.886215	0.284798
604.095916	0.284591
604.305599	0.284848
604.515264	0.285124
604.724910	0.285259
604.934538	0.285394
605.144148	0.285588
605.353740	0.285980
605.563314	0.286216
605.772869	0.286536
605.982406	0.287090
606.191925	0.287470
606.401425	0.287643
606.610908	0.287791
606.820372	0.288142
607.029818	0.288039
607.239246	0.288192
607.448655	0.288222
607.658047	0.288346
607.867420	0.288289
608.076775	0.288019
608.286111	0.288177
608.495430	0.288395
608.704730	0.288369
608.914012	0.288666
609.123275	0.288819
609.332521	0.289199
609.541748	0.288986
609.750957	0.289121
609.960148	0.289455
610.169321	0.289445
610.378475	0.289519
610.587611	0.289508
610.796729	0.289459
611.005829	0.289637
611.214910	0.289527
611.423974	0.289947
611.633019	0.290268
611.842045	0.290646
612.051054	0.291093
612.260044	0.291526
612.469017	0.291488
612.677970	0.291802
612.886906	0.291846
613.095824	0.292127
613.304723	0.292037
613.513604	0.291972
613.722467	0.291674
613.931311	0.291556
614.140138	0.291270
614.348946	0.291833
614.557736	0.291787
614.766507	0.291823
614.975261	0.291841
615.183996	0.291925
615.392713	0.292052
615.601412	0.292442
615.810092	0.292513
616.018754	0.292700
616.227399	0.292566
616.436024	0.292696
616.644632	0.292817
616.853222	0.293181
617.061793	0.293434
617.270346	0.293817
617.478880	0.293966
617.687397	0.294494
617.895895	0.294655
618.104375	0.294941
618.312837	0.295327
618.521281	0.295717
618.729706	0.295671
618.938113	0.295666
619.146502	0.295830
619.354873	0.295615
619.563226	0.295487
619.771560	0.295903
619.979876	0.296234
620.188174	0.296555
620.396453	0.296436
620.604715	0.296682
620.812958	0.296720
621.021183	0.296454
621.229390	0.296579
621.437578	0.296478
621.645748	0.295970
621.853900	0.296010
622.062034	0.295821
622.270150	0.295914
622.478247	0.296098
622.686326	0.296318
622.894387	0.296586
623.102430	0.296750
623.310454	0.297284
623.518461	0.297853
623.726449	0.297898
623.934418	0.298055
624.142370	0.298566
624.350303	0.298724
624.558218	0.298957
624.766115	0.299079
624.973994	0.299653
625.181855	0.299773
625.389697	0.299998
625.597521	0.300251
625.805327	0.300522
626.013114	0.300841
626.220883	0.300793
626.428634	0.301015
626.636367	0.301525
626.844082	0.301540
627.051778	0.301588
627.259457	0.301690
627.467117	0.302164
627.674758	0.302223
627.882382	0.301915
628.089987	0.302363
628.297574	0.302855
628.505143	0.302533
628.712694	0.302787
628.920226	0.302622
629.127740	0.302637
629.335236	0.302663
629.542714	0.302841
629.750174	0.303209
629.957615	0.303581
630.165038	0.303538
630.372443	0.304232
630.579829	0.304534
630.787198	0.305074
630.994548	0.305350
631.201880	0.305606
631.409194	0.305748
631.616489	0.305658
631.823766	0.305471
632.031025	0.305379
632.238266	0.305544
632.445489	0.305479
632.652693	0.305470
632.859879	0.305777
633.067047	0.305713
633.274197	0.306009
633.481329	0.306274
633.688442	0.306525
633.895537	0.306969
634.102614	0.306857
634.309672	0.307040
634.516713	0.306999
634.723735	0.306981
634.930739	0.306863
635.137724	0.306896
635.344692	0.307365
635.551641	0.307495
635.758572	0.307478
635.965485	0.308119
636.172379	0.308399
636.379256	0.308999
636.586114	0.309197
636.792954	0.309560
636.999775	0.310142
637.206579	0.310009
637.413364	0.310250
637.620131	0.310615
637.826880	0.310567
638.033610	0.310703
638.240323	0.310854
638.447017	0.311210
638.653692	0.311298
638.860350	0.311224
639.066990	0.311796
639.273611	0.311788
639.480214	0.311734
639.686798	0.311910
639.893365	0.312107
640.099913	0.312014
640.306443	0.312292
640.512955	0.312659
640.719449	0.312644
640.925924	0.312588
641.132381	0.312816
641.338820	0.313029
641.545241	0.313099
641.751644	0.313292
641.958028	0.313682
642.164394	0.313668
642.370742	0.313907
642.577071	0.314410
642.783383	0.314631
642.989676	0.314935
643.195951	0.315274
643.402207	0.315566
643.608446	0.315766
643.814666	0.316332
644.020868	0.316509
644.227052	0.316652
644.433218	0.316806
644.639365	0.316852
644.845494	0.317039
645.051605	0.317509
645.257698	0.317661
645.463772	0.317826
645.669828	0.317799
645.875866	0.318051
646.081886	0.318058
646.287888	0.318287
646.493871	0.318609
646.699836	0.318892
646.905783	0.318809
647.111712	0.318913
647.317622	0.319150
647.523514	0.319105
647.729388	0.319372
647.935244	0.319482
648.141082	0.319478
648.346901	0.319564
648.552702	0.319844
648.758485	0.319784
648.964250	0.320053
649.169996	0.320208
649.375724	0.320488
649.581434	0.320733
649.787126	0.321437
649.992800	0.321804
650.198455	0.322104
650.404092	0.322226
650.609711	0.322505
650.815311	0.322576
651.020894	0.322848
651.226458	0.323268
651.432004	0.323209
651.637532	0.323330
651.843041	0.323340
652.048532	0.323518
652.254006	0.323587
652.459460	0.323762
652.664897	0.324027
652.870315	0.324307
653.075716	0.324255
653.281097	0.324783
653.486461	0.324640
653.691807	0.324975
653.897134	0.325268
654.102443	0.325249
654.307734	0.325672
654.513006	0.325726
654.718261	0.325704
654.923497	0.325970
655.128715	0.326037
655.333915	0.326517
655.539096	0.326735
655.744259	0.326763
655.949404	0.327351
656.154531	0.327572
656.359640	0.328193
656.564730	0.328294
656.769802	0.328510
656.974856	0.328665
657.179892	0.328822
657.384909	0.328954
657.589908	0.329166
657.794889	0.329160
657.999852	0.329274
658.204797	0.329261
658.409723	0.329663
658.614631	0.329828
658.819521	0.329891
659.024393	0.329891
659.229246	0.329921
659.434081	0.329994
659.638898	0.330475
659.843697	0.330750
660.048478	0.330981
660.253240	0.331235
660.457984	0.331613
660.662710	0.331983
660.867417	0.332462
661.072107	0.332816
661.276778	0.333324
661.481431	0.333103
661.686066	0.333353
661.890682	0.333670
662.095281	0.333771
662.299861	0.334063
662.504422	0.334383
662.708966	0.334600
662.913491	0.334788
663.117999	0.335080
663.322488	0.335400
663.526958	0.335656
663.731411	0.335870
663.935845	0.336317
664.140261	0.336315
664.344659	0.336369
664.549038	0.336533
664.753400	0.336591
664.957743	0.336691
665.162068	0.337036
665.366375	0.337186
665.570663	0.337035
665.774933	0.337201
665.979185	0.337552
666.183419	0.337908
666.387635	0.338183
666.591832	0.338542
666.796011	0.338514
667.000172	0.338720
667.204315	0.339025
667.408439	0.339834
667.612545	0.339967
667.816634	0.340327
668.020703	0.340616
668.224755	0.340764
668.428788	0.340967
668.632803	0.341365
668.836800	0.341657
669.040779	0.341901
669.244739	0.341681
669.448681	0.341805
669.652605	0.341652
669.856511	0.341664
670.060399	0.342075
670.264268	0.342419
670.468119	0.342949
670.671952	0.343079
670.875767	0.343341
671.079563	0.343435
671.283341	0.343558
671.487101	0.343967
671.690843	0.344040
671.894567	0.343810
672.098272	0.343962
672.301959	0.344214
672.505628	0.344386
672.709278	0.344447
672.912911	0.344924
673.116525	0.345459
673.320121	0.345971
673.523699	0.346206
673.727258	0.346784
673.930799	0.347015
674.134322	0.347043
674.337827	0.347402
674.541314	0.347799
674.744782	0.348222
674.948232	0.348147
675.151664	0.348363
675.355078	0.348866
675.558474	0.349292
675.761851	0.349677
675.965210	0.349802
676.168551	0.349850
676.371873	0.349945
676.575178	0.349972
676.778464	0.350386
676.981732	0.350070
677.184981	0.350472
677.388213	0.350519
677.591426	0.350564
677.794621	0.350730
677.997798	0.351090
678.200956	0.351182
678.404097	0.351602
678.607219	0.351725
678.810323	0.352233
679.013408	0.352252
679.216476	0.352377
679.419525	0.352937
679.622556	0.353475
679.825569	0.353988
680.028563	0.354636
680.231540	0.354794
680.434498	0.355006
680.637438	0.355230
680.840359	0.355829
681.043263	0.356225
681.246148	0.356359
681.449015	0.356383
681.651864	0.356570
681.854694	0.356775
682.057506	0.356785
682.260301	0.357087
682.463076	0.357361
682.665834	0.357254
682.868573	0.357349
683.071295	0.357510
683.273998	0.357846
683.476682	0.357900
683.679349	0.357851
683.881997	0.357989
684.084627	0.358481
684.287239	0.358644
684.489833	0.359213
684.692408	0.359761
684.894965	0.360167
685.097504	0.360172
685.300025	0.360393
685.502527	0.360657
685.705012	0.361012
685.907478	0.361087
686.109925	0.361344
686.312355	0.361011
686.514766	0.360985
686.717159	0.361170
686.919534	0.361453
687.121891	0.361610
687.324230	0.361921
687.526550	0.362360
687.728852	0.362524
687.931136	0.362933
688.133401	0.363490
688.335649	0.363565
688.537878	0.363609
688.740089	0.364051
688.942281	0.364545
689.144456	0.364798
689.346612	0.365031
689.548750	0.365190
689.750870	0.365144
689.952971	0.365082
690.155055	0.365577
690.357120	0.365863
690.559167	0.365965
690.761195	0.365970
690.963206	0.366102
691.165198	0.366306
691.367172	0.366520
691.569128	0.366628
691.771065	0.367076
691.972984	0.366975
692.174885	0.367258
692.376768	0.367381
692.578633	0.367622
692.780479	0.367775
692.982308	0.367624
693.184118	0.367959
693.385909	0.368114
