sample name	sample
index	1073
start time	 04-22-2021  10:42:30 AM
880	0.479714
Peak Time (s)	102.535
Peak Height 	0.4797
calc peak height	100,103
Baseline Time (s)	10.537
Baseline Value 	-0.006552
subtract baseline	10,4
Abs	0.352623
Peak Time (s)	100.037
Peak Height 	0.3526
calc peak height	100,103
Baseline Time (s)	9.036
Baseline Value 	0.003376
subtract baseline	10,3
PK_550	0.192767
Peak Time (s)	101.037
Peak Height 	0.1928
calc peak height	100,103
Baseline Time (s)	11.04
Baseline Value 	0.001166
subtract baseline	10,2
PK_880	0.329906
Peak Time (s)	101.537
Peak Height 	0.3299
calc peak height	100,103
Baseline Time (s)	8.536
Baseline Value 	0.003486
subtract baseline	10,1


Time (s)	A880-A510	A880-A775	A880-A975	A880	I510	I775	I975	I880	
0.036500	-0.001802	-0.000641	-0.002447	0.002332	6245.437087	43340.304422	3862.306658	22722.093751
0.537000	-0.003594	-0.001333	0.002495	0.004461	6213.840925	43077.465583	3869.784233	22624.283700
1.037500	-0.005169	-0.000675	-0.001994	0.006814	6182.487161	42920.492641	3851.679375	22516.802612
1.541000	-0.002218	-0.001911	0.002676	0.003536	6232.350171	43109.734693	3872.739269	22666.749905
2.035000	-0.001739	-0.000335	0.001402	0.000992	6256.808392	43494.341557	3876.138868	22783.858243
2.535500	-0.001804	0.000056	0.001285	0.001271	6254.015382	43504.874134	3875.078293	22771.007408
3.038000	-0.004988	-0.001014	-0.006530	0.005027	6198.163920	43054.647713	3844.482213	22598.399292
3.536000	-0.000518	0.000021	0.001260	0.000538	6270.432328	43570.433852	3876.977420	22804.840353
4.036000	0.000577	-0.000022	-0.003105	0.000565	6279.149412	43563.867020	3865.249679	22803.619805
4.536500	-0.000464	-0.001004	-0.003348	0.000031	6275.007502	43521.785053	3866.021062	22828.305649
5.036500	-0.003236	-0.001271	-0.002454	0.004188	6218.911517	43108.700725	3857.380146	22636.833551
5.536500	0.000169	-0.000411	-0.000095	-0.000289	6282.795163	43607.508782	3875.561777	22843.121922
6.040000	0.000291	-0.000471	-0.000341	-0.000743	6287.512336	43644.619382	3876.118504	22864.181340
6.537500	-0.000811	-0.000629	0.000332	-0.001019	6280.753902	43655.743010	3878.668656	22876.990122
7.034500	-0.002276	-0.000542	-0.000523	-0.000798	6267.001257	43643.118108	3875.780185	22866.734554
7.535500	0.000310	0.000347	0.001575	0.000030	6281.341221	43648.855723	3879.187307	22828.360426
8.036000	0.000617	-0.000030	0.001539	-0.000081	6284.755196	43623.798456	3879.388880	22833.490799
8.536000	0.000000	-0.000618	0.002506	-0.000725	6284.979906	43629.128420	3883.731535	22863.333578
9.036000	-0.000325	-0.000865	0.000000	-0.000903	6283.776514	43622.646642	3877.463382	22871.591943
9.536500	-0.000775	0.000244	-0.000068	-0.000204	6274.388167	43661.191077	3875.404150	22839.172273
10.037000	0.001423	0.000838	0.002398	0.000571	6286.018472	43644.182618	3879.947484	22803.335931
10.537000	0.000282	-0.000110	-0.001997	0.000000	6281.360836	43608.667665	3869.701522	22829.748222
11.040500	-0.001775	0.000000	0.001967	0.000634	6259.422742	43559.413808	3878.618323	22800.411611
11.534500	0.001216	0.000676	-0.002423	0.000166	6287.641292	43667.118866	3868.125308	22822.083201
12.038000	-0.003246	-0.001377	-0.002213	-0.001556	6265.268503	43635.839980	3873.280901	22901.900373
12.536000	-0.000663	-0.000263	0.004180	-0.000893	6280.926733	43678.288179	3888.714026	22871.105059
13.038500	-0.003719	-0.001210	0.001146	0.000328	6246.142442	43474.620187	3877.234748	22814.579648
13.536000	0.000503	-0.000489	0.002238	-0.001068	6291.913789	43673.539158	3883.934021	22879.240757
14.036500	-0.002020	0.000001	-0.002217	0.002188	6244.838849	43413.777502	3863.298033	22728.705742
14.536500	-0.001325	-0.000731	-0.001565	0.001666	6254.706063	43394.145672	3866.417616	22752.798728
15.036500	-0.001290	-0.000943	-0.003723	0.000235	6266.611820	43508.380684	3864.483477	22818.878321
15.539500	-0.001712	0.000376	-0.001589	-0.000348	6267.930334	43687.252684	3871.722728	22845.881459
16.034500	-0.002619	-0.000901	0.001461	-0.001046	6266.229695	43632.688327	3881.778168	22878.239914
16.537500	-0.001149	-0.000394	0.003517	-0.000830	6276.446720	43660.013939	3886.746992	22868.190127
17.035500	-0.001649	0.000052	-0.004326	-0.001096	6274.538961	43727.185619	3866.418374	22880.536145
17.536000	-0.000914	-0.000994	0.000032	-0.000063	6272.102581	43531.475082	3875.294757	22832.643396
18.036000	-0.001585	-0.000760	0.000325	0.000450	6262.461411	43505.384526	3874.706390	22808.929603
18.536000	-0.001185	-0.000690	-0.003233	0.000531	6265.053477	43504.244906	3864.997910	22805.165312
19.036500	-0.001047	-0.000297	-0.000638	0.001070	6261.795188	43490.556191	3870.472371	22780.265928
19.536500	-0.002710	-0.000224	0.001518	0.000893	6249.736610	43514.138898	3876.719575	22788.473755
20.036500	-0.000767	-0.000172	-0.001485	0.000952	6265.031491	43513.471071	3868.529590	22785.729379
20.537500	-0.001839	-0.000085	0.005279	0.001194	6254.352348	43498.834339	3886.039006	22774.534810
21.035000	-0.002550	-0.000120	0.004805	0.001047	6249.785080	43509.361019	3885.153651	22781.338840
21.538000	0.001604	0.000050	0.001767	0.001159	6282.685773	43514.843237	3876.671256	22776.162443
22.035500	-0.000245	-0.001006	-0.001638	0.000269	6274.856658	43499.293644	3869.944562	22817.316685
22.536000	-0.001947	0.000177	0.001647	0.001197	6253.451335	43523.130228	3876.245783	22774.393644
23.036000	-0.001833	-0.000396	-0.000582	0.001028	6255.749520	43485.234851	3870.735260	22782.209194
23.536500	-0.000603	-0.000805	-0.001939	0.000388	6270.969695	43507.027214	3868.823429	22811.817735
24.037000	-0.001868	-0.000337	0.003636	0.000830	6257.072283	43509.326357	3882.582241	22791.341190
24.537000	-0.003458	-0.000759	-0.003606	0.000685	6245.362579	43483.459356	3863.600290	22798.068783
25.040000	-0.002366	-0.000473	0.003773	0.001014	6251.540463	43479.352124	3882.457664	22782.866214
25.534500	-0.000120	0.000673	0.002084	0.001696	6264.245599	43522.857326	3876.080118	22751.369750
26.035000	-0.003556	0.000362	-0.003477	0.001374	6239.001537	43523.986180	3862.114621	22766.257526
26.535500	-0.001289	-0.000640	-0.005273	0.000407	6265.224776	43520.599876	3859.920158	22810.909933
27.035500	-0.000609	-0.000934	0.002673	-0.000400	6277.341211	43568.863400	3883.304186	22848.272389
27.537500	-0.000358	-0.001008	-0.000692	-0.001732	6290.290771	43687.171367	3877.831309	22910.077642
28.036000	-0.001515	0.000209	0.000498	-0.000544	6271.124985	43690.002710	3877.837093	22854.947038
28.536500	0.001425	-0.000564	-0.001234	-0.000771	6297.037940	43638.495065	3873.801721	22865.462927
29.037000	-0.002577	-0.000642	0.005478	0.001806	6243.426410	43389.393336	3884.923451	22746.332571
29.537500	-0.001299	-0.000271	-0.001613	-0.000816	6275.104639	43670.373773	3872.906966	22867.544990
30.037000	0.001448	0.000023	0.001189	-0.000465	6294.714359	43665.022825	3879.481817	22851.281021
30.535000	-0.002432	-0.000886	-0.001769	0.001773	6244.864097	43369.663635	3865.588601	22747.849687
31.035000	-0.000983	-0.000119	-0.002260	0.002498	6250.724532	43373.531601	3862.362413	22714.453454
31.535500	-0.000712	-0.000693	0.004097	-0.000967	6281.133458	43644.826403	3888.689772	22874.566885
32.036000	-0.001455	-0.000553	0.004091	-0.000432	6270.703976	43607.626282	3887.223779	22849.745047
32.536000	0.000576	-0.000398	-0.003670	-0.000508	6287.917980	43629.445763	3866.601011	22853.289924
33.036000	-0.004090	-0.000555	-0.000533	0.003849	6214.782452	43206.766988	3863.357920	22652.371696
33.536500	-0.000640	0.000214	0.002878	0.000014	6273.712506	43637.890684	3882.741141	22829.118369
34.037000	0.000890	-0.000407	0.000986	0.000604	6281.385589	43523.986820	3876.063885	22801.799804
34.540000	-0.002924	-0.001422	-0.001151	0.000856	6248.300307	43405.243773	3869.674616	22790.152706
35.037500	-0.000380	0.000597	-0.000054	0.002825	6252.964514	43409.983529	3867.352564	22699.396833
35.535000	-0.001922	-0.000002	-0.000687	0.001848	6248.382967	43445.377137	3868.267907	22744.378773
36.035000	-0.002051	0.000522	0.003025	0.002482	6242.207009	43434.969292	3876.496123	22715.163380
36.535000	-0.002389	-0.000510	0.000404	0.001793	6245.049576	43402.964058	3871.327224	22746.932408
37.036000	-0.001640	0.000219	0.003945	0.002636	6244.287500	43392.249436	3878.554683	22708.105536
37.536000	0.001723	-0.000753	0.000947	0.001291	6282.585325	43427.185459	3874.120949	22770.095964
38.037000	-0.001090	0.000093	0.002056	0.001806	6255.473623	43458.230373	3875.710917	22746.324750
38.537000	-0.002853	0.000165	0.001418	0.002012	6239.528182	43445.667452	3873.450697	22736.826156
39.039500	-0.001950	-0.000523	-0.002625	0.001580	6250.328128	43421.614674	3863.826444	22756.725578
39.534500	-0.000570	0.000871	0.003086	0.002480	6254.220971	43467.985240	3876.666901	22715.283673
40.037000	-0.000627	-0.000344	-0.002788	0.001766	6259.554317	43420.988778	3862.903063	22748.167130
40.535000	-0.000301	-0.000049	-0.003677	0.001418	6265.040335	43481.265719	3861.468864	22764.225038
41.035500	-0.001735	-0.000490	-0.003187	0.001602	6251.897291	43422.733749	3862.280441	22755.750214
41.535500	-0.002451	-0.001319	0.003789	0.001091	6250.231189	43392.928744	3882.291552	22779.293177
42.036500	-0.003138	-0.000103	-0.001249	0.001935	6237.839055	43427.740328	3866.539782	22740.356781
42.536000	-0.000954	-0.000664	0.000086	0.001440	6259.547202	43421.633534	3871.419421	22763.216435
43.036500	-0.003365	-0.000948	0.000159	0.001255	6241.503531	43412.263062	3872.107025	22771.722366
43.537000	-0.001027	-0.000333	0.004648	0.001660	6257.163787	43431.922194	3883.076310	22753.055772
44.037000	-0.000583	-0.000671	0.003566	-0.002639	6295.882227	43804.616479	3891.786805	22952.259345
44.538500	-0.001205	-0.000615	0.003127	-0.001114	6278.311049	43665.994042	3886.461484	22881.376239
45.038000	-0.001594	-0.000508	-0.001501	0.001738	6251.928764	43408.273275	3866.393121	22749.439628
45.535500	-0.002075	-0.001336	-0.000452	-0.001196	6271.878267	43605.849103	3877.037152	22885.183667
46.035500	-0.001165	0.000052	-0.003892	-0.000117	6270.506787	43634.983827	3864.972141	22835.181358
46.535500	0.000117	0.000274	-0.001615	-0.000275	6282.257550	43670.671596	3871.456758	22842.471608
47.035500	-0.004953	-0.000147	0.003961	0.005192	6197.120215	43119.759752	3871.746018	22590.827695
47.536000	-0.002730	-0.000455	0.001775	0.001828	6242.013921	43404.843703	3874.901284	22745.329529
48.036500	-0.002666	0.000055	0.001160	0.002432	6237.648733	43396.027991	3871.638363	22717.504199
48.542000	-0.002886	-0.001057	0.005085	-0.000725	6261.445524	43587.798528	3890.713544	22863.347356
49.034500	-0.002559	-0.000507	-0.001246	0.004095	6225.101012	43188.358787	3860.819113	22641.089836
49.534500	-0.001656	-0.000759	0.002151	-0.000781	6271.912062	43621.137402	3882.924623	22865.946351
50.035500	0.002599	-0.000199	0.004304	-0.003028	6325.321759	43886.039177	3894.854694	22970.396100
50.535000	-0.000073	0.000589	0.002170	0.004307	6243.443999	43270.776743	3869.328550	22631.371660
51.036000	0.021855	-0.005356	0.026626	0.135923	5459.419121	32271.724118	3616.122761	17427.251165
51.536000	0.055348	-0.016444	0.080193	0.526903	3928.753775	14450.959491	3127.374901	8701.545487
52.036000	0.009961	-0.020206	-0.007038	0.089145	5687.641949	34523.406169	3643.859979	19099.152404
52.536500	-0.010462	-0.067351	-0.045151	-0.241352	8769.019378	63755.978376	4539.623911	37771.216262
53.036500	-0.005400	-0.100451	-0.030304	-0.286861	9514.717922	65524.025751	4812.209858	41642.835327
53.537000	-0.008023	-0.081995	-0.031465	-0.263867	9126.126376	64871.579218	4698.549075	39635.918081
54.034500	-0.008049	-0.074655	-0.027215	-0.256234	9014.336739	64829.792145	4683.130444	38992.927365
54.535000	-0.008418	-0.054064	-0.022983	-0.228472	8620.217623	63813.241086	4579.141768	36747.131034
55.035000	-0.014753	-0.049463	-0.027945	-0.223131	8463.990074	63709.279554	4535.355034	36331.306392
55.535500	-0.013307	-0.043132	-0.025894	-0.212663	8346.112970	63131.393078	4500.343328	35530.959728
56.035500	-0.003118	-0.048218	-0.018610	-0.221542	8598.154871	63661.005373	4568.176477	36208.553820
56.539000	0.003251	-0.025099	-0.007201	-0.173369	8059.700079	60246.944482	4417.459767	32693.159436
57.036500	0.007501	-0.011970	-0.003394	-0.131691	7619.669245	56589.165476	4274.983995	29950.952280
57.536500	0.018596	-0.003336	0.008430	-0.099430	7387.114482	53738.724296	4203.108485	28001.900683
58.040000	0.030831	0.003914	0.025527	-0.055102	7055.434209	49566.745752	4112.443439	25549.309570
58.537500	0.040933	0.011095	0.030589	-0.017436	6789.482198	46393.703139	4011.111003	23653.310307
59.035000	0.056084	0.020037	0.048899	0.013625	6643.476912	44226.787169	3973.502050	22208.817232
59.535000	0.074009	0.030908	0.066132	0.052282	6461.090305	41656.703075	3912.751575	20549.608393
60.035500	0.093040	0.041940	0.094600	0.134721	5954.333258	35758.842309	3772.352231	17468.000307
60.535500	0.114660	0.053622	0.118182	0.167906	5869.625827	34164.558859	3749.148586	16383.511857
61.036000	0.140124	0.068894	0.140563	0.189093	5900.691638	33739.759725	3752.007604	15733.243372
61.536000	0.161889	0.080098	0.170496	0.238838	5702.900761	31108.612448	3705.599487	14325.522119
62.036500	0.179083	0.091640	0.196192	0.276364	5566.964127	29462.103482	3678.881668	13365.344028
62.537000	0.198266	0.103140	0.207472	0.311079	5467.316617	28071.995101	3628.054330	12547.987555
63.037000	0.214472	0.112504	0.226080	0.334412	5422.776479	27270.752736	3618.135773	12034.232508
63.534500	0.226675	0.122092	0.241982	0.349771	5403.285832	26947.114296	3619.270126	11710.799972
64.034500	0.234610	0.125093	0.251903	0.367616	5342.995169	26134.273893	3602.854111	11349.098713
64.535000	0.241935	0.132953	0.264644	0.368693	5380.844859	26502.272935	3627.122910	11327.737196
65.035500	0.244437	0.136497	0.264171	0.371340	5379.962523	26551.355972	3620.566994	11275.480319
65.535500	0.249030	0.139458	0.268960	0.371912	5404.605483	26682.614899	3629.440228	11264.224779
66.036500	0.253467	0.141737	0.273830	0.374646	5415.106656	26657.568692	3633.965538	11210.637404
66.536500	0.254590	0.144430	0.276902	0.380337	5387.022003	26493.104559	3628.417368	11100.180557
67.036500	0.256941	0.146541	0.287877	0.386622	5363.067748	26266.087834	3638.375964	10979.869866
67.540000	0.262432	0.150397	0.283446	0.389921	5376.383079	26296.218953	3622.019234	10917.396434
68.037000	0.264211	0.150935	0.283732	0.392489	5371.587988	26186.462292	3617.247938	10869.111852
68.535000	0.269084	0.155152	0.292157	0.400648	5351.674011	25974.778820	3617.801963	10717.549827
69.035000	0.270655	0.154961	0.291402	0.405941	5329.316982	25683.474640	3605.268652	10620.759690
69.535000	0.272211	0.158217	0.295072	0.411874	5303.255358	25542.537769	3600.620797	10513.627894
70.035500	0.277429	0.159315	0.300786	0.415066	5315.287403	25432.979707	3605.802245	10456.612291
70.536000	0.277455	0.160105	0.303533	0.416104	5309.268367	25420.009868	3609.326712	10438.154731
71.036000	0.282750	0.163245	0.308497	0.421993	5305.745593	25276.993582	3607.417292	10334.286380
71.536000	0.283912	0.164966	0.305660	0.422758	5308.100252	25326.675580	3600.016955	10320.902339
72.039500	0.285418	0.166076	0.308878	0.425933	5298.209421	25219.579114	3600.103729	10265.567878
72.537000	0.287947	0.168584	0.313450	0.429949	5289.440014	25141.735311	3601.242971	10196.181496
73.037000	0.288142	0.169927	0.309608	0.432808	5273.784748	25063.653122	3587.615570	10147.151634
73.537500	0.291623	0.170916	0.313666	0.432520	5295.959212	25129.424511	3596.430948	10152.086002
74.035000	0.290887	0.171492	0.316739	0.434155	5281.991442	25074.906388	3599.365706	10124.176384
74.535500	0.296873	0.174491	0.319265	0.437648	5296.673312	25049.527276	3597.389652	10064.912644
75.035500	0.296698	0.175523	0.320005	0.440867	5276.703799	24937.568024	3592.347497	10010.718062
75.536000	0.300157	0.177261	0.326700	0.440678	5298.177454	25036.207356	3606.423885	10013.893102
76.036000	0.300136	0.177361	0.326785	0.440963	5296.368462	25026.673242	3606.009378	10009.102940
76.539500	0.301967	0.177510	0.320784	0.441780	5302.368378	24992.477848	3592.075141	9995.421550
77.037000	0.305410	0.179700	0.323049	0.443819	5310.691330	25000.199645	3592.532700	9961.368656
77.537500	0.307073	0.181116	0.328518	0.443914	5320.026266	25067.937271	3603.504378	9959.784519
78.034500	0.307190	0.181521	0.328912	0.444567	5316.833295	25055.259140	3602.973127	9948.924510
78.535000	0.305425	0.182719	0.331026	0.444357	5307.588627	25127.641380	3607.758538	9952.418436
79.035000	0.309585	0.184787	0.336201	0.447147	5315.733117	25090.481763	3612.694449	9906.139541
79.535000	0.307873	0.183949	0.336271	0.445318	5316.432889	25141.539826	3616.643941	9936.450767
80.035500	0.308308	0.185321	0.332217	0.446963	5309.231261	25127.409622	3604.840322	9909.180029
80.535500	0.309033	0.186387	0.334440	0.448503	5304.401535	25103.038952	3606.248374	9883.760997
81.036000	0.312116	0.187378	0.335603	0.450631	5310.063398	25044.569146	3604.260820	9848.763931
81.539500	0.312420	0.187132	0.340776	0.451888	5304.411812	24967.615591	3612.348693	9828.185775
82.037000	0.311899	0.187195	0.343177	0.452434	5298.094744	24942.926351	3616.206075	9819.257903
82.534500	0.313719	0.188492	0.335623	0.454341	5297.580698	24911.778953	3596.705783	9788.180493
83.037500	0.313070	0.188146	0.338090	0.455156	5288.943064	24852.633869	3600.080818	9774.945018
83.535000	0.316597	0.188989	0.345931	0.454977	5310.862283	24904.657271	3616.645525	9777.841873
84.035500	0.315262	0.187359	0.345267	0.453467	5311.908408	24898.590852	3618.412863	9802.416634
84.535500	0.316417	0.188585	0.347306	0.457190	5296.685516	24771.611790	3614.900720	9742.002789
85.036000	0.317678	0.189382	0.342192	0.458337	5297.365228	24753.869933	3601.968222	9723.504467
85.536500	0.316986	0.189392	0.336999	0.457888	5295.924082	24777.121620	3592.291828	9730.736182
86.036500	0.320461	0.189977	0.342110	0.458691	5311.755143	24766.077717	3601.074517	9717.799767
86.537000	0.318830	0.188972	0.343072	0.458269	5304.582024	24736.598221	3603.914221	9724.601537
87.037000	0.319406	0.190731	0.351731	0.462280	5284.304351	24622.870103	3613.517680	9660.258833
87.534500	0.321800	0.190499	0.348483	0.460967	5306.196544	24677.398662	3609.507182	9681.254752
88.035000	0.321669	0.190284	0.347290	0.461924	5299.752150	24618.319844	3605.072106	9665.947502
88.535000	0.319783	0.189739	0.344111	0.464011	5276.356408	24486.218663	3594.299591	9632.669392
89.035500	0.322337	0.190365	0.348315	0.464315	5289.580136	24502.334807	3602.264849	9627.845273
89.536000	0.322474	0.190133	0.348195	0.462818	5299.226346	24565.751919	3605.094036	9651.673462
90.036000	0.322188	0.191229	0.351219	0.464073	5290.129360	24557.808802	3608.743974	9631.694089
90.536000	0.320266	0.190986	0.351475	0.468398	5253.574320	24329.702628	3600.374433	9563.262434
91.039500	0.322970	0.191023	0.346022	0.465915	5283.888134	24455.255105	3594.315668	9602.471211
91.539000	0.322291	0.191598	0.349610	0.466304	5277.616324	24464.492640	3600.842286	9596.304923
92.037000	0.327486	0.192613	0.345143	0.467641	5300.341939	24448.447231	3589.034002	9575.190009
92.535000	0.326973	0.191846	0.348385	0.471715	5273.346643	24207.989699	3587.355315	9511.239223
93.035000	0.325642	0.191235	0.345051	0.469064	5281.088404	24308.995485	3585.979108	9552.789926
93.535500	0.325902	0.192002	0.352661	0.468374	5286.672745	24381.432217	3602.853887	9563.642024
94.035500	0.324125	0.190314	0.349211	0.467223	5282.987813	24354.680261	3598.146679	9581.779468
94.536000	0.321296	0.189864	0.346168	0.471572	5241.149774	24117.310019	3583.180425	9513.472711
95.036500	0.325728	0.192526	0.350040	0.470734	5271.797145	24290.178003	3592.687624	9526.582148
95.537000	0.326581	0.191289	0.349615	0.469626	5283.295826	24283.772360	3594.073591	9543.948237
96.036500	0.327239	0.192195	0.350918	0.471101	5278.503008	24255.621359	3593.726630	9520.844630
96.537000	0.324837	0.190563	0.350530	0.474844	5242.709648	23991.157319	3585.373011	9462.535319
97.034500	0.327857	0.192488	0.347443	0.472153	5275.956892	24218.056599	3584.574809	9504.393293
