sample name	sample
index	1087
start time	 04-22-2021  11:34:23 AM


Wavelength (nm)	Absorbance
494.344910	0.084784
494.563924	0.084784
494.782919	0.084784
495.001897	0.153807
495.220856	0.020151
495.439797	-0.006434
495.658719	-0.006882
495.877624	0.012616
496.096510	0.023698
496.315378	0.007701
496.534227	-0.005046
496.753059	0.100186
496.971872	0.091515
497.190667	0.151331
497.409444	0.170680
497.628203	0.170629
497.846943	0.171257
498.065665	0.169253
498.284369	0.167643
498.503055	0.167739
498.721723	0.167055
498.940372	0.166202
499.159003	0.166825
499.377616	0.165026
499.596210	0.165090
499.814787	0.164811
500.033345	0.165246
500.251885	0.165851
500.470406	0.165974
500.688910	0.166295
500.907395	0.166603
501.125862	0.165631
501.344311	0.166808
501.562742	0.166279
501.781154	0.166875
501.999548	0.166827
502.217924	0.167197
502.436282	0.167934
502.654621	0.167423
502.872942	0.168462
503.091245	0.168726
503.309530	0.168234
503.527797	0.168787
503.746045	0.167319
503.964275	0.167475
504.182487	0.168135
504.400681	0.168453
504.618856	0.169782
504.837013	0.169772
505.055152	0.170665
505.273273	0.170571
505.491376	0.171187
505.709460	0.171900
505.927526	0.172392
506.145574	0.172640
506.363604	0.171256
506.581615	0.171039
506.799608	0.170877
507.017583	0.171371
507.235540	0.171757
507.453478	0.171821
507.671399	0.171409
507.889301	0.170994
508.107185	0.171076
508.325050	0.172619
508.542898	0.172917
508.760727	0.172593
508.978538	0.172028
509.196330	0.170465
509.414105	0.169581
509.631861	0.169645
509.849599	0.170483
510.067319	0.171448
510.285021	0.171585
510.502704	0.171403
510.720369	0.172681
510.938016	0.172890
511.155645	0.174728
511.373255	0.175846
511.590848	0.176609
511.808422	0.176934
512.025977	0.176456
512.243515	0.175853
512.461034	0.176121
512.678536	0.176187
512.896018	0.177220
513.113483	0.177240
513.330930	0.177587
513.548358	0.177656
513.765768	0.177928
513.983160	0.177791
514.200533	0.178103
514.417889	0.178609
514.635226	0.178567
514.852545	0.177499
515.069845	0.178413
515.287128	0.178506
515.504392	0.178704
515.721638	0.178915
515.938866	0.178533
516.156075	0.179724
516.373267	0.179688
516.590440	0.179484
516.807594	0.180362
517.024731	0.180371
517.241850	0.180085
517.458950	0.180597
517.676032	0.180741
517.893095	0.181410
518.110141	0.180364
518.327168	0.180413
518.544177	0.181663
518.761168	0.182442
518.978141	0.182601
519.195095	0.183250
519.412031	0.183245
519.628949	0.183201
519.845849	0.183610
520.062731	0.184652
520.279594	0.184755
520.496439	0.184872
520.713266	0.183579
520.930074	0.184028
521.146865	0.183626
521.363637	0.184074
521.580391	0.183608
521.797127	0.183661
522.013844	0.184128
522.230543	0.185230
522.447224	0.185258
522.663887	0.185640
522.880532	0.185563
523.097158	0.186097
523.313766	0.186615
523.530356	0.187677
523.746928	0.188690
523.963481	0.188693
524.180017	0.188456
524.396534	0.188342
524.613032	0.189896
524.829513	0.190282
525.045975	0.190676
525.262420	0.190568
525.478845	0.190847
525.695253	0.190807
525.911643	0.190512
526.128014	0.191070
526.344367	0.190866
526.560702	0.190050
526.777018	0.189634
526.993316	0.189941
527.209597	0.190313
527.425858	0.190051
527.642102	0.190450
527.858328	0.190963
528.074535	0.190955
528.290724	0.191698
528.506894	0.192598
528.723047	0.193762
528.939181	0.194008
529.155297	0.193712
529.371395	0.194076
529.587475	0.193791
529.803536	0.194040
530.019579	0.194807
530.235604	0.194891
530.451611	0.194965
530.667600	0.195249
530.883570	0.195932
531.099522	0.196743
531.315456	0.197184
531.531372	0.197652
531.747269	0.198914
531.963148	0.198964
532.179009	0.199232
532.394852	0.200152
532.610676	0.200524
532.826482	0.201069
533.042271	0.201908
533.258040	0.202213
533.473792	0.202095
533.689525	0.202132
533.905240	0.202337
534.120937	0.203444
534.336616	0.202716
534.552277	0.201903
534.767919	0.201691
534.983543	0.201916
535.199149	0.202443
535.414736	0.203885
535.630306	0.204075
535.845857	0.203698
536.061390	0.204102
536.276904	0.204604
536.492401	0.205660
536.707879	0.206292
536.923339	0.206425
537.138781	0.206821
537.354204	0.206419
537.569610	0.206138
537.784997	0.206989
538.000366	0.206348
538.215716	0.207163
538.431049	0.207689
538.646363	0.207971
538.861659	0.208606
539.076937	0.208769
539.292196	0.208551
539.507438	0.209472
539.722661	0.209751
539.937866	0.210267
540.153052	0.210202
540.368221	0.210160
540.583371	0.210350
540.798503	0.210282
541.013617	0.210811
541.228712	0.212187
541.443789	0.212655
541.658848	0.212433
541.873889	0.213088
542.088912	0.213150
542.303916	0.213406
542.518902	0.213452
542.733870	0.213256
542.948820	0.212766
543.163752	0.212290
543.378665	0.211749
543.593560	0.212724
543.808437	0.213213
544.023295	0.214154
544.238136	0.214762
544.452958	0.214604
544.667762	0.214826
544.882548	0.215980
545.097315	0.216152
545.312064	0.216988
545.526795	0.217051
545.741508	0.217072
545.956203	0.217061
546.170879	0.217521
546.385537	0.218172
546.600177	0.218959
546.814799	0.218813
547.029402	0.219583
547.243988	0.219720
547.458555	0.219975
547.673103	0.219854
547.887634	0.219784
548.102146	0.219592
548.316640	0.220409
548.531116	0.220657
548.745574	0.220997
548.960013	0.221210
549.174435	0.221203
549.388838	0.221496
549.603222	0.222216
549.817589	0.223029
550.031937	0.223177
550.246267	0.223284
550.460579	0.223483
550.674873	0.223369
550.889148	0.223708
551.103405	0.224496
551.317644	0.224360
551.531865	0.224709
551.746068	0.224684
551.960252	0.225093
552.174418	0.224942
552.388566	0.225408
552.602696	0.226135
552.816807	0.226177
553.030900	0.226235
553.244975	0.226189
553.459032	0.226116
553.673070	0.226113
553.887091	0.226379
554.101093	0.226734
554.315077	0.226326
554.529042	0.226313
554.742990	0.226501
554.956919	0.226731
555.170830	0.227171
555.384722	0.227330
555.598597	0.227720
555.812453	0.227521
556.026291	0.227377
556.240111	0.228187
556.453913	0.228466
556.667696	0.228486
556.881461	0.228994
557.095208	0.229239
557.308937	0.229754
557.522647	0.229589
557.736339	0.230085
557.950013	0.230385
558.163669	0.229966
558.377307	0.230054
558.590926	0.230221
558.804527	0.230015
559.018110	0.230500
559.231675	0.230288
559.445221	0.230586
559.658749	0.230301
559.872259	0.230580
560.085751	0.230833
560.299225	0.230434
560.512680	0.230563
560.726117	0.230027
560.939536	0.230247
561.152937	0.230093
561.366319	0.230142
561.579683	0.230414
561.793029	0.230724
562.006357	0.231109
562.219667	0.231842
562.432958	0.232418
562.646231	0.232923
562.859486	0.233007
563.072723	0.233069
563.285941	0.233282
563.499141	0.233567
563.712323	0.233362
563.925487	0.233487
564.138632	0.233533
564.351760	0.233068
564.564869	0.233313
564.777960	0.233060
564.991032	0.233078
565.204087	0.233225
565.417123	0.233271
565.630141	0.233568
565.843140	0.233837
566.056122	0.234117
566.269085	0.234562
566.482030	0.234917
566.694957	0.235354
566.907866	0.236069
567.120756	0.236246
567.333628	0.237031
567.546482	0.236909
567.759318	0.236680
567.972135	0.237067
568.184935	0.236974
568.397716	0.237097
568.610478	0.237137
568.823223	0.237275
569.035949	0.237419
569.248657	0.237411
569.461347	0.237487
569.674019	0.237735
569.886672	0.237534
570.099308	0.238120
570.311925	0.238281
570.524523	0.238776
570.737104	0.238947
570.949666	0.239340
571.162210	0.238909
571.374736	0.239203
571.587244	0.239275
571.799733	0.239497
572.012205	0.239398
572.224658	0.239307
572.437092	0.239228
572.649509	0.239185
572.861907	0.239208
573.074287	0.239845
573.286649	0.240206
573.498993	0.240372
573.711318	0.240472
573.923625	0.240811
574.135914	0.241037
574.348185	0.241460
574.560438	0.241658
574.772672	0.241793
574.984888	0.241764
575.197086	0.242426
575.409266	0.242896
575.621427	0.242504
575.833570	0.242630
576.045695	0.242968
576.257802	0.242786
576.469890	0.243342
576.681961	0.243523
576.894013	0.243495
577.106046	0.243060
577.318062	0.243376
577.530059	0.243888
577.742039	0.244035
577.954000	0.243755
578.165942	0.244144
578.377867	0.244176
578.589773	0.244642
578.801661	0.244880
579.013531	0.245312
579.225382	0.245040
579.437216	0.245348
579.649031	0.245278
579.860828	0.245762
580.072606	0.245531
580.284367	0.245546
580.496109	0.245703
580.707833	0.246290
580.919539	0.246137
581.131227	0.246888
581.342896	0.247497
581.554547	0.247391
581.766180	0.247804
581.977795	0.248511
582.189391	0.248566
582.400969	0.248468
582.612529	0.248260
582.824071	0.248529
583.035595	0.248003
583.247100	0.247845
583.458587	0.248470
583.670056	0.248081
583.881506	0.247903
584.092939	0.248368
584.304353	0.248381
584.515749	0.248556
584.727127	0.248611
584.938486	0.249402
585.149828	0.249476
585.361151	0.249493
585.572456	0.249885
585.783742	0.249965
585.995011	0.249895
586.206261	0.250093
586.417493	0.250469
586.628706	0.250807
586.839902	0.250275
587.051079	0.250231
587.262238	0.250723
587.473379	0.251119
587.684502	0.251436
587.895606	0.251680
588.106692	0.251983
588.317760	0.252003
588.528810	0.252065
588.739841	0.252631
588.950855	0.252832
589.161850	0.252654
589.372827	0.252490
589.583785	0.252763
589.794726	0.252710
590.005648	0.253058
590.216552	0.253105
590.427437	0.253201
590.638305	0.253408
590.849154	0.254048
591.059985	0.254227
591.270798	0.254374
591.481592	0.254248
591.692369	0.254689
591.903127	0.254785
592.113867	0.255192
592.324588	0.255457
592.535292	0.255165
592.745977	0.255182
592.956644	0.255316
593.167293	0.256139
593.377923	0.256512
593.588536	0.256205
593.799130	0.256218
594.009706	0.256160
594.220263	0.256231
594.430803	0.256853
594.641324	0.257022
594.851827	0.257537
595.062312	0.257061
595.272778	0.257089
595.483227	0.257570
595.693657	0.257332
595.904069	0.257560
596.114462	0.257986
596.324838	0.257656
596.535195	0.257849
596.745534	0.257982
596.955855	0.258636
597.166157	0.258975
597.376441	0.259250
597.586707	0.260169
597.796955	0.260431
598.007185	0.260470
598.217396	0.260968
598.427589	0.261007
598.637764	0.261254
598.847921	0.260956
599.058060	0.261680
599.268180	0.261619
599.478282	0.261633
599.688366	0.261670
599.898431	0.261944
600.108479	0.261945
600.318508	0.262043
600.528519	0.261681
600.738511	0.261745
600.948486	0.261250
601.158442	0.261599
601.368380	0.261368
601.578300	0.261574
601.788202	0.261562
601.998085	0.261836
602.207950	0.261859
602.417797	0.262264
602.627626	0.262426
602.837436	0.262594
603.047228	0.262397
603.257002	0.262668
603.466758	0.262372
603.676496	0.262393
603.886215	0.262696
604.095916	0.262690
604.305599	0.262595
604.515264	0.263100
604.724910	0.263154
604.934538	0.263348
605.144148	0.263579
605.353740	0.264356
605.563314	0.264789
605.772869	0.264811
605.982406	0.265353
606.191925	0.265934
606.401425	0.266074
606.610908	0.266307
606.820372	0.266724
607.029818	0.267027
607.239246	0.266654
607.448655	0.266786
607.658047	0.266876
607.867420	0.267025
608.076775	0.267154
608.286111	0.267301
608.495430	0.267426
608.704730	0.267591
608.914012	0.267467
609.123275	0.268031
609.332521	0.267605
609.541748	0.267491
609.750957	0.267189
609.960148	0.266847
610.169321	0.266783
610.378475	0.266953
610.587611	0.267312
610.796729	0.267444
611.005829	0.267200
611.214910	0.267519
611.423974	0.268060
611.633019	0.268167
611.842045	0.268300
612.051054	0.268375
612.260044	0.268287
612.469017	0.267823
612.677970	0.267903
612.886906	0.268020
613.095824	0.268414
613.304723	0.268236
613.513604	0.268204
613.722467	0.268469
613.931311	0.268800
614.140138	0.268513
614.348946	0.269056
614.557736	0.268952
614.766507	0.269070
614.975261	0.269319
615.183996	0.269446
615.392713	0.269990
615.601412	0.270205
615.810092	0.269524
616.018754	0.270218
616.227399	0.270117
616.436024	0.270436
616.644632	0.270572
616.853222	0.270457
617.061793	0.270784
617.270346	0.270999
617.478880	0.271399
617.687397	0.271994
617.895895	0.271998
618.104375	0.272106
618.312837	0.272271
618.521281	0.272689
618.729706	0.272648
618.938113	0.272578
619.146502	0.272692
619.354873	0.272270
619.563226	0.272575
619.771560	0.272754
619.979876	0.272546
620.188174	0.272622
620.396453	0.272491
620.604715	0.272789
620.812958	0.273008
621.021183	0.272762
621.229390	0.273185
621.437578	0.273443
621.645748	0.273467
621.853900	0.273912
622.062034	0.274197
622.270150	0.274325
622.478247	0.274565
622.686326	0.274770
622.894387	0.274983
623.102430	0.274860
623.310454	0.274254
623.518461	0.274177
623.726449	0.274083
623.934418	0.274206
624.142370	0.274287
624.350303	0.274262
624.558218	0.274339
624.766115	0.274351
624.973994	0.274509
625.181855	0.275018
625.389697	0.274988
625.597521	0.275521
625.805327	0.275583
626.013114	0.275749
626.220883	0.275823
626.428634	0.275998
626.636367	0.276464
626.844082	0.276640
627.051778	0.277152
627.259457	0.277916
627.467117	0.277871
627.674758	0.278150
627.882382	0.278468
628.089987	0.278636
628.297574	0.278669
628.505143	0.278783
628.712694	0.279228
628.920226	0.279120
629.127740	0.278972
629.335236	0.279507
629.542714	0.279478
629.750174	0.279767
629.957615	0.280128
630.165038	0.280455
630.372443	0.280517
630.579829	0.280462
630.787198	0.280668
630.994548	0.280878
631.201880	0.280755
631.409194	0.280918
631.616489	0.281086
631.823766	0.281048
632.031025	0.281240
632.238266	0.281760
632.445489	0.281808
632.652693	0.281903
632.859879	0.281891
633.067047	0.282130
633.274197	0.282318
633.481329	0.282361
633.688442	0.282408
633.895537	0.282776
634.102614	0.282679
634.309672	0.282883
634.516713	0.283196
634.723735	0.283517
634.930739	0.283652
635.137724	0.283547
635.344692	0.283214
635.551641	0.283521
635.758572	0.283445
635.965485	0.283592
636.172379	0.283702
636.379256	0.283708
636.586114	0.284012
636.792954	0.284261
636.999775	0.284487
637.206579	0.285004
637.413364	0.285336
637.620131	0.285371
637.826880	0.285717
638.033610	0.286200
638.240323	0.286353
638.447017	0.286680
638.653692	0.286631
638.860350	0.287120
639.066990	0.287221
639.273611	0.287295
639.480214	0.287501
639.686798	0.287736
639.893365	0.287943
640.099913	0.288378
640.306443	0.288679
640.512955	0.288958
640.719449	0.289129
640.925924	0.289467
641.132381	0.289567
641.338820	0.289826
641.545241	0.289923
641.751644	0.289941
641.958028	0.289667
642.164394	0.289646
642.370742	0.289750
642.577071	0.289711
642.783383	0.290206
642.989676	0.290707
643.195951	0.290734
643.402207	0.290874
643.608446	0.290943
643.814666	0.291642
644.020868	0.291951
644.227052	0.292309
644.433218	0.292761
644.639365	0.292529
644.845494	0.292412
645.051605	0.292535
645.257698	0.292515
645.463772	0.292811
645.669828	0.292671
645.875866	0.292570
646.081886	0.292539
646.287888	0.292461
646.493871	0.292595
646.699836	0.292662
646.905783	0.292845
647.111712	0.293061
647.317622	0.293215
647.523514	0.293360
647.729388	0.293318
647.935244	0.293579
648.141082	0.293802
648.346901	0.294146
648.552702	0.294350
648.758485	0.294745
648.964250	0.294841
649.169996	0.294911
649.375724	0.295089
649.581434	0.295462
649.787126	0.295632
649.992800	0.295974
650.198455	0.296097
650.404092	0.296285
650.609711	0.296297
650.815311	0.296522
651.020894	0.296854
651.226458	0.297234
651.432004	0.297481
651.637532	0.297762
651.843041	0.297930
652.048532	0.298144
652.254006	0.298647
652.459460	0.298800
652.664897	0.299034
652.870315	0.299133
653.075716	0.299446
653.281097	0.299511
653.486461	0.299708
653.691807	0.299837
653.897134	0.299984
654.102443	0.300080
654.307734	0.300485
654.513006	0.300807
654.718261	0.301280
654.923497	0.301499
655.128715	0.301639
655.333915	0.301665
655.539096	0.302071
655.744259	0.302515
655.949404	0.302759
656.154531	0.302891
656.359640	0.302899
656.564730	0.302768
656.769802	0.302949
656.974856	0.303427
657.179892	0.303957
657.384909	0.304035
657.589908	0.304021
657.794889	0.304146
657.999852	0.304404
658.204797	0.304702
658.409723	0.304682
658.614631	0.305036
658.819521	0.305048
659.024393	0.305056
659.229246	0.304980
659.434081	0.305187
659.638898	0.305253
659.843697	0.305330
660.048478	0.305583
660.253240	0.305925
660.457984	0.305903
660.662710	0.306319
660.867417	0.306510
661.072107	0.306868
661.276778	0.307041
661.481431	0.307299
661.686066	0.307473
661.890682	0.307579
662.095281	0.307935
662.299861	0.307959
662.504422	0.308133
662.708966	0.308196
662.913491	0.308493
663.117999	0.308590
663.322488	0.308639
663.526958	0.309065
663.731411	0.309335
663.935845	0.309652
664.140261	0.310068
664.344659	0.310140
664.549038	0.310537
664.753400	0.310731
664.957743	0.311066
665.162068	0.311372
665.366375	0.311492
665.570663	0.311277
665.774933	0.311516
665.979185	0.311600
666.183419	0.311915
666.387635	0.312079
666.591832	0.312259
666.796011	0.312880
667.000172	0.313255
667.204315	0.313374
667.408439	0.314109
667.612545	0.314463
667.816634	0.314671
668.020703	0.314947
668.224755	0.315398
668.428788	0.315577
668.632803	0.315600
668.836800	0.315995
669.040779	0.316283
669.244739	0.316563
669.448681	0.316734
669.652605	0.317222
669.856511	0.317249
670.060399	0.317282
670.264268	0.317920
670.468119	0.317912
670.671952	0.317968
670.875767	0.318327
671.079563	0.318282
671.283341	0.318376
671.487101	0.318327
671.690843	0.318740
671.894567	0.318673
672.098272	0.318473
672.301959	0.318653
672.505628	0.318688
672.709278	0.318658
672.912911	0.319201
673.116525	0.319569
673.320121	0.319724
673.523699	0.319892
673.727258	0.320444
673.930799	0.320682
674.134322	0.321057
674.337827	0.321400
674.541314	0.321643
674.744782	0.321629
674.948232	0.321497
675.151664	0.321901
675.355078	0.322142
675.558474	0.322311
675.761851	0.322757
675.965210	0.322965
676.168551	0.323296
676.371873	0.323553
676.575178	0.323861
676.778464	0.324053
676.981732	0.324289
677.184981	0.324625
677.388213	0.325037
677.591426	0.324965
677.794621	0.325102
677.997798	0.325278
678.200956	0.325551
678.404097	0.325810
678.607219	0.326305
678.810323	0.326415
679.013408	0.326454
679.216476	0.326305
679.419525	0.326720
679.622556	0.326949
679.825569	0.327133
680.028563	0.327309
680.231540	0.327518
680.434498	0.327762
680.637438	0.328055
680.840359	0.328350
681.043263	0.328570
681.246148	0.328624
681.449015	0.329028
681.651864	0.329069
681.854694	0.329094
682.057506	0.328900
682.260301	0.328677
682.463076	0.328948
682.665834	0.329001
682.868573	0.329185
683.071295	0.329551
683.273998	0.329505
683.476682	0.329892
683.679349	0.330193
683.881997	0.330569
684.084627	0.331163
684.287239	0.331197
684.489833	0.331067
684.692408	0.331196
684.894965	0.331235
685.097504	0.331301
685.300025	0.331303
685.502527	0.331486
685.705012	0.331932
685.907478	0.332022
686.109925	0.331830
686.312355	0.332353
686.514766	0.332697
686.717159	0.332905
686.919534	0.333375
687.121891	0.333710
687.324230	0.333900
687.526550	0.334031
687.728852	0.334396
687.931136	0.335184
688.133401	0.335607
688.335649	0.335799
688.537878	0.336012
688.740089	0.336236
688.942281	0.336465
689.144456	0.336638
689.346612	0.336709
689.548750	0.336690
689.750870	0.336673
689.952971	0.336694
690.155055	0.336966
690.357120	0.337226
690.559167	0.337299
690.761195	0.337405
690.963206	0.337660
691.165198	0.337701
691.367172	0.337994
691.569128	0.337936
691.771065	0.338129
691.972984	0.338058
692.174885	0.338190
692.376768	0.338297
692.578633	0.338209
692.780479	0.338266
692.982308	0.338672
693.184118	0.338653
693.385909	0.338747
