sample name	sample
index	1402
start time	 05-10-2021  11:12:54 AM
880	0.379909
Peak Time (s)	92.036
Peak Height 	0.3799
calc peak height	90,93
Baseline Time (s)	11.537
Baseline Value 	-0.003151
subtract baseline	10,4
Abs	0.261656
Peak Time (s)	92.536
Peak Height 	0.2617
calc peak height	90,93
Baseline Time (s)	10.536
Baseline Value 	6.5773E-4
subtract baseline	10,3
PK_550	0.150691
Peak Time (s)	90.035
Peak Height 	0.1507
calc peak height	90,93
Baseline Time (s)	11.037
Baseline Value 	9.7232E-4
subtract baseline	10,2
PK_880	0.250138
Peak Time (s)	91.035
Peak Height 	0.2501
calc peak height	90,93
Baseline Time (s)	10.036
Baseline Value 	9.7853E-4
subtract baseline	10,1


Time (s)	A880-A510	A880-A775	A880-A975	A880	I510	I775	I975	I880	
0.035000	-0.000231	-0.000830	-0.003406	0.001490	6413.876774	44967.368125	3913.761060	23279.869085
0.536000	-0.002278	-0.000513	-0.004844	0.006579	6355.800746	44508.103662	3897.375393	23041.969642
1.036000	-0.000990	-0.000262	-0.000322	0.003767	6389.047891	44802.244771	3915.802182	23173.060238
1.536500	0.000294	-0.000241	-0.001697	0.000483	6426.470594	45122.158342	3920.652592	23327.290051
2.036500	0.000747	0.000230	-0.005001	0.000501	6430.046333	45166.065920	3912.228053	23326.416962
2.537000	-0.002591	0.000208	0.000981	0.005765	6359.849126	44655.261695	3914.044002	23079.836249
3.037500	0.001318	0.000806	0.001765	-0.000813	6445.622446	45350.253712	3932.828804	23388.442255
3.535000	-0.000294	-0.000096	0.000270	0.000221	6423.783762	45161.636439	3926.339678	23339.621305
4.038000	0.001464	0.000522	0.003748	0.001027	6431.620881	45143.345994	3933.196129	23301.624239
4.535000	-0.002170	-0.000465	0.000809	0.004249	6375.531764	44736.264529	3917.448111	23150.521273
5.035000	0.003443	0.001353	0.002391	0.001313	6445.617900	45196.428669	3928.977206	23288.203193
5.536000	0.002162	0.000255	-0.001672	0.001136	6436.478473	45106.816410	3919.054449	23296.494859
6.036000	0.001359	0.000477	-0.000067	0.000563	6434.588847	45184.084855	3924.604788	23323.515838
6.536000	-0.000905	0.000704	0.003424	0.000839	6413.683785	45179.331366	3932.845863	23310.488039
7.036500	-0.000662	-0.000039	0.004222	0.000412	6419.181958	45148.597478	3936.003677	23330.611916
7.537000	-0.000263	-0.000033	-0.000912	0.000326	6423.175593	45157.582510	3923.051503	23334.675060
8.037000	-0.000829	0.000014	-0.002214	0.000344	6418.368744	45160.368278	3919.689172	23333.799833
8.535000	-0.000038	-0.000151	0.002823	-0.000005	6427.754966	45178.317797	3933.471635	23350.288648
9.035000	-0.000501	-0.000358	0.001628	0.000048	6423.502282	45152.964484	3930.261818	23347.760974
9.535500	0.000799	-0.000263	-0.000924	0.000114	6433.667132	45155.729305	3923.562477	23344.655902
10.036000	0.000000	0.000187	0.000622	0.000256	6425.916132	45185.730435	3927.152460	23337.980979
10.535500	0.001487	0.000067	0.000000	-0.000100	6441.119409	45208.666885	3926.469883	23354.758359
11.036500	0.001209	0.000000	-0.001001	-0.000108	6438.893459	45203.017181	3923.932504	23355.167307
11.536500	-0.001161	0.000576	-0.004176	0.000000	6418.475268	45248.564810	3915.582122	23350.048002
12.037000	0.001340	-0.000321	0.002878	0.000251	6437.001758	45136.835687	3932.954654	23338.184896
12.537500	0.000012	0.000533	-0.000878	0.000347	6425.262754	45210.498979	3923.084261	23333.670452
13.037500	0.001626	-0.000303	0.001858	-0.000702	6447.251047	45231.264020	3932.782292	23383.196432
13.538000	0.000897	-0.000360	0.002240	-0.000637	6440.683528	45219.437044	3933.597037	23380.116840
14.035000	-0.000333	-0.000537	-0.000497	0.001298	6414.611824	45014.262504	3921.630885	23288.871707
14.535500	-0.001304	0.000251	0.000260	0.002091	6400.169042	45013.802961	3921.541184	23251.626084
15.038500	0.001927	-0.000203	0.004199	-0.001036	6452.517544	45273.632513	3939.686597	23399.000044
15.536000	0.000911	-0.000136	-0.001499	-0.000814	6442.264993	45258.459956	3924.462791	23388.496941
16.036500	0.001456	0.000904	0.002156	0.000004	6440.004260	45280.105814	3931.735248	23349.877775
16.536500	-0.003295	-0.000516	-0.001664	0.002992	6376.602001	44852.505806	3914.366778	23209.350531
17.037000	0.001371	-0.000160	0.006311	-0.003764	6470.576778	45544.601843	3952.289194	23528.439180
17.539500	0.001215	0.000970	0.001517	0.001181	6428.306216	45171.995705	3927.074774	23294.407746
18.034500	-0.001313	-0.000190	-0.000477	0.000252	6415.147510	45149.468700	3924.349267	23338.139024
18.535000	0.000471	-0.000304	0.004070	0.000670	6426.384573	45097.821912	3934.945512	23318.447850
19.035500	-0.000084	0.000201	0.002834	0.000956	6419.459732	45119.074732	3931.027572	23304.977778
19.535500	0.000218	0.000544	-0.002713	0.001143	6420.409066	45134.212280	3916.393630	23296.180127
20.036000	0.000453	0.000374	0.002080	0.000849	6424.767336	45146.264954	3929.368268	23310.046362
20.536500	-0.000536	-0.000472	-0.000186	0.000356	6420.677996	45111.925712	3924.829358	23333.250978
21.036500	-0.000712	-0.000519	0.000547	0.000366	6419.148953	45106.481636	3926.677928	23332.779736
21.537000	-0.000742	-0.000091	-0.002068	0.000641	6416.650367	45121.291679	3919.306820	23319.829665
22.037000	-0.002369	-0.000582	0.005788	0.000357	6405.634358	45101.159308	3940.194352	23333.205167
22.534500	0.000111	-0.000378	0.000608	0.000523	6424.632401	45104.950992	3926.431944	23325.400301
23.038000	0.001282	0.000196	0.002412	0.000767	6432.269812	45136.927515	3930.429290	23313.887449
23.535000	0.000160	0.000077	0.000324	0.000451	6425.630502	45156.121848	3925.890536	23328.797482
24.035500	0.001069	0.000179	0.003819	0.000986	6428.706079	45114.010456	3933.485613	23303.579510
24.535500	-0.000484	-0.000021	0.000200	0.000779	6417.636412	45114.733673	3924.734924	23313.341726
25.036000	-0.000340	0.000181	0.003036	0.001005	6416.957638	45112.314265	3931.421492	23302.663224
25.536500	-0.002345	0.000168	0.002602	0.001031	6400.318107	45108.520658	3930.240111	23301.436895
26.036500	0.000115	0.000085	-0.004294	0.000874	6421.779459	45115.765883	3913.073525	23308.856465
26.536500	-0.000767	0.000048	-0.003953	0.001174	6412.065312	45082.995664	3913.175706	23294.716795
27.037000	0.002474	0.000801	0.004839	-0.000330	6451.197745	45302.657905	3939.516509	23365.617162
27.537500	0.001507	-0.000460	0.003408	-0.002091	6457.783991	45351.422464	3940.371361	23448.947905
28.035000	0.000343	0.000703	0.002316	-0.000691	6436.550659	45328.283956	3933.933257	23382.662172
28.535500	-0.000602	0.000458	0.000666	0.003450	6394.796515	44902.328595	3919.115231	23187.889534
29.035500	0.000486	0.000189	0.003224	-0.000247	6434.065414	45234.941080	3935.129665	23361.714172
29.535500	0.001657	0.000535	-0.002791	-0.000480	6445.674325	45291.328374	3920.320057	23372.731234
30.036000	0.002835	0.001477	-0.000494	0.000340	6448.639820	45303.246374	3924.082849	23334.028985
30.536500	-0.000310	0.001020	0.000425	0.003554	6396.334452	44946.703791	3918.240082	23183.059999
31.037000	-0.000462	-0.000081	0.001894	0.001805	6409.389449	45009.344036	3926.439827	23265.034856
31.537000	0.000573	0.000164	-0.001369	-0.000830	6439.592836	45289.236049	3924.836502	23389.234607
32.037500	-0.001324	-0.000097	-0.001953	0.000001	6417.124194	45182.891877	3921.228100	23350.000473
32.537500	0.000561	0.000475	-0.002954	0.004003	6399.784792	44850.679792	3908.560900	23162.052922
33.035500	-0.000430	-0.000158	0.002738	-0.001042	6433.069735	45278.604156	3935.925923	23399.287884
33.535000	0.000300	-0.000039	-0.000532	-0.002159	6448.333142	45399.191399	3930.384897	23452.161087
34.035500	-0.001254	-0.000476	-0.004301	0.001439	6405.913515	45006.545396	3911.628876	23282.276230
34.536000	-0.001045	0.000361	0.005873	0.002446	6399.379841	44990.084407	3935.015762	23234.973778
35.036500	-0.001744	0.000055	-0.000039	0.001676	6399.961477	45035.000263	3921.834507	23271.108103
35.537000	-0.002532	-0.000309	0.000415	0.000969	6399.298860	45068.310647	3924.797961	23304.365484
36.037000	0.000925	0.000053	0.002957	0.002110	6418.274176	44992.782687	3928.381782	23250.726402
36.537500	-0.000230	0.000301	0.002946	0.002128	6408.652226	45015.091355	3928.309656	23249.907609
37.040000	0.001365	0.000879	-0.000878	0.002421	6419.338187	45042.752126	3917.807776	23236.156757
37.535000	0.000568	0.000558	0.004265	0.002009	6416.171204	45051.553098	3932.002646	23255.490330
38.035500	0.000446	0.001215	0.003466	0.002859	6408.202757	45032.860715	3927.770125	23215.603446
38.535500	-0.002451	-0.000089	0.002003	0.001923	6392.175051	44997.210575	3926.418190	23259.517737
39.036000	0.001623	-0.000162	0.001178	0.001874	6425.951607	44994.801311	3924.435370	23261.811654
39.536000	-0.000436	-0.000295	0.002812	0.001772	6409.877654	44991.854464	3928.877280	23266.611653
40.036500	-0.001016	0.000786	0.004642	0.002438	6399.680639	45032.082914	3931.868671	23235.346839
40.537000	-0.000033	0.000046	0.000863	0.001887	6412.237550	45013.741529	3923.599297	23261.207517
41.037000	-0.001210	0.000600	0.003607	0.002288	6399.318376	45028.559280	3929.593218	23242.367357
41.537500	0.000049	0.000554	0.002819	0.002310	6409.441279	45021.968883	3927.518132	23241.337576
42.034500	0.001674	-0.000918	0.003159	0.001688	6427.902599	44939.651415	3929.982404	23270.535310
42.535500	-0.004306	-0.000753	0.006731	0.001680	6379.048658	44956.457927	3939.211463	23270.946720
43.035500	0.000023	0.000374	0.002720	0.002512	6407.572750	44984.993123	3926.746817	23231.859052
43.536000	0.000038	0.000267	0.000379	0.001816	6413.403787	45042.013216	3922.546004	23264.544123
44.036000	0.000178	0.000677	0.003542	0.000334	6426.742686	45225.849828	3934.451890	23334.305727
44.536000	0.001205	0.000813	0.006965	0.000934	6430.258789	45180.693314	3941.750563	23306.030358
45.036500	0.000315	0.000124	0.001016	-0.000084	6431.312424	45212.732515	3929.032583	23354.015454
45.537000	0.001524	0.000588	0.008803	-0.000235	6442.544695	45272.569835	3949.576081	23361.133857
46.037000	-0.001964	0.000735	0.002782	0.000686	6406.258979	45197.266309	3931.589189	23317.722762
46.537500	-0.000575	0.000059	0.007923	0.000051	6422.872522	45193.258065	3946.535836	23347.655781
47.038000	0.000501	0.000098	0.001635	-0.000308	6434.697150	45231.946111	3931.195114	23364.589549
47.535000	-0.000298	0.000017	0.001914	0.001982	6409.291472	45001.709893	3926.041552	23256.748545
48.035500	-0.001636	0.000595	0.001751	0.001234	6404.462686	45130.388387	3927.537515	23291.910392
48.535500	0.000625	-0.000143	0.001968	0.000714	6427.282424	45109.168966	3929.426503	23316.366663
49.036000	0.000116	0.000452	0.002262	-0.000124	6429.999988	45248.547177	3932.337058	23355.918148
49.536500	0.002164	0.001093	0.006344	-0.001663	6459.688094	45461.472608	3946.885430	23428.656236
50.036500	0.000958	0.000704	0.000966	-0.000435	6439.511164	45303.371307	3929.803140	23370.564224
50.537000	0.002901	0.000675	-0.000273	0.001284	6441.368477	45133.171189	3922.237137	23289.536036
51.037500	0.004591	-0.010508	0.015958	0.013691	6353.841651	42902.496064	3932.029689	22714.124876
51.534500	0.018173	-0.018313	0.018192	0.220089	5097.789322	27343.428789	3513.172867	15203.290542
52.035000	0.006568	-0.039341	-0.021712	-0.149675	7977.098880	57413.578870	4306.879870	31781.982536
52.535500	-0.001347	-0.097868	-0.020947	-0.268203	9464.196940	65484.196785	4778.398778	40858.137361
53.035500	0.013881	-0.049634	-0.003190	-0.201552	8725.665092	62887.223917	4569.370475	35451.749739
53.535500	0.015067	-0.041590	0.004278	-0.186571	8541.974448	61937.374027	4539.286865	34346.612105
54.036500	0.017187	-0.021050	0.009993	-0.122036	7780.071956	56253.555076	4320.910728	29998.606643
54.536000	0.012870	-0.019967	0.008794	-0.115619	7659.721812	55602.691519	4294.735590	29600.511045
55.036500	0.011269	-0.021391	0.011745	-0.136661	7879.903167	58036.187804	4378.772732	30928.120750
55.537000	0.028310	-0.015444	0.027444	-0.129118	7991.110722	57834.069482	4408.414034	30444.805682
56.040000	0.039808	-0.002627	0.046782	-0.056014	7311.246173	50719.193357	4222.901032	26171.036743
56.535000	0.050143	0.008342	0.054667	0.013318	6744.606576	44711.050524	4037.186749	22731.178578
57.035500	0.063615	0.016536	0.074935	0.061344	6446.779098	41050.496315	3961.531629	20650.730588
57.536000	0.080946	0.028507	0.094285	0.111940	6181.596228	37807.316590	3881.956159	18694.056649
58.035500	0.096928	0.041947	0.110752	0.140997	6082.801459	36575.828177	3851.477200	17669.218350
58.536000	0.119075	0.055410	0.124477	0.166057	6061.191684	35689.540731	3824.783118	16838.780715
59.036000	0.128936	0.061850	0.145020	0.194570	5926.212685	34066.585486	3806.426131	15950.394646
59.537000	0.144451	0.072395	0.155833	0.225759	5817.185919	32621.671450	3760.996617	15043.162698
60.037000	0.158505	0.077437	0.172363	0.264423	5653.746663	30410.505510	3714.005247	14005.272657
60.540000	0.171103	0.086469	0.183631	0.266389	5723.217368	30861.096150	3733.463003	13954.924936
61.035000	0.182997	0.095689	0.190536	0.282167	5697.641132	30442.600559	3714.894062	13559.012013
61.534500	0.187785	0.097988	0.200627	0.312625	5534.223962	28715.994478	3673.678583	12834.262332
62.035500	0.192079	0.104739	0.207735	0.324656	5486.837699	28404.547417	3664.003463	12561.711899
62.535000	0.194576	0.112490	0.206023	0.319859	5531.488068	29150.940328	3670.051642	12669.465223
63.036000	0.195732	0.114378	0.210354	0.313246	5579.885573	29669.121229	3691.868184	12820.015697
63.551000	0.202397	0.119935	0.221349	0.311392	5633.951513	30129.142289	3718.189380	12862.626917
64.036000	0.202116	0.120978	0.217509	0.311770	5629.733662	30170.798918	3709.461758	12853.926638
64.537000	0.207778	0.124220	0.220147	0.313213	5656.861669	30283.806162	3711.925048	12820.760641
65.037000	0.213429	0.126332	0.224194	0.316202	5674.120090	30228.680052	3714.113659	12752.449072
65.537500	0.215455	0.128018	0.228275	0.319781	5664.037060	30110.006055	3715.152372	12671.235764
66.037500	0.213579	0.127730	0.225940	0.322828	5632.323257	29902.100570	3704.069562	12602.626969
66.535500	0.212895	0.129175	0.226069	0.324135	5619.595986	29910.722006	3701.662991	12573.347541
67.035500	0.218824	0.132069	0.224479	0.328465	5629.810591	29821.654930	3689.662222	12476.969630
67.535500	0.218515	0.133055	0.235747	0.329684	5620.052816	29807.229594	3710.129911	12450.005023
68.036000	0.220547	0.134079	0.236299	0.331573	5620.964501	29753.828606	3707.378032	12408.379990
68.538500	0.222464	0.136926	0.239502	0.334585	5613.990893	29743.633733	3707.772622	12342.378583
69.037000	0.223440	0.137951	0.235213	0.336141	5610.296871	29710.855825	3695.839159	12308.449679
69.542500	0.227817	0.140229	0.246446	0.339038	5619.719754	29672.743228	3712.906285	12245.634410
70.040000	0.231564	0.141630	0.241031	0.341439	5628.318900	29611.276240	3696.895155	12193.875606
70.534500	0.231049	0.142337	0.242226	0.344187	5607.518535	29486.175176	3693.747928	12134.984536
71.034500	0.230997	0.143958	0.245727	0.347276	5587.651939	29396.617501	3694.581969	12069.244436
71.535000	0.234127	0.145201	0.242573	0.350296	5588.346079	29288.581954	3682.169171	12005.408138
72.035500	0.233000	0.144698	0.244014	0.352068	5570.133679	29150.958290	3681.509505	11968.179845
72.538500	0.237167	0.145758	0.246497	0.356108	5570.924165	28971.682887	3678.409839	11883.816586
73.036000	0.237102	0.146589	0.252160	0.359130	5551.655461	28840.666394	3683.673999	11821.227223
73.536500	0.237272	0.146365	0.245017	0.361898	5535.548553	28662.869084	3664.081906	11764.297711
74.036500	0.237471	0.145122	0.247249	0.364115	5523.097722	28458.752903	3664.109483	11718.940274
74.537000	0.239263	0.146483	0.252642	0.365498	5525.615379	28457.486408	3671.983973	11690.772084
75.037500	0.238586	0.145749	0.250459	0.366358	5516.167939	28363.984283	3666.002223	11673.293462
75.535000	0.238579	0.147152	0.250880	0.368668	5501.985095	28310.931601	3662.310798	11626.538331
76.034500	0.239990	0.147135	0.260237	0.369391	5506.184813	28267.717339	3679.317211	11611.945948
76.535500	0.240744	0.147149	0.251903	0.370090	5506.521680	28227.810075	3661.531824	11597.871854
77.035500	0.242130	0.148435	0.257622	0.370687	5511.346910	28267.927655	3671.571789	11585.858584
77.536000	0.241105	0.148416	0.252660	0.370105	5508.639277	28300.836192	3662.977832	11597.567257
78.036500	0.242754	0.148915	0.254278	0.371334	5511.207084	28258.196902	3663.739077	11572.870791
78.537000	0.242543	0.148569	0.253669	0.369754	5519.612301	28330.278554	3665.637669	11604.632174
79.037000	0.243063	0.150767	0.255251	0.370668	5517.191880	28405.458336	3666.947310	11586.256490
79.540000	0.244926	0.151120	0.259732	0.371619	5522.800530	28370.432590	3673.897748	11567.167534
80.035000	0.244087	0.151153	0.258455	0.372271	5513.635707	28334.211138	3670.091525	11554.093863
80.535000	0.245634	0.152437	0.258903	0.371949	5525.123617	28428.289372	3671.608455	11560.542034
81.035500	0.244832	0.151822	0.258340	0.370517	5529.010233	28476.302827	3673.325391	11589.286964
81.535500	0.245988	0.151944	0.257665	0.370418	5536.757973	28489.270907	3672.186906	11591.275506
82.035500	0.243431	0.150888	0.255780	0.371230	5516.002915	28379.614279	3666.882776	11574.969246
82.536500	0.247941	0.153100	0.260936	0.371596	5541.562451	28488.015674	3676.328660	11567.628099
83.036000	0.246522	0.153625	0.263259	0.371783	5531.619988	28507.840462	3680.572146	11563.865763
83.537000	0.245639	0.153598	0.263043	0.372118	5524.112374	28486.570339	3679.474614	11557.152369
84.037500	0.249333	0.153599	0.257070	0.374149	5534.371841	28367.425153	3663.693925	11516.576761
84.537500	0.248715	0.154583	0.254590	0.373443	5534.915729	28466.587859	3660.235421	11530.665321
85.037500	0.248668	0.154575	0.261753	0.373548	5533.977661	28459.940551	3674.078820	11528.564162
85.535000	0.248355	0.154101	0.257849	0.373498	5532.353753	28434.984324	3666.490801	11529.554839
86.035500	0.245712	0.153127	0.254476	0.374979	5507.004055	28291.335294	3657.030406	11500.042884
86.535500	0.250022	0.152453	0.257590	0.374024	5539.404290	28307.725401	3664.953439	11519.057090
87.036000	0.248217	0.151010	0.260341	0.372535	5537.450185	28310.368420	3673.291204	11548.802047
87.536000	0.247526	0.151588	0.255648	0.374034	5523.937171	28256.681913	3661.145048	11518.864453
88.036000	0.248184	0.151968	0.262239	0.376268	5514.251138	28148.813707	3669.672594	11474.426160
88.537000	0.248804	0.152068	0.259492	0.375306	5523.972548	28210.542428	3666.168870	11493.543122
89.040000	0.249508	0.150575	0.260390	0.374627	5532.498372	28163.231187	3669.264026	11507.049716
89.534500	0.250178	0.150234	0.263685	0.374740	5535.943574	28136.886516	3675.544280	11504.800014
90.034500	0.246598	0.150691	0.255639	0.377997	5493.994661	27974.949604	3653.444554	11440.201144
90.535000	0.247895	0.150099	0.256500	0.375495	5517.221624	28085.283819	3659.958331	11489.776639
91.035000	0.250138	0.150441	0.256533	0.376159	5526.940118	28066.660486	3658.734190	11476.599066
91.536000	0.247163	0.150116	0.260727	0.376103	5509.005196	28051.030582	3667.026872	11477.695295
92.036000	0.247042	0.150180	0.257737	0.379909	5485.076930	27835.655769	3653.803013	11402.499951
92.536000	0.248359	0.149264	0.261656	0.376703	5512.653615	27967.226910	3667.672561	11465.797865
93.036500	0.250557	0.150130	0.262620	0.378802	5513.264550	27896.283414	3665.446683	11424.299441
93.553500	0.249475	0.149074	0.263973	0.378085	5511.027138	27876.801712	3669.510079	11438.451805
94.037500	0.247248	0.149515	0.265452	0.384205	5460.380757	27552.853877	3660.429110	11318.395807
94.535000	0.248011	0.148985	0.264588	0.379614	5492.756337	27784.128568	3667.713289	11408.302474
95.035000	0.250822	0.149443	0.256606	0.381192	5500.271560	27720.137562	3649.154865	11377.303396
95.535000	0.247130	0.148534	0.261302	0.381684	5474.859707	27640.336476	3657.265581	11367.647512
96.036000	0.248170	0.147016	0.263726	0.384039	5466.931281	27421.031697	3657.400743	11321.638531
