sample name	sample
index	725
start time	 03-25-2021  11:57:31 AM


Wavelength (nm)	Absorbance
494.344910	0.175197
494.563924	0.175197
494.782919	0.175197
495.001897	0.364728
495.220856	0.043460
495.439797	0.023483
495.658719	-0.019345
495.877624	-0.059556
496.096510	-0.082620
496.315378	-0.065493
496.534227	-0.051783
496.753059	-0.025510
496.971872	0.028055
497.190667	0.080773
497.409444	0.090189
497.628203	0.092507
497.846943	0.094656
498.065665	0.094767
498.284369	0.095776
498.503055	0.095269
498.721723	0.094778
498.940372	0.094272
499.159003	0.093472
499.377616	0.094134
499.596210	0.093545
499.814787	0.093085
500.033345	0.092756
500.251885	0.092948
500.470406	0.093343
500.688910	0.091958
500.907395	0.092816
501.125862	0.094308
501.344311	0.092912
501.562742	0.093667
501.781154	0.093890
501.999548	0.094506
502.217924	0.094633
502.436282	0.094180
502.654621	0.095789
502.872942	0.095624
503.091245	0.094499
503.309530	0.094861
503.527797	0.094853
503.746045	0.095040
503.964275	0.094728
504.182487	0.094105
504.400681	0.094426
504.618856	0.094774
504.837013	0.094001
505.055152	0.094309
505.273273	0.094982
505.491376	0.095152
505.709460	0.095001
505.927526	0.094075
506.145574	0.093765
506.363604	0.093843
506.581615	0.093119
506.799608	0.092965
507.017583	0.092915
507.235540	0.092612
507.453478	0.092966
507.671399	0.092603
507.889301	0.093776
508.107185	0.093897
508.325050	0.093904
508.542898	0.094391
508.760727	0.094478
508.978538	0.094332
509.196330	0.094501
509.414105	0.093913
509.631861	0.093885
509.849599	0.093708
510.067319	0.093869
510.285021	0.094152
510.502704	0.093974
510.720369	0.094531
510.938016	0.094936
511.155645	0.094697
511.373255	0.094818
511.590848	0.095628
511.808422	0.095874
512.025977	0.095640
512.243515	0.094756
512.461034	0.095294
512.678536	0.094443
512.896018	0.095016
513.113483	0.094721
513.330930	0.094936
513.548358	0.094862
513.765768	0.094748
513.983160	0.095290
514.200533	0.095566
514.417889	0.095578
514.635226	0.096613
514.852545	0.095842
515.069845	0.097043
515.287128	0.097187
515.504392	0.097617
515.721638	0.097426
515.938866	0.096927
516.156075	0.097530
516.373267	0.096929
516.590440	0.096498
516.807594	0.096304
517.024731	0.095409
517.241850	0.095213
517.458950	0.094828
517.676032	0.095205
517.893095	0.095288
518.110141	0.095464
518.327168	0.095851
518.544177	0.096359
518.761168	0.096699
518.978141	0.097119
519.195095	0.097061
519.412031	0.096950
519.628949	0.097725
519.845849	0.098308
520.062731	0.098294
520.279594	0.098748
520.496439	0.098850
520.713266	0.099239
520.930074	0.099234
521.146865	0.099547
521.363637	0.099950
521.580391	0.099587
521.797127	0.099516
522.013844	0.099443
522.230543	0.098936
522.447224	0.099432
522.663887	0.099604
522.880532	0.099558
523.097158	0.099703
523.313766	0.099735
523.530356	0.099300
523.746928	0.099584
523.963481	0.099618
524.180017	0.100153
524.396534	0.100241
524.613032	0.100269
524.829513	0.100175
525.045975	0.100048
525.262420	0.099522
525.478845	0.099875
525.695253	0.099592
525.911643	0.099979
526.128014	0.100437
526.344367	0.100016
526.560702	0.099568
526.777018	0.099595
526.993316	0.099556
527.209597	0.100250
527.425858	0.100155
527.642102	0.100572
527.858328	0.100672
528.074535	0.100776
528.290724	0.101424
528.506894	0.102145
528.723047	0.102888
528.939181	0.103629
529.155297	0.103878
529.371395	0.104151
529.587475	0.104326
529.803536	0.104341
530.019579	0.103958
530.235604	0.104030
530.451611	0.104244
530.667600	0.103954
530.883570	0.104067
531.099522	0.104527
531.315456	0.104723
531.531372	0.104903
531.747269	0.104628
531.963148	0.104717
532.179009	0.104494
532.394852	0.104598
532.610676	0.105247
532.826482	0.105329
533.042271	0.105236
533.258040	0.105603
533.473792	0.106039
533.689525	0.106331
533.905240	0.106678
534.120937	0.106923
534.336616	0.107134
534.552277	0.106940
534.767919	0.107247
534.983543	0.107577
535.199149	0.107264
535.414736	0.107307
535.630306	0.108038
535.845857	0.107687
536.061390	0.107965
536.276904	0.108288
536.492401	0.108423
536.707879	0.108287
536.923339	0.108077
537.138781	0.109050
537.354204	0.109100
537.569610	0.108690
537.784997	0.109661
538.000366	0.109632
538.215716	0.109522
538.431049	0.110047
538.646363	0.110406
538.861659	0.110531
539.076937	0.110188
539.292196	0.110344
539.507438	0.110841
539.722661	0.110862
539.937866	0.110551
540.153052	0.110952
540.368221	0.111007
540.583371	0.110928
540.798503	0.111465
541.013617	0.111407
541.228712	0.111389
541.443789	0.111689
541.658848	0.111251
541.873889	0.111698
542.088912	0.111826
542.303916	0.111774
542.518902	0.111878
542.733870	0.111487
542.948820	0.112183
543.163752	0.112225
543.378665	0.111872
543.593560	0.112420
543.808437	0.113197
544.023295	0.113120
544.238136	0.113474
544.452958	0.113584
544.667762	0.113634
544.882548	0.113319
545.097315	0.113514
545.312064	0.113772
545.526795	0.113863
545.741508	0.113623
545.956203	0.113625
546.170879	0.113461
546.385537	0.113420
546.600177	0.113747
546.814799	0.114051
547.029402	0.114427
547.243988	0.114798
547.458555	0.114894
547.673103	0.115053
547.887634	0.114789
548.102146	0.114800
548.316640	0.114750
548.531116	0.114754
548.745574	0.114648
548.960013	0.114480
549.174435	0.114304
549.388838	0.114245
549.603222	0.114301
549.817589	0.115074
550.031937	0.115614
550.246267	0.116368
550.460579	0.116366
550.674873	0.116355
550.889148	0.116432
551.103405	0.116664
551.317644	0.116650
551.531865	0.116182
551.746068	0.115797
551.960252	0.115532
552.174418	0.114972
552.388566	0.115462
552.602696	0.115616
552.816807	0.115924
553.030900	0.115860
553.244975	0.116376
553.459032	0.117222
553.673070	0.117484
553.887091	0.117846
554.101093	0.118345
554.315077	0.118663
554.529042	0.118563
554.742990	0.118408
554.956919	0.118686
555.170830	0.118803
555.384722	0.118450
555.598597	0.118666
555.812453	0.118598
556.026291	0.118843
556.240111	0.118772
556.453913	0.119138
556.667696	0.119577
556.881461	0.119604
557.095208	0.119422
557.308937	0.119660
557.522647	0.119768
557.736339	0.119876
557.950013	0.119595
558.163669	0.119501
558.377307	0.119723
558.590926	0.119901
558.804527	0.119983
559.018110	0.120057
559.231675	0.120094
559.445221	0.120430
559.658749	0.120412
559.872259	0.120710
560.085751	0.121109
560.299225	0.121334
560.512680	0.121084
560.726117	0.121328
560.939536	0.121395
561.152937	0.121425
561.366319	0.121241
561.579683	0.121352
561.793029	0.121544
562.006357	0.121400
562.219667	0.121274
562.432958	0.121190
562.646231	0.121476
562.859486	0.121917
563.072723	0.122219
563.285941	0.122154
563.499141	0.122465
563.712323	0.122784
563.925487	0.123433
564.138632	0.123781
564.351760	0.124322
564.564869	0.124160
564.777960	0.123775
564.991032	0.123891
565.204087	0.124110
565.417123	0.123996
565.630141	0.124002
565.843140	0.123463
566.056122	0.123324
566.269085	0.123355
566.482030	0.123283
566.694957	0.123842
566.907866	0.124048
567.120756	0.124260
567.333628	0.124583
567.546482	0.124564
567.759318	0.124569
567.972135	0.124303
568.184935	0.124257
568.397716	0.124499
568.610478	0.124410
568.823223	0.124388
569.035949	0.124265
569.248657	0.124232
569.461347	0.124474
569.674019	0.124838
569.886672	0.125132
570.099308	0.125337
570.311925	0.125572
570.524523	0.125541
570.737104	0.125679
570.949666	0.125775
571.162210	0.125682
571.374736	0.125495
571.587244	0.125359
571.799733	0.125536
572.012205	0.125299
572.224658	0.125269
572.437092	0.125202
572.649509	0.124883
572.861907	0.125142
573.074287	0.125559
573.286649	0.125524
573.498993	0.125798
573.711318	0.125954
573.923625	0.126105
574.135914	0.126215
574.348185	0.126679
574.560438	0.126770
574.772672	0.126543
574.984888	0.126504
575.197086	0.126753
575.409266	0.126579
575.621427	0.127019
575.833570	0.127302
576.045695	0.127576
576.257802	0.127630
576.469890	0.127816
576.681961	0.128010
576.894013	0.128207
577.106046	0.128151
577.318062	0.128238
577.530059	0.127819
577.742039	0.127988
577.954000	0.127884
578.165942	0.127534
578.377867	0.127605
578.589773	0.127896
578.801661	0.127913
579.013531	0.128259
579.225382	0.128441
579.437216	0.128541
579.649031	0.128613
579.860828	0.128615
580.072606	0.128626
580.284367	0.129039
580.496109	0.129167
580.707833	0.129031
580.919539	0.128742
581.131227	0.128620
581.342896	0.128878
581.554547	0.129317
581.766180	0.129286
581.977795	0.129635
582.189391	0.129562
582.400969	0.129601
582.612529	0.129773
582.824071	0.129956
583.035595	0.130064
583.247100	0.130167
583.458587	0.129691
583.670056	0.129935
583.881506	0.130099
584.092939	0.129753
584.304353	0.129983
584.515749	0.130189
584.727127	0.130167
584.938486	0.130289
585.149828	0.130305
585.361151	0.130303
585.572456	0.130253
585.783742	0.130355
585.995011	0.130854
586.206261	0.130739
586.417493	0.130867
586.628706	0.130991
586.839902	0.131197
587.051079	0.131500
587.262238	0.131700
587.473379	0.131595
587.684502	0.131697
587.895606	0.131828
588.106692	0.131841
588.317760	0.131860
588.528810	0.132492
588.739841	0.132530
588.950855	0.132520
589.161850	0.132705
589.372827	0.133135
589.583785	0.133127
589.794726	0.133181
590.005648	0.133194
590.216552	0.133302
590.427437	0.132898
590.638305	0.133103
590.849154	0.132557
591.059985	0.132625
591.270798	0.132546
591.481592	0.133061
591.692369	0.133097
591.903127	0.133219
592.113867	0.132960
592.324588	0.133083
592.535292	0.133236
592.745977	0.133859
592.956644	0.134082
593.167293	0.134140
593.377923	0.134137
593.588536	0.133984
593.799130	0.133817
594.009706	0.133891
594.220263	0.133818
594.430803	0.133560
594.641324	0.133652
594.851827	0.133445
595.062312	0.133715
595.272778	0.133808
595.483227	0.133958
595.693657	0.134314
595.904069	0.134703
596.114462	0.135072
596.324838	0.135315
596.535195	0.135282
596.745534	0.135152
596.955855	0.134998
597.166157	0.134875
597.376441	0.135165
597.586707	0.135263
597.796955	0.135126
598.007185	0.135262
598.217396	0.135198
598.427589	0.135308
598.637764	0.135973
598.847921	0.136213
599.058060	0.136471
599.268180	0.136386
599.478282	0.136312
599.688366	0.136571
599.898431	0.136615
600.108479	0.136815
600.318508	0.136702
600.528519	0.136377
600.738511	0.136494
600.948486	0.136186
601.158442	0.136528
601.368380	0.136574
601.578300	0.136542
601.788202	0.136621
601.998085	0.136617
602.207950	0.136798
602.417797	0.136893
602.627626	0.136958
602.837436	0.137063
603.047228	0.137174
603.257002	0.137491
603.466758	0.137681
603.676496	0.137578
603.886215	0.137841
604.095916	0.138102
604.305599	0.138408
604.515264	0.138422
604.724910	0.138594
604.934538	0.138544
605.144148	0.138588
605.353740	0.138409
605.563314	0.138752
605.772869	0.138838
605.982406	0.138999
606.191925	0.138813
606.401425	0.138836
606.610908	0.139110
606.820372	0.139343
607.029818	0.139278
607.239246	0.139417
607.448655	0.139212
607.658047	0.139201
607.867420	0.139014
608.076775	0.139212
608.286111	0.139495
608.495430	0.139296
608.704730	0.139144
608.914012	0.139396
609.123275	0.139569
609.332521	0.139773
609.541748	0.140164
609.750957	0.140370
609.960148	0.140536
610.169321	0.140493
610.378475	0.140432
610.587611	0.140702
610.796729	0.140402
611.005829	0.140380
611.214910	0.140185
611.423974	0.139964
611.633019	0.139829
611.842045	0.139577
612.051054	0.139561
612.260044	0.140030
612.469017	0.140015
612.677970	0.140490
612.886906	0.140803
613.095824	0.141014
613.304723	0.141025
613.513604	0.141157
613.722467	0.141463
613.931311	0.141606
614.140138	0.141264
614.348946	0.141162
614.557736	0.141056
614.766507	0.140908
614.975261	0.140857
615.183996	0.140925
615.392713	0.141196
615.601412	0.141315
615.810092	0.141140
616.018754	0.141229
616.227399	0.141544
616.436024	0.141639
616.644632	0.141748
616.853222	0.142118
617.061793	0.142263
617.270346	0.142203
617.478880	0.142153
617.687397	0.142450
617.895895	0.142658
618.104375	0.142548
618.312837	0.142764
618.521281	0.142785
618.729706	0.142679
618.938113	0.142863
619.146502	0.142918
619.354873	0.143001
619.563226	0.143120
619.771560	0.143489
619.979876	0.143344
620.188174	0.143431
620.396453	0.143583
620.604715	0.143967
620.812958	0.143956
621.021183	0.144229
621.229390	0.144425
621.437578	0.144486
621.645748	0.144519
621.853900	0.144748
622.062034	0.144845
622.270150	0.145121
622.478247	0.144825
622.686326	0.144803
622.894387	0.144761
623.102430	0.144836
623.310454	0.145063
623.518461	0.144889
623.726449	0.145117
623.934418	0.145108
624.142370	0.144927
624.350303	0.145214
624.558218	0.145317
624.766115	0.145064
624.973994	0.145223
625.181855	0.145057
625.389697	0.145070
625.597521	0.144917
625.805327	0.144819
626.013114	0.144834
626.220883	0.144776
626.428634	0.144752
626.636367	0.145064
626.844082	0.144765
627.051778	0.144763
627.259457	0.144943
627.467117	0.145196
627.674758	0.145269
627.882382	0.145666
628.089987	0.145779
628.297574	0.145929
628.505143	0.146133
628.712694	0.146406
628.920226	0.146442
629.127740	0.146474
629.335236	0.146425
629.542714	0.146412
629.750174	0.146193
629.957615	0.146314
630.165038	0.146549
630.372443	0.146439
630.579829	0.146325
630.787198	0.146580
630.994548	0.146677
631.201880	0.146640
631.409194	0.146727
631.616489	0.146859
631.823766	0.146641
632.031025	0.146472
632.238266	0.146646
632.445489	0.146825
632.652693	0.146833
632.859879	0.146935
633.067047	0.147222
633.274197	0.147431
633.481329	0.147346
633.688442	0.147678
633.895537	0.147856
634.102614	0.147935
634.309672	0.147997
634.516713	0.148020
634.723735	0.148058
634.930739	0.148129
635.137724	0.148316
635.344692	0.148316
635.551641	0.148378
635.758572	0.148648
635.965485	0.148572
636.172379	0.148674
636.379256	0.148647
636.586114	0.148534
636.792954	0.148572
636.999775	0.148601
637.206579	0.148881
637.413364	0.148965
637.620131	0.148894
637.826880	0.149041
638.033610	0.149031
638.240323	0.149187
638.447017	0.149593
638.653692	0.149530
638.860350	0.149437
639.066990	0.149640
639.273611	0.149624
639.480214	0.149726
639.686798	0.149796
639.893365	0.150103
640.099913	0.150269
640.306443	0.150127
640.512955	0.150506
640.719449	0.150761
640.925924	0.150672
641.132381	0.150767
641.338820	0.150784
641.545241	0.150945
641.751644	0.150979
641.958028	0.151034
642.164394	0.151101
642.370742	0.150931
642.577071	0.150979
642.783383	0.151096
642.989676	0.151306
643.195951	0.151324
643.402207	0.151319
643.608446	0.151355
643.814666	0.151436
644.020868	0.151582
644.227052	0.151747
644.433218	0.151805
644.639365	0.151922
644.845494	0.151897
645.051605	0.151915
645.257698	0.151910
645.463772	0.152056
645.669828	0.152180
645.875866	0.152286
646.081886	0.152420
646.287888	0.152417
646.493871	0.152676
646.699836	0.152671
646.905783	0.152662
647.111712	0.152892
647.317622	0.152742
647.523514	0.152906
647.729388	0.153142
647.935244	0.153335
648.141082	0.153517
648.346901	0.153440
648.552702	0.153595
648.758485	0.153997
648.964250	0.153977
649.169996	0.154279
649.375724	0.154195
649.581434	0.154148
649.787126	0.154087
649.992800	0.154123
650.198455	0.154412
650.404092	0.154590
650.609711	0.154590
650.815311	0.154607
651.020894	0.154632
651.226458	0.154610
651.432004	0.154670
651.637532	0.154668
651.843041	0.154745
652.048532	0.154408
652.254006	0.154491
652.459460	0.154496
652.664897	0.154529
652.870315	0.154488
653.075716	0.154666
653.281097	0.154691
653.486461	0.154710
653.691807	0.154765
653.897134	0.154989
654.102443	0.154821
654.307734	0.155095
654.513006	0.155748
654.718261	0.155876
654.923497	0.156068
655.128715	0.156268
655.333915	0.156419
655.539096	0.156451
655.744259	0.156762
655.949404	0.157227
656.154531	0.157364
656.359640	0.157117
656.564730	0.157479
656.769802	0.157426
656.974856	0.157468
657.179892	0.157801
657.384909	0.157935
657.589908	0.157979
657.794889	0.157750
657.999852	0.157678
658.204797	0.157801
658.409723	0.157805
658.614631	0.158266
658.819521	0.158444
659.024393	0.158572
659.229246	0.159105
659.434081	0.159090
659.638898	0.159425
659.843697	0.159507
660.048478	0.159421
660.253240	0.159461
660.457984	0.159297
660.662710	0.159443
660.867417	0.159294
661.072107	0.158847
661.276778	0.158869
661.481431	0.158954
661.686066	0.158841
661.890682	0.159201
662.095281	0.159169
662.299861	0.159022
662.504422	0.159001
662.708966	0.159057
662.913491	0.159405
663.117999	0.159425
663.322488	0.159485
663.526958	0.159615
663.731411	0.159756
663.935845	0.159972
664.140261	0.160291
664.344659	0.160335
664.549038	0.160382
664.753400	0.160278
664.957743	0.160417
665.162068	0.160400
665.366375	0.160719
665.570663	0.160528
665.774933	0.160707
665.979185	0.160671
666.183419	0.160728
666.387635	0.161051
666.591832	0.161482
666.796011	0.161820
667.000172	0.161927
667.204315	0.162014
667.408439	0.162199
667.612545	0.162045
667.816634	0.162391
668.020703	0.162844
668.224755	0.162826
668.428788	0.162751
668.632803	0.162731
668.836800	0.162886
669.040779	0.163007
669.244739	0.163076
669.448681	0.163323
669.652605	0.163382
669.856511	0.163253
670.060399	0.163302
670.264268	0.163202
670.468119	0.163188
670.671952	0.163438
670.875767	0.163315
671.079563	0.163470
671.283341	0.163452
671.487101	0.163526
671.690843	0.163529
671.894567	0.163639
672.098272	0.164058
672.301959	0.164089
672.505628	0.164145
672.709278	0.164503
672.912911	0.164727
673.116525	0.164800
673.320121	0.164810
673.523699	0.165006
673.727258	0.165258
673.930799	0.165189
674.134322	0.165592
674.337827	0.165530
674.541314	0.165667
674.744782	0.165649
674.948232	0.165885
675.151664	0.166112
675.355078	0.166219
675.558474	0.166105
675.761851	0.166331
675.965210	0.166463
676.168551	0.166632
676.371873	0.166686
676.575178	0.166890
676.778464	0.166931
676.981732	0.167074
677.184981	0.167131
677.388213	0.167409
677.591426	0.167371
677.794621	0.167333
677.997798	0.167583
678.200956	0.167619
678.404097	0.167713
678.607219	0.167901
678.810323	0.167911
679.013408	0.168182
679.216476	0.168550
679.419525	0.168675
679.622556	0.168717
679.825569	0.168665
680.028563	0.168836
680.231540	0.169058
680.434498	0.169146
680.637438	0.169378
680.840359	0.169469
681.043263	0.169080
681.246148	0.169226
681.449015	0.169421
681.651864	0.169660
681.854694	0.169750
682.057506	0.169700
682.260301	0.169923
682.463076	0.169926
682.665834	0.169923
682.868573	0.170404
683.071295	0.170439
683.273998	0.170480
683.476682	0.170557
683.679349	0.170629
683.881997	0.170525
684.084627	0.170468
684.287239	0.170479
684.489833	0.170505
684.692408	0.170441
684.894965	0.170654
685.097504	0.170754
685.300025	0.170889
685.502527	0.170901
685.705012	0.171082
685.907478	0.171094
686.109925	0.170993
686.312355	0.171236
686.514766	0.171534
686.717159	0.171822
686.919534	0.171894
687.121891	0.171986
687.324230	0.172144
687.526550	0.172189
687.728852	0.172378
687.931136	0.172569
688.133401	0.172620
688.335649	0.172467
688.537878	0.172306
688.740089	0.172361
688.942281	0.172404
689.144456	0.172454
689.346612	0.172411
689.548750	0.172245
689.750870	0.172766
689.952971	0.172757
690.155055	0.172818
690.357120	0.173096
690.559167	0.173387
690.761195	0.173451
690.963206	0.173635
691.165198	0.173902
691.367172	0.174130
691.569128	0.173809
691.771065	0.174034
691.972984	0.174147
692.174885	0.174150
692.376768	0.173968
692.578633	0.173848
692.780479	0.173861
692.982308	0.173804
693.184118	0.174005
693.385909	0.174112
