sample name	sample
index	1053
start time	 04-19-2021  02:43:22 PM


Wavelength (nm)	Absorbance
494.344910	0.004905
494.563924	0.004905
494.782919	0.004905
495.001897	0.009635
495.220856	0.021131
495.439797	0.039175
495.658719	0.033782
495.877624	0.053768
496.096510	0.035751
496.315378	0.003679
496.534227	0.012719
496.753059	0.010923
496.971872	0.012157
497.190667	0.104524
497.409444	0.141646
497.628203	0.153286
497.846943	0.153394
498.065665	0.156684
498.284369	0.160590
498.503055	0.162081
498.721723	0.163035
498.940372	0.163286
499.159003	0.165283
499.377616	0.163814
499.596210	0.162202
499.814787	0.163297
500.033345	0.163323
500.251885	0.164175
500.470406	0.164111
500.688910	0.165292
500.907395	0.165148
501.125862	0.164371
501.344311	0.165819
501.562742	0.167164
501.781154	0.167168
501.999548	0.166317
502.217924	0.164369
502.436282	0.163513
502.654621	0.162846
502.872942	0.163857
503.091245	0.164225
503.309530	0.163824
503.527797	0.163319
503.746045	0.162756
503.964275	0.163909
504.182487	0.164638
504.400681	0.165277
504.618856	0.164915
504.837013	0.164808
505.055152	0.166950
505.273273	0.166762
505.491376	0.166870
505.709460	0.167402
505.927526	0.168599
506.145574	0.168434
506.363604	0.168493
506.581615	0.168117
506.799608	0.168072
507.017583	0.165129
507.235540	0.165652
507.453478	0.166662
507.671399	0.167041
507.889301	0.165359
508.107185	0.165337
508.325050	0.165136
508.542898	0.165800
508.760727	0.165865
508.978538	0.168003
509.196330	0.168740
509.414105	0.168507
509.631861	0.168139
509.849599	0.169412
510.067319	0.170932
510.285021	0.171344
510.502704	0.171334
510.720369	0.172002
510.938016	0.172327
511.155645	0.172042
511.373255	0.171156
511.590848	0.171871
511.808422	0.172615
512.025977	0.171720
512.243515	0.172891
512.461034	0.173582
512.678536	0.172775
512.896018	0.172610
513.113483	0.172041
513.330930	0.173726
513.548358	0.174217
513.765768	0.174281
513.983160	0.175160
514.200533	0.174117
514.417889	0.174253
514.635226	0.174499
514.852545	0.174687
515.069845	0.175132
515.287128	0.175066
515.504392	0.174765
515.721638	0.174183
515.938866	0.174816
516.156075	0.175071
516.373267	0.174793
516.590440	0.175288
516.807594	0.175365
517.024731	0.175674
517.241850	0.176105
517.458950	0.176251
517.676032	0.177120
517.893095	0.176429
518.110141	0.176906
518.327168	0.176890
518.544177	0.176874
518.761168	0.177332
518.978141	0.177842
519.195095	0.177575
519.412031	0.177901
519.628949	0.178247
519.845849	0.179301
520.062731	0.180062
520.279594	0.180789
520.496439	0.182166
520.713266	0.181761
520.930074	0.182230
521.146865	0.182371
521.363637	0.183475
521.580391	0.183604
521.797127	0.183347
522.013844	0.182686
522.230543	0.182585
522.447224	0.182518
522.663887	0.183951
522.880532	0.183079
523.097158	0.184140
523.313766	0.184259
523.530356	0.183789
523.746928	0.184074
523.963481	0.184981
524.180017	0.185955
524.396534	0.185959
524.613032	0.185551
524.829513	0.186512
525.045975	0.187063
525.262420	0.187085
525.478845	0.187376
525.695253	0.187931
525.911643	0.188376
526.128014	0.188554
526.344367	0.189125
526.560702	0.189833
526.777018	0.190785
526.993316	0.191019
527.209597	0.191932
527.425858	0.193281
527.642102	0.193445
527.858328	0.194114
528.074535	0.194470
528.290724	0.194486
528.506894	0.194831
528.723047	0.194632
528.939181	0.194335
529.155297	0.194318
529.371395	0.193798
529.587475	0.194124
529.803536	0.194155
530.019579	0.194283
530.235604	0.195395
530.451611	0.195521
530.667600	0.196053
530.883570	0.197411
531.099522	0.197391
531.315456	0.198767
531.531372	0.199028
531.747269	0.199128
531.963148	0.199589
532.179009	0.199813
532.394852	0.200565
532.610676	0.200914
532.826482	0.200992
533.042271	0.201954
533.258040	0.201519
533.473792	0.202090
533.689525	0.202540
533.905240	0.203313
534.120937	0.203475
534.336616	0.203176
534.552277	0.203750
534.767919	0.203619
534.983543	0.203854
535.199149	0.204413
535.414736	0.205365
535.630306	0.205848
535.845857	0.205642
536.061390	0.205976
536.276904	0.206766
536.492401	0.207401
536.707879	0.207551
536.923339	0.207298
537.138781	0.207526
537.354204	0.207382
537.569610	0.207719
537.784997	0.208378
538.000366	0.208316
538.215716	0.208038
538.431049	0.207446
538.646363	0.208151
538.861659	0.208444
539.076937	0.208693
539.292196	0.209084
539.507438	0.209313
539.722661	0.209672
539.937866	0.210268
540.153052	0.210848
540.368221	0.211545
540.583371	0.211754
540.798503	0.213172
541.013617	0.213925
541.228712	0.213843
541.443789	0.214029
541.658848	0.214039
541.873889	0.214096
542.088912	0.214575
542.303916	0.215635
542.518902	0.215506
542.733870	0.214506
542.948820	0.214594
543.163752	0.214801
543.378665	0.215424
543.593560	0.216205
543.808437	0.216906
544.023295	0.217006
544.238136	0.216929
544.452958	0.217907
544.667762	0.218706
544.882548	0.219290
545.097315	0.220028
545.312064	0.219941
545.526795	0.220434
545.741508	0.219960
545.956203	0.220273
546.170879	0.220264
546.385537	0.220051
546.600177	0.220512
546.814799	0.220553
547.029402	0.220871
547.243988	0.221285
547.458555	0.220993
547.673103	0.221851
547.887634	0.222331
548.102146	0.222784
548.316640	0.222885
548.531116	0.223191
548.745574	0.223765
548.960013	0.224080
549.174435	0.224644
549.388838	0.225276
549.603222	0.225777
549.817589	0.225642
550.031937	0.226088
550.246267	0.226596
550.460579	0.226515
550.674873	0.226496
550.889148	0.225938
551.103405	0.225747
551.317644	0.225794
551.531865	0.225513
551.746068	0.226226
551.960252	0.226189
552.174418	0.226652
552.388566	0.226838
552.602696	0.226804
552.816807	0.227335
553.030900	0.227969
553.244975	0.227835
553.459032	0.228061
553.673070	0.228015
553.887091	0.228083
554.101093	0.227853
554.315077	0.228149
554.529042	0.228386
554.742990	0.228984
554.956919	0.229161
555.170830	0.229617
555.384722	0.230045
555.598597	0.229959
555.812453	0.229968
556.026291	0.230263
556.240111	0.230347
556.453913	0.230575
556.667696	0.230487
556.881461	0.230539
557.095208	0.230510
557.308937	0.230599
557.522647	0.231183
557.736339	0.231571
557.950013	0.231767
558.163669	0.231691
558.377307	0.231545
558.590926	0.232024
558.804527	0.232211
559.018110	0.232636
559.231675	0.232890
559.445221	0.232836
559.658749	0.232687
559.872259	0.233382
560.085751	0.234015
560.299225	0.234594
560.512680	0.234867
560.726117	0.235084
560.939536	0.234810
561.152937	0.234901
561.366319	0.235435
561.579683	0.236046
561.793029	0.235939
562.006357	0.235824
562.219667	0.235718
562.432958	0.235345
562.646231	0.234907
562.859486	0.235504
563.072723	0.235233
563.285941	0.234877
563.499141	0.234933
563.712323	0.234755
563.925487	0.235064
564.138632	0.235298
564.351760	0.235724
564.564869	0.236137
564.777960	0.236153
564.991032	0.236842
565.204087	0.237129
565.417123	0.236930
565.630141	0.237169
565.843140	0.237385
566.056122	0.237751
566.269085	0.237560
566.482030	0.237793
566.694957	0.237675
566.907866	0.237324
567.120756	0.237476
567.333628	0.237834
567.546482	0.238134
567.759318	0.238119
567.972135	0.238014
568.184935	0.238202
568.397716	0.238044
568.610478	0.238408
568.823223	0.238607
569.035949	0.238730
569.248657	0.239089
569.461347	0.239125
569.674019	0.239566
569.886672	0.239983
570.099308	0.239720
570.311925	0.240231
570.524523	0.240112
570.737104	0.240241
570.949666	0.240141
571.162210	0.239834
571.374736	0.239497
571.587244	0.239553
571.799733	0.239092
572.012205	0.239676
572.224658	0.240041
572.437092	0.240080
572.649509	0.240455
572.861907	0.240847
573.074287	0.241314
573.286649	0.241930
573.498993	0.241605
573.711318	0.242297
573.923625	0.242496
574.135914	0.242520
574.348185	0.243384
574.560438	0.243670
574.772672	0.243769
574.984888	0.244154
575.197086	0.244331
575.409266	0.244784
575.621427	0.244635
575.833570	0.244672
576.045695	0.244694
576.257802	0.244887
576.469890	0.245232
576.681961	0.245552
576.894013	0.245332
577.106046	0.245914
577.318062	0.246201
577.530059	0.246521
577.742039	0.246690
577.954000	0.247167
578.165942	0.246891
578.377867	0.246701
578.589773	0.246832
578.801661	0.246899
579.013531	0.246572
579.225382	0.246227
579.437216	0.246142
579.649031	0.246560
579.860828	0.246360
580.072606	0.246673
580.284367	0.246608
580.496109	0.246568
580.707833	0.246833
580.919539	0.246931
581.131227	0.247384
581.342896	0.247949
581.554547	0.247973
581.766180	0.248075
581.977795	0.247664
582.189391	0.247765
582.400969	0.248002
582.612529	0.248091
582.824071	0.248343
583.035595	0.248618
583.247100	0.248616
583.458587	0.248821
583.670056	0.248977
583.881506	0.249566
584.092939	0.250153
584.304353	0.250525
584.515749	0.250585
584.727127	0.250760
584.938486	0.250749
585.149828	0.251121
585.361151	0.250891
585.572456	0.251146
585.783742	0.251554
585.995011	0.251426
586.206261	0.251454
586.417493	0.252061
586.628706	0.252124
586.839902	0.252615
587.051079	0.252478
587.262238	0.252970
587.473379	0.252987
587.684502	0.253054
587.895606	0.253239
588.106692	0.253265
588.317760	0.253553
588.528810	0.254208
588.739841	0.254255
588.950855	0.254310
589.161850	0.254711
589.372827	0.255011
589.583785	0.255280
589.794726	0.256046
590.005648	0.256101
590.216552	0.256003
590.427437	0.255701
590.638305	0.255826
590.849154	0.256018
591.059985	0.255731
591.270798	0.255823
591.481592	0.256161
591.692369	0.256180
591.903127	0.256521
592.113867	0.256561
592.324588	0.256737
592.535292	0.257006
592.745977	0.257359
592.956644	0.257698
593.167293	0.258121
593.377923	0.257952
593.588536	0.257678
593.799130	0.258090
594.009706	0.258567
594.220263	0.258453
594.430803	0.258655
594.641324	0.259070
594.851827	0.259131
595.062312	0.259127
595.272778	0.259296
595.483227	0.259556
595.693657	0.259647
595.904069	0.259812
596.114462	0.260322
596.324838	0.260395
596.535195	0.260746
596.745534	0.261239
596.955855	0.261584
597.166157	0.261726
597.376441	0.262056
597.586707	0.262239
597.796955	0.262294
598.007185	0.262804
598.217396	0.263160
598.427589	0.262833
598.637764	0.263065
598.847921	0.263497
599.058060	0.263425
599.268180	0.263489
599.478282	0.263833
599.688366	0.263771
599.898431	0.263515
600.108479	0.263680
600.318508	0.264041
600.528519	0.264173
600.738511	0.264027
600.948486	0.264701
601.158442	0.264880
601.368380	0.264732
601.578300	0.265068
601.788202	0.265622
601.998085	0.265545
602.207950	0.265865
602.417797	0.266029
602.627626	0.266254
602.837436	0.266747
603.047228	0.267028
603.257002	0.267681
603.466758	0.267656
603.676496	0.267925
603.886215	0.267978
604.095916	0.267934
604.305599	0.267959
604.515264	0.267935
604.724910	0.267595
604.934538	0.268116
605.144148	0.267955
605.353740	0.268320
605.563314	0.268312
605.772869	0.268461
605.982406	0.268618
606.191925	0.268786
606.401425	0.269085
606.610908	0.269521
606.820372	0.269383
607.029818	0.269378
607.239246	0.269466
607.448655	0.269427
607.658047	0.269747
607.867420	0.269978
608.076775	0.270194
608.286111	0.270321
608.495430	0.270106
608.704730	0.269884
608.914012	0.270334
609.123275	0.270522
609.332521	0.270710
609.541748	0.271284
609.750957	0.271373
609.960148	0.271481
610.169321	0.271312
610.378475	0.271662
610.587611	0.272055
610.796729	0.272381
611.005829	0.272764
611.214910	0.273035
611.423974	0.273153
611.633019	0.272797
611.842045	0.272703
612.051054	0.273018
612.260044	0.273074
612.469017	0.273200
612.677970	0.272840
612.886906	0.272868
613.095824	0.273169
613.304723	0.272967
613.513604	0.273658
613.722467	0.273904
613.931311	0.274189
614.140138	0.274255
614.348946	0.274537
614.557736	0.274386
614.766507	0.274582
614.975261	0.274600
615.183996	0.274904
615.392713	0.275011
615.601412	0.274793
615.810092	0.275153
616.018754	0.275538
616.227399	0.275764
616.436024	0.276285
616.644632	0.276414
616.853222	0.276247
617.061793	0.276126
617.270346	0.276077
617.478880	0.276871
617.687397	0.276739
617.895895	0.276644
618.104375	0.276641
618.312837	0.276901
618.521281	0.277152
618.729706	0.277488
618.938113	0.277713
619.146502	0.277951
619.354873	0.277856
619.563226	0.278215
619.771560	0.278292
619.979876	0.278358
620.188174	0.278320
620.396453	0.278260
620.604715	0.278697
620.812958	0.278832
621.021183	0.278941
621.229390	0.279227
621.437578	0.279382
621.645748	0.279815
621.853900	0.280123
622.062034	0.280376
622.270150	0.280579
622.478247	0.280579
622.686326	0.281132
622.894387	0.281313
623.102430	0.281467
623.310454	0.281296
623.518461	0.281575
623.726449	0.281856
623.934418	0.282347
624.142370	0.282403
624.350303	0.282523
624.558218	0.282134
624.766115	0.282281
624.973994	0.282118
625.181855	0.282244
625.389697	0.282098
625.597521	0.282033
625.805327	0.281614
626.013114	0.281759
626.220883	0.281763
626.428634	0.281901
626.636367	0.282417
626.844082	0.282904
627.051778	0.283255
627.259457	0.283568
627.467117	0.283912
627.674758	0.284360
627.882382	0.284429
628.089987	0.284813
628.297574	0.285074
628.505143	0.285231
628.712694	0.285250
628.920226	0.285474
629.127740	0.285458
629.335236	0.285545
629.542714	0.285563
629.750174	0.286065
629.957615	0.285996
630.165038	0.286400
630.372443	0.286518
630.579829	0.286936
630.787198	0.286991
630.994548	0.286984
631.201880	0.287178
631.409194	0.287251
631.616489	0.287099
631.823766	0.287454
632.031025	0.287364
632.238266	0.287483
632.445489	0.287444
632.652693	0.287772
632.859879	0.288352
633.067047	0.288302
633.274197	0.288647
633.481329	0.289223
633.688442	0.289411
633.895537	0.289537
634.102614	0.289585
634.309672	0.290028
634.516713	0.289996
634.723735	0.290116
634.930739	0.290475
635.137724	0.290857
635.344692	0.290722
635.551641	0.291046
635.758572	0.291557
635.965485	0.291943
636.172379	0.292050
636.379256	0.292398
636.586114	0.292335
636.792954	0.292631
636.999775	0.292728
637.206579	0.293180
637.413364	0.293059
637.620131	0.293187
637.826880	0.293456
638.033610	0.293646
638.240323	0.293667
638.447017	0.294085
638.653692	0.293976
638.860350	0.294152
639.066990	0.294106
639.273611	0.294244
639.480214	0.294228
639.686798	0.294357
639.893365	0.294699
640.099913	0.294887
640.306443	0.294821
640.512955	0.295127
640.719449	0.295317
640.925924	0.295525
641.132381	0.295899
641.338820	0.296348
641.545241	0.296451
641.751644	0.296396
641.958028	0.296610
642.164394	0.297121
642.370742	0.297311
642.577071	0.297611
642.783383	0.297794
642.989676	0.298044
643.195951	0.297951
643.402207	0.297888
643.608446	0.297919
643.814666	0.298303
644.020868	0.298408
644.227052	0.298692
644.433218	0.298921
644.639365	0.299013
644.845494	0.298995
645.051605	0.299200
645.257698	0.299608
645.463772	0.300078
645.669828	0.300351
645.875866	0.300267
646.081886	0.300431
646.287888	0.300112
646.493871	0.300624
646.699836	0.300878
646.905783	0.301282
647.111712	0.301261
647.317622	0.301531
647.523514	0.301664
647.729388	0.302017
647.935244	0.301913
648.141082	0.302575
648.346901	0.302498
648.552702	0.302793
648.758485	0.302966
648.964250	0.303487
649.169996	0.303390
649.375724	0.303356
649.581434	0.303726
649.787126	0.304184
649.992800	0.304174
650.198455	0.304378
650.404092	0.304250
650.609711	0.304350
650.815311	0.304187
651.020894	0.304318
651.226458	0.304718
651.432004	0.304776
651.637532	0.304911
651.843041	0.305248
652.048532	0.305229
652.254006	0.305368
652.459460	0.305427
652.664897	0.305579
652.870315	0.305890
653.075716	0.306016
653.281097	0.306089
653.486461	0.306380
653.691807	0.306587
653.897134	0.306974
654.102443	0.307383
654.307734	0.307769
654.513006	0.308262
654.718261	0.308374
654.923497	0.308355
655.128715	0.308602
655.333915	0.308766
655.539096	0.309051
655.744259	0.309337
655.949404	0.309575
656.154531	0.310084
656.359640	0.310188
656.564730	0.310294
656.769802	0.310942
656.974856	0.311047
657.179892	0.311418
657.384909	0.311541
657.589908	0.311724
657.794889	0.311907
657.999852	0.311796
658.204797	0.312073
658.409723	0.312578
658.614631	0.312856
658.819521	0.313333
659.024393	0.313341
659.229246	0.313674
659.434081	0.314027
659.638898	0.314544
659.843697	0.314695
660.048478	0.314859
660.253240	0.315107
660.457984	0.315177
660.662710	0.315459
660.867417	0.315721
661.072107	0.315864
661.276778	0.316081
661.481431	0.316201
661.686066	0.316627
661.890682	0.316852
662.095281	0.317166
662.299861	0.317417
662.504422	0.317955
662.708966	0.318226
662.913491	0.318235
663.117999	0.318196
663.322488	0.318274
663.526958	0.318304
663.731411	0.318329
663.935845	0.318226
664.140261	0.318146
664.344659	0.317921
664.549038	0.318049
664.753400	0.318227
664.957743	0.318743
665.162068	0.318982
665.366375	0.319360
665.570663	0.319900
665.774933	0.320280
665.979185	0.320638
666.183419	0.320935
666.387635	0.321547
666.591832	0.321820
666.796011	0.321951
667.000172	0.322128
667.204315	0.322388
667.408439	0.322544
667.612545	0.322842
667.816634	0.323365
668.020703	0.323582
668.224755	0.323508
668.428788	0.323958
668.632803	0.324159
668.836800	0.324283
669.040779	0.324214
669.244739	0.324301
669.448681	0.324379
669.652605	0.324133
669.856511	0.324139
670.060399	0.324384
670.264268	0.324401
670.468119	0.324791
670.671952	0.325320
670.875767	0.325568
671.079563	0.326010
671.283341	0.326462
671.487101	0.326883
671.690843	0.327254
671.894567	0.327457
672.098272	0.327855
672.301959	0.327939
672.505628	0.327917
672.709278	0.328373
672.912911	0.328488
673.116525	0.328615
673.320121	0.328822
673.523699	0.329138
673.727258	0.329338
673.930799	0.329648
674.134322	0.329874
674.337827	0.330336
674.541314	0.330636
674.744782	0.330873
674.948232	0.331215
675.151664	0.331661
675.355078	0.331980
675.558474	0.332337
675.761851	0.332440
675.965210	0.332712
676.168551	0.332731
676.371873	0.332862
676.575178	0.333122
676.778464	0.332968
676.981732	0.333012
677.184981	0.332998
677.388213	0.333320
677.591426	0.333425
677.794621	0.333723
677.997798	0.333989
678.200956	0.334211
678.404097	0.334651
678.607219	0.334932
678.810323	0.335281
679.013408	0.335713
679.216476	0.335855
679.419525	0.336204
679.622556	0.336325
679.825569	0.336640
680.028563	0.336926
680.231540	0.336706
680.434498	0.337130
680.637438	0.337152
680.840359	0.337436
681.043263	0.337738
681.246148	0.338222
681.449015	0.338387
681.651864	0.338515
681.854694	0.338689
682.057506	0.339039
682.260301	0.339173
682.463076	0.339501
682.665834	0.339583
682.868573	0.339680
683.071295	0.339709
683.273998	0.339755
683.476682	0.339978
683.679349	0.339886
683.881997	0.340068
684.084627	0.340422
684.287239	0.340485
684.489833	0.340838
684.692408	0.340867
684.894965	0.340682
685.097504	0.340905
685.300025	0.341102
685.502527	0.341267
685.705012	0.341477
685.907478	0.341571
686.109925	0.341911
686.312355	0.341859
686.514766	0.342303
686.717159	0.342673
686.919534	0.342930
687.121891	0.342973
687.324230	0.343318
687.526550	0.343563
687.728852	0.343745
687.931136	0.343873
688.133401	0.344134
688.335649	0.343975
688.537878	0.344221
688.740089	0.344567
688.942281	0.344873
689.144456	0.345096
689.346612	0.345366
689.548750	0.345384
689.750870	0.345593
689.952971	0.345825
690.155055	0.346321
690.357120	0.346618
690.559167	0.346590
690.761195	0.346978
690.963206	0.347380
691.165198	0.347393
691.367172	0.347581
691.569128	0.347807
691.771065	0.347990
691.972984	0.348052
692.174885	0.348263
692.376768	0.348771
692.578633	0.348959
692.780479	0.348819
692.982308	0.349030
693.184118	0.349402
693.385909	0.349319
