sample name	sample
index	1108
start time	 04-22-2021  12:57:42 PM
880	0.467021
Peak Time (s)	102.038
Peak Height 	0.467
calc peak height	100,103
Baseline Time (s)	11.538
Baseline Value 	-0.006465
subtract baseline	10,4
Abs	0.329593
Peak Time (s)	101.535
Peak Height 	0.3296
calc peak height	100,103
Baseline Time (s)	8.537
Baseline Value 	-8.8347E-4
subtract baseline	10,3
PK_550	0.187733
Peak Time (s)	100.537
Peak Height 	0.1877
calc peak height	100,103
Baseline Time (s)	11.037
Baseline Value 	5.7734E-4
subtract baseline	10,2
PK_880	0.313148
Peak Time (s)	100.537
Peak Height 	0.3131
calc peak height	100,103
Baseline Time (s)	8.537
Baseline Value 	0.003315
subtract baseline	10,1


Time (s)	A880-A510	A880-A775	A880-A975	A880	I510	I775	I975	I880	
0.036500	-0.001725	0.000828	0.000245	0.003904	6261.026985	43196.830185	3903.058726	22620.614796
0.537500	-0.003178	-0.000293	0.003059	0.005167	6240.219653	42976.603976	3906.637210	22563.398285
1.037000	-0.005250	-0.001432	-0.004646	0.007423	6207.342182	42665.098759	3883.872189	22461.651286
1.539500	-0.002314	-0.000891	-0.002681	0.001648	6273.852134	43246.504657	3901.515425	22723.155328
2.038000	-0.000702	-0.000476	-0.002268	0.001663	6286.191055	43283.672331	3902.430010	22722.464582
2.538000	-0.001131	0.000266	0.004131	0.002219	6278.575385	43300.873950	3915.971308	22697.135765
3.036000	-0.003199	-0.000354	0.000213	0.006121	6232.786052	42883.207101	3897.889671	22520.305948
3.536000	-0.001412	-0.000285	0.005694	0.000554	6289.283679	43404.472931	3923.531595	22773.089770
4.036000	-0.002044	0.000124	0.001618	0.000638	6283.737827	43434.727005	3913.800049	22769.245857
4.536500	-0.000041	0.000021	0.007245	0.000828	6297.792950	43407.497452	3926.537498	22760.601104
5.036500	-0.001306	0.000857	0.002865	0.003952	6263.877655	43194.999813	3908.999679	22618.418580
5.537000	0.000306	0.000296	-0.000430	0.000736	6301.206432	43441.704656	3908.818229	22764.802466
6.037500	-0.000944	0.000112	-0.002522	0.001066	6288.939895	43393.767153	3903.219054	22749.697330
6.535000	-0.000198	0.000654	0.002983	0.001241	6293.370301	43427.944455	3915.574307	22741.725330
7.038000	-0.000880	-0.000239	0.005871	-0.000002	6297.720962	43460.555115	3925.257018	22798.528148
7.535500	-0.000980	-0.000280	0.001945	0.000284	6294.727452	43430.136537	3915.387004	22785.432634
8.038000	-0.002340	-0.001404	0.001422	0.002479	6267.254228	43122.102018	3909.069774	22685.319974
8.536500	0.000000	0.000747	0.000000	0.000815	6298.211885	43476.395390	3909.629738	22761.177210
9.036000	-0.001113	-0.000673	-0.002318	-0.000290	6298.150915	43446.954016	3906.820916	22811.700482
9.539500	-0.000383	-0.000413	0.007595	-0.000504	6305.490738	43491.140008	3930.510815	22821.504451
10.037000	0.000680	0.000389	-0.000716	0.000286	6307.620044	43492.376986	3909.197276	22785.366606
10.535000	0.000302	-0.000198	0.000312	0.000004	6306.866813	43463.838256	3912.234595	22798.230373
11.037500	0.000572	0.000000	-0.000295	-0.000256	6311.002053	43506.610371	3911.431951	22810.167273
11.538000	-0.000884	0.000419	0.007260	0.000000	6297.673481	43521.803345	3928.527238	22798.435374
12.035500	-0.002110	-0.000151	-0.002909	0.003273	6262.914734	43164.559079	3897.261868	22649.216117
12.535500	-0.002756	0.000518	0.004854	0.000181	6281.770481	43514.173359	3922.434957	22790.164796
13.036000	0.000088	0.000492	0.001742	0.000461	6301.648440	43485.605844	3914.500959	22777.342540
13.536500	-0.000248	-0.000339	0.001603	0.000486	6298.840311	43405.810892	3914.118693	22776.205763
14.036500	-0.000517	0.000058	0.001917	0.004036	6269.303938	43113.344039	3906.611888	22614.628871
14.541500	0.000010	0.000261	0.006441	0.002971	6281.587027	43230.735959	3919.615686	22662.969857
15.034500	-0.003884	-0.000481	0.001179	0.000311	6272.057125	43408.855701	3913.538968	22784.206366
15.534500	-0.000521	-0.000325	0.005159	0.000481	6296.761401	43407.598692	3922.445854	22776.444210
16.035000	-0.001313	0.000119	0.004577	0.003641	6266.215663	43155.511773	3913.697713	22632.529281
16.541000	0.000190	-0.000097	0.004241	0.000548	6301.760004	43422.557600	3920.134630	22773.356285
17.035500	0.001767	0.000528	0.005716	-0.002490	6337.842849	43765.179691	3930.765131	22912.705545
17.536000	-0.000396	-0.000411	-0.001760	0.000546	6297.224654	43393.466840	3906.177706	22773.451427
18.036000	-0.002963	-0.000534	-0.000773	0.001762	6267.978556	43269.084250	3905.649450	22717.983414
18.536000	-0.000024	-0.000587	0.003251	0.001236	6294.757839	43312.971156	3916.211956	22741.950334
19.036000	0.000356	-0.000901	-0.000931	0.000709	6301.803583	43332.810410	3907.718373	22766.012732
19.538000	0.000087	-0.000003	0.001919	0.001026	6297.252620	43386.832716	3913.599147	22751.551258
20.034500	-0.002266	-0.000400	0.002825	0.002163	6270.256286	43244.410209	3913.062026	22699.727030
20.535000	-0.001342	0.000362	0.003234	0.001653	6281.321161	43362.430240	3915.199769	22722.934533
21.035000	-0.001948	0.000124	0.001556	0.001727	6276.066275	43333.425759	3911.121879	22719.548602
21.535500	-0.001636	-0.000069	-0.003238	0.001181	6282.691306	43366.216870	3901.306777	22744.450727
22.036000	-0.003068	0.001056	0.004781	0.002287	6263.126992	43367.960943	3917.329474	22694.046030
22.536000	-0.000591	0.000722	0.005481	0.002153	6283.259405	43349.433302	3919.280672	22700.142861
23.036500	-0.000502	0.000458	0.005488	0.001978	6285.304816	43341.166946	3919.708624	22708.145152
23.536500	-0.000700	0.000226	0.000897	0.001861	6284.674908	43330.445952	3909.284361	22713.448036
24.034500	-0.002446	0.000359	0.006510	0.002694	6264.780397	43265.447274	3920.424114	22675.544011
24.534500	-0.001024	-0.000334	0.002256	0.001364	6286.017385	43324.664374	3913.594792	22736.120828
25.037500	-0.000687	0.000112	0.004251	0.001711	6285.931315	43333.741984	3917.437215	22720.276010
25.535000	-0.000100	0.000453	0.005874	0.002238	6286.405488	43316.515976	3920.003667	22696.295488
26.038000	-0.003677	0.000121	0.006766	0.002781	6254.658235	43235.385699	3920.821563	22671.593400
26.536000	-0.000774	0.000508	0.000144	0.002004	6283.002086	43343.459315	3907.209723	22706.958020
27.036000	0.000301	0.000321	0.005133	-0.000416	6310.131822	43551.441375	3924.492692	22817.458637
27.536000	0.001973	0.000715	0.003756	0.000391	6316.888082	43512.964323	3919.369031	22780.571633
28.036000	-0.002925	0.000025	0.004497	0.003420	6255.526737	43167.231083	3914.026719	22642.559546
28.536500	-0.003353	0.000015	0.005000	0.000310	6276.161337	43455.157347	3922.473878	22784.254254
29.036500	-0.001389	-0.000133	-0.001437	-0.000428	6297.079542	43510.199209	3909.178875	22818.016872
29.537000	-0.001260	0.000441	0.005169	0.000297	6292.453132	43496.094658	3922.900934	22784.838242
30.034500	-0.002567	0.001002	0.000111	0.003952	6254.199429	43208.546566	3902.638658	22618.436956
30.536000	-0.002491	0.000365	0.002948	0.002746	6264.039616	43261.216756	3911.991760	22673.200969
31.035000	-0.001996	0.000155	-0.000725	0.001603	6276.654631	43347.828920	3906.128784	22725.214556
31.536000	-0.000018	0.000972	0.007819	0.000944	6297.070846	43485.267078	3927.616629	22755.271900
32.038000	-0.002458	0.000889	0.004568	0.000360	6282.695605	43532.126704	3921.344861	22781.989903
32.536500	-0.001658	-0.000002	0.003844	0.000159	6290.436625	43467.743795	3920.118931	22791.171085
33.037000	-0.000007	0.000674	0.005328	0.000534	6300.339462	43495.779971	3922.717160	22774.007500
33.534000	-0.001124	0.000503	0.006444	0.000423	6292.531444	43490.115086	3925.604736	22779.089229
34.037000	-0.003744	0.001380	0.007774	0.004176	6243.473348	43222.737305	3919.915017	22608.277256
34.535000	-0.003878	0.000368	0.002268	0.001691	6261.486681	43359.446185	3912.861795	22721.208237
35.035000	-0.001747	0.000359	-0.001618	0.002093	6274.797170	43321.249396	3902.938057	22702.901558
35.543500	-0.002509	-0.000282	0.007232	0.001743	6271.623566	43294.291060	3924.353777	22718.848414
36.035500	0.001197	0.001085	0.002004	0.002467	6294.679971	43353.953091	3910.446359	22685.862116
36.536000	-0.004544	0.000972	0.003667	0.002758	6248.194720	43316.483822	3913.634986	22672.643392
37.036000	-0.001210	0.000517	0.003564	0.002049	6279.281975	43340.008942	3915.046498	22704.886159
37.536500	-0.000720	0.000695	0.002331	0.002531	6279.344032	43311.819286	3911.057190	22682.957532
38.037000	-0.002043	-0.000096	0.003048	0.001663	6275.823433	43318.937068	3914.741539	22722.466872
38.540000	-0.001345	0.000469	0.004986	0.002172	6277.286269	43324.179544	3918.078101	22699.287943
39.037000	-0.000590	0.000998	0.005353	0.002476	6280.770059	43345.102808	3918.227844	22685.471611
39.537500	-0.000515	0.001543	0.003783	0.002976	6277.485681	43349.266565	3913.396059	22662.716784
40.037500	-0.000470	-0.000177	-0.000279	0.003089	6276.962891	43179.180870	3903.726791	22657.570021
40.535500	-0.002264	0.000331	0.005213	0.001447	6275.790378	43378.774992	3920.308179	22732.343064
41.036000	-0.000146	0.000438	0.001307	0.002046	6287.534273	43332.961272	3909.804802	22705.032649
41.535500	-0.002716	0.000523	-0.002733	0.002104	6267.243457	43335.451396	3900.346817	22702.381314
42.036000	-0.000829	0.000684	0.003935	0.003341	6272.248484	43235.616084	3912.901542	22646.144856
42.536000	-0.000662	0.000558	0.002268	0.002252	6281.949735	43324.986147	3911.559901	22695.668461
43.036500	-0.001417	0.000446	0.005479	0.001762	6279.900025	43360.197106	3920.193157	22717.987654
43.539500	0.001387	0.001255	0.006307	-0.002481	6334.781254	43832.639325	3932.142319	22912.275631
44.035000	-0.002025	-0.000350	-0.002018	0.003289	6263.447604	43144.705672	3899.269717	22648.520084
44.540500	-0.000866	0.000963	0.009923	0.001275	6287.921142	43453.566514	3931.808802	22740.156927
45.035000	-0.000178	0.000127	-0.000358	0.001059	6294.940008	43395.939001	3908.235130	22750.058147
45.535000	-0.000786	0.000672	0.006466	0.001051	6290.278419	43447.336544	3924.177886	22750.394118
46.036000	-0.004018	0.000977	0.005594	0.004545	6238.566594	43151.315387	3913.961583	22591.566957
46.536500	0.001220	0.000780	-0.000122	0.000966	6306.523770	43465.357804	3908.996753	22754.267330
47.036500	-0.000897	0.000679	0.004880	0.003088	6273.670855	43258.589742	3915.692565	22657.617519
47.536500	-0.000019	0.001181	0.004247	0.002617	6284.092431	43348.968943	3915.313673	22679.031767
48.036500	-0.003290	0.000608	0.004196	0.004300	6245.990165	43139.719893	3911.278232	22602.634733
48.543000	0.001885	0.001165	0.003385	0.001184	6310.008400	43480.893591	3916.646673	22744.334887
49.035000	0.000008	0.000462	0.006413	0.000791	6298.452998	43451.974548	3924.663625	22762.251749
49.540500	0.001778	0.000641	0.005094	-0.002362	6336.923160	43763.736315	3928.988705	22906.808056
50.035000	0.000071	0.000452	0.005196	0.013778	6199.534955	42258.617043	3891.782226	22177.867874
50.535500	0.024284	-0.008143	0.021171	0.306340	4690.065489	22610.418988	3425.877073	12741.407554
51.036000	0.016015	-0.005791	-0.004535	0.250319	4895.253207	25435.345263	3463.700166	14092.822413
51.535500	-0.001493	-0.015656	-0.011627	-0.127568	7442.989166	55389.571024	4220.209177	29583.497501
52.037000	-0.009222	-0.070311	-0.010793	-0.256874	8902.647995	65219.969429	4680.540838	38828.599335
52.537000	0.001883	-0.052091	0.003433	-0.233566	8737.010260	64495.122547	4643.752035	36952.554801
53.040000	0.011243	-0.018842	0.014781	-0.172693	8086.910499	60703.731363	4456.113149	32502.374771
53.537000	0.018650	-0.007291	0.027223	-0.125886	7639.193983	56202.393630	4337.931032	29480.452701
54.035000	0.020226	-0.001766	0.029880	-0.105980	7444.361585	54468.778826	4282.047803	28290.834318
54.535000	0.035335	0.006883	0.042138	-0.077260	7304.892197	52142.993880	4230.739838	26667.660117
55.035500	0.050296	0.016834	0.056436	-0.050233	7184.885490	50247.355464	4192.382929	25235.237226
55.535500	0.067419	0.028481	0.072516	-0.017609	7035.500666	48018.128786	4144.177488	23620.755604
56.036000	0.082505	0.038290	0.081314	-0.004063	7050.103927	47632.234662	4130.679173	22985.236646
56.535000	0.097122	0.046114	0.101775	0.023843	6925.778575	45614.179271	4109.805240	21736.826429
57.036500	0.108026	0.057485	0.115536	0.094250	6413.477999	40194.578210	3962.196992	18921.581706
57.536500	0.124895	0.065190	0.131423	0.129524	6268.714545	37905.159425	3915.941855	17673.749849
58.040000	0.140114	0.077104	0.150015	0.182150	5992.731827	34779.418915	3839.569213	15990.697842
58.537000	0.145682	0.080015	0.157175	0.215102	5805.251703	32653.785908	3785.551526	15036.091764
59.037500	0.158595	0.084337	0.166902	0.264046	5575.911454	29755.669800	3709.323962	13745.382049
59.535000	0.163978	0.090082	0.177194	0.270848	5567.261566	29690.579440	3715.832850	13577.254169
60.035500	0.167621	0.095405	0.179177	0.275670	5560.095067	29721.426909	3710.533075	13459.640119
60.536000	0.170777	0.100373	0.189561	0.279443	5556.356774	29795.085788	3722.924458	13368.520572
61.055000	0.180233	0.106408	0.194325	0.275779	5637.077833	30400.858383	3738.997575	13457.010078
61.536500	0.180175	0.108221	0.194064	0.272356	5658.174501	30733.559967	3745.109909	13540.336246
62.036500	0.185677	0.110515	0.199839	0.271991	5695.352286	30904.036320	3757.103328	13549.265829
62.536500	0.185330	0.112836	0.206241	0.275293	5672.168407	30840.993387	3763.224595	13468.794195
63.037500	0.186644	0.117084	0.206246	0.277184	5668.519593	30992.618365	3759.493287	13422.974361
63.534500	0.191306	0.118909	0.206174	0.279524	5683.229280	30959.469061	3754.749499	13366.587350
64.035000	0.195873	0.121922	0.210650	0.282429	5693.804912	30966.402234	3757.836840	13296.963453
64.537500	0.198689	0.124302	0.207912	0.284752	5696.953811	30970.047176	3747.930316	13241.646291
65.035500	0.200260	0.126242	0.211795	0.287527	5689.276775	30916.304328	3750.089095	13175.941958
65.536500	0.205501	0.130858	0.222639	0.290993	5700.597240	30990.361299	3764.607791	13094.457147
66.037000	0.208139	0.132864	0.224081	0.292951	5704.948247	30993.489844	3763.585086	13048.730170
66.536000	0.211894	0.133437	0.227805	0.296782	5704.463056	30784.055343	3763.371636	12959.822031
67.037000	0.211591	0.135971	0.228673	0.296067	5707.094649	30992.864516	3766.514130	12976.342855
67.537000	0.217546	0.138371	0.234098	0.297775	5734.442474	31037.555535	3773.939478	12936.903873
68.035000	0.214801	0.139872	0.231012	0.304801	5671.936928	30682.838436	3753.889758	12776.258130
68.538000	0.222065	0.142469	0.236006	0.305893	5711.254050	30779.019284	3761.569509	12751.505863
69.036000	0.222266	0.142740	0.236912	0.303834	5725.792685	30928.583433	3767.454415	12798.209348
69.535500	0.226970	0.145756	0.239870	0.307509	5732.435009	30886.165300	3766.026223	12715.011385
70.036000	0.229509	0.147104	0.246919	0.309805	5734.011040	30825.363685	3775.527862	12663.410444
70.535500	0.230442	0.148619	0.248877	0.316064	5699.764707	30522.735595	3766.926830	12524.068554
71.036000	0.232664	0.149622	0.247988	0.314625	5723.265591	30678.143651	3768.023312	12555.939881
71.536500	0.237367	0.151667	0.251038	0.317786	5733.217441	30606.981104	3767.801152	12486.093415
72.037000	0.233849	0.150486	0.253211	0.323508	5674.092076	30171.287666	3760.761529	12360.967778
72.537000	0.237678	0.153774	0.250950	0.327147	5675.290725	30149.242196	3749.181052	12282.221600
73.037500	0.241200	0.155379	0.260490	0.325958	5705.296231	30324.670946	3770.355434	12307.883471
73.535000	0.245848	0.156472	0.259049	0.329463	5712.626864	30173.210818	3760.529522	12232.477985
74.036500	0.246940	0.157230	0.260077	0.338625	5661.297560	29651.916754	3744.611932	12038.193949
74.535500	0.246833	0.159266	0.260531	0.342694	5635.108511	29527.316377	3737.634296	11953.218190
75.035500	0.251424	0.159805	0.270996	0.343579	5658.333003	29506.139712	3756.256272	11934.833722
75.536500	0.254730	0.160666	0.273643	0.348015	5651.231427	29288.675558	3752.745782	11843.283062
76.037000	0.256054	0.161813	0.274177	0.353195	5627.132900	29045.452143	3743.701547	11737.555971
76.536500	0.257923	0.160611	0.269363	0.361907	5584.878791	28457.027561	3717.912514	11562.552503
77.037000	0.260859	0.162036	0.277317	0.362834	5597.215489	28486.212823	3731.209256	11544.131550
77.537500	0.261881	0.163399	0.274763	0.367735	5573.446071	28279.241438	3717.109578	11447.417698
78.037500	0.263029	0.163155	0.278786	0.376690	5526.263568	27748.851178	3707.912519	11273.513316
78.535500	0.260790	0.163291	0.276520	0.381350	5485.264830	27492.158245	3695.174243	11184.430680
79.036000	0.268185	0.164899	0.281624	0.381283	5529.640982	27586.894216	3704.666570	11185.703934
79.536000	0.269933	0.165502	0.291951	0.385412	5515.391881	27387.895063	3716.194080	11107.543150
80.036000	0.269521	0.167858	0.291620	0.395994	5450.630098	26929.768920	3696.006564	10910.585997
80.536500	0.273838	0.168491	0.288070	0.400990	5446.686711	26690.339130	3680.549011	10819.265274
81.036500	0.274755	0.167471	0.292464	0.398041	5469.236086	26795.858919	3693.811188	10873.039840
81.536500	0.276362	0.168734	0.295520	0.402038	5455.272467	26646.428640	3692.100346	10800.241231
82.037000	0.279395	0.171123	0.292534	0.411915	5415.703560	26241.727765	3669.061695	10623.172097
82.537500	0.276508	0.170633	0.289996	0.414848	5382.542138	26059.067414	3659.469219	10571.368865
83.035000	0.281304	0.171565	0.300618	0.413852	5415.545255	26161.810993	3679.987619	10588.929423
83.535000	0.281114	0.171690	0.291484	0.416846	5397.348271	26009.119820	3658.580024	10536.278429
84.038000	0.280285	0.172096	0.296207	0.424581	5349.066974	25623.669034	3653.357934	10401.938073
84.535500	0.279712	0.172410	0.295236	0.422686	5356.461097	25739.143405	3654.955699	10434.628077
85.035500	0.284741	0.172443	0.302054	0.425166	5370.773737	25611.229126	3662.506829	10391.863501
85.536500	0.285922	0.174224	0.303304	0.428609	5358.067168	25524.793641	3658.680845	10332.917472
86.037000	0.286226	0.174513	0.303351	0.436292	5317.064082	25144.059650	3645.503429	10203.022432
86.537000	0.287418	0.176217	0.309775	0.435138	5330.028168	25290.433712	3658.578216	10222.385814
87.037500	0.290843	0.176080	0.311007	0.437132	5337.963560	25181.217876	3657.253479	10188.963048
87.535000	0.288989	0.176921	0.309962	0.438624	5319.443988	25147.925840	3652.858529	10164.056860
88.035000	0.289509	0.176431	0.306570	0.446247	5280.597482	24737.599504	3634.072522	10038.125964
88.535500	0.287033	0.175792	0.309583	0.447757	5259.073974	24630.127302	3636.608248	10013.437952
89.035500	0.294974	0.177406	0.311220	0.444594	5319.524968	24869.684736	3644.763444	10065.241757
89.535000	0.295518	0.178056	0.313053	0.446249	5313.404002	24819.026651	3645.066905	10038.079611
90.036000	0.297586	0.178216	0.313360	0.447784	5316.345139	24750.012313	3642.971903	10012.997391
90.536500	0.295588	0.178576	0.306536	0.454008	5271.489528	24457.921286	3621.061666	9912.146371
91.037000	0.300654	0.179804	0.321290	0.450840	5316.409074	24676.519786	3651.327243	9963.295379
91.537000	0.301156	0.178676	0.311720	0.449747	5325.208867	24674.722850	3636.855885	9981.025324
92.037500	0.302898	0.181510	0.319802	0.453008	5316.830627	24653.439506	3645.050896	9928.258307
92.535000	0.300369	0.180303	0.312721	0.457564	5278.118067	24367.653963	3625.424014	9855.185453
93.034500	0.302378	0.181087	0.319685	0.453290	5312.417809	24618.268117	3644.370729	9923.714809
93.535500	0.300927	0.181504	0.319531	0.453974	5300.704795	24604.986722	3642.940643	9912.700397
94.035500	0.297820	0.180576	0.317584	0.458838	5257.493349	24318.377418	3631.421929	9834.880519
94.535500	0.299457	0.181626	0.314849	0.459896	5260.601684	24317.998351	3625.083285	9818.066080
95.036000	0.304744	0.183862	0.332630	0.456857	5305.821435	24578.823272	3660.559228	9866.468787
95.536500	0.305756	0.184134	0.324870	0.457258	5309.169698	24572.375587	3646.449567	9860.055567
96.037000	0.306300	0.183728	0.322688	0.456774	5314.821086	24576.261278	3643.547342	9867.790380
96.534500	0.306601	0.183523	0.326135	0.462374	5285.834284	24289.445063	3639.884562	9778.854928
97.037500	0.308405	0.184753	0.325623	0.457439	5322.759839	24594.225189	3647.431251	9857.176431
97.538000	0.306711	0.183057	0.319948	0.456394	5319.175453	24561.833873	3639.533160	9873.866185
