sample name	sample
index	903
start time	 04-08-2021  03:50:47 PM


Wavelength (nm)	Absorbance
494.344910	-0.428865
494.563924	-0.428865
494.782919	-0.428865
495.001897	0.010465
495.220856	-0.240490
495.439797	0.295978
495.658719	1.533195
495.877624	NaN
496.096510	NaN
496.315378	1.221391
496.534227	NaN
496.753059	NaN
496.971872	0.635060
497.190667	0.196916
497.409444	0.172216
497.628203	0.169716
497.846943	0.168396
498.065665	0.170465
498.284369	0.170080
498.503055	0.169411
498.721723	0.167310
498.940372	0.165954
499.159003	0.165995
499.377616	0.166645
499.596210	0.167186
499.814787	0.167948
500.033345	0.166418
500.251885	0.166186
500.470406	0.165232
500.688910	0.166689
500.907395	0.167802
501.125862	0.167040
501.344311	0.166781
501.562742	0.166007
501.781154	0.166053
501.999548	0.167563
502.217924	0.168466
502.436282	0.169054
502.654621	0.170115
502.872942	0.170137
503.091245	0.170053
503.309530	0.169734
503.527797	0.170212
503.746045	0.169684
503.964275	0.168001
504.182487	0.168172
504.400681	0.168446
504.618856	0.167879
504.837013	0.167823
505.055152	0.167771
505.273273	0.167647
505.491376	0.168236
505.709460	0.168753
505.927526	0.170200
506.145574	0.169776
506.363604	0.169119
506.581615	0.168077
506.799608	0.169005
507.017583	0.170059
507.235540	0.170990
507.453478	0.170400
507.671399	0.171258
507.889301	0.170494
508.107185	0.171359
508.325050	0.172415
508.542898	0.173371
508.760727	0.173093
508.978538	0.172215
509.196330	0.171783
509.414105	0.171998
509.631861	0.171451
509.849599	0.172472
510.067319	0.172010
510.285021	0.173265
510.502704	0.173526
510.720369	0.173890
510.938016	0.175113
511.155645	0.175100
511.373255	0.176181
511.590848	0.176153
511.808422	0.176214
512.025977	0.177320
512.243515	0.176405
512.461034	0.176584
512.678536	0.176758
512.896018	0.177407
513.113483	0.178117
513.330930	0.177688
513.548358	0.178237
513.765768	0.177922
513.983160	0.178070
514.200533	0.178088
514.417889	0.178603
514.635226	0.177610
514.852545	0.177421
515.069845	0.177533
515.287128	0.177872
515.504392	0.178301
515.721638	0.179142
515.938866	0.179027
516.156075	0.180514
516.373267	0.180502
516.590440	0.182253
516.807594	0.182143
517.024731	0.182872
517.241850	0.183437
517.458950	0.184161
517.676032	0.183825
517.893095	0.184010
518.110141	0.183132
518.327168	0.183855
518.544177	0.183921
518.761168	0.184037
518.978141	0.183766
519.195095	0.183602
519.412031	0.182596
519.628949	0.183543
519.845849	0.184118
520.062731	0.184893
520.279594	0.183673
520.496439	0.183820
520.713266	0.183730
520.930074	0.184415
521.146865	0.185258
521.363637	0.186279
521.580391	0.186423
521.797127	0.186325
522.013844	0.186106
522.230543	0.187850
522.447224	0.188840
522.663887	0.189444
522.880532	0.190017
523.097158	0.190409
523.313766	0.190536
523.530356	0.190903
523.746928	0.191087
523.963481	0.191372
524.180017	0.191141
524.396534	0.190604
524.613032	0.191520
524.829513	0.190964
525.045975	0.190871
525.262420	0.191691
525.478845	0.192026
525.695253	0.191879
525.911643	0.192490
526.128014	0.192649
526.344367	0.193301
526.560702	0.192904
526.777018	0.194088
526.993316	0.194239
527.209597	0.194186
527.425858	0.194542
527.642102	0.194904
527.858328	0.194743
528.074535	0.195122
528.290724	0.195141
528.506894	0.195823
528.723047	0.195087
528.939181	0.195371
529.155297	0.195944
529.371395	0.195517
529.587475	0.195971
529.803536	0.196475
530.019579	0.196829
530.235604	0.197166
530.451611	0.197864
530.667600	0.198827
530.883570	0.199795
531.099522	0.199135
531.315456	0.199720
531.531372	0.200625
531.747269	0.200611
531.963148	0.201183
532.179009	0.201067
532.394852	0.200593
532.610676	0.200941
532.826482	0.200668
533.042271	0.202157
533.258040	0.202460
533.473792	0.202252
533.689525	0.203142
533.905240	0.203594
534.120937	0.204292
534.336616	0.204416
534.552277	0.205078
534.767919	0.205457
534.983543	0.204989
535.199149	0.205402
535.414736	0.205506
535.630306	0.205356
535.845857	0.205141
536.061390	0.205718
536.276904	0.206885
536.492401	0.207025
536.707879	0.207658
536.923339	0.208900
537.138781	0.208985
537.354204	0.209918
537.569610	0.210906
537.784997	0.211510
538.000366	0.211749
538.215716	0.212292
538.431049	0.212742
538.646363	0.212590
538.861659	0.212473
539.076937	0.212721
539.292196	0.212983
539.507438	0.212937
539.722661	0.213509
539.937866	0.213507
540.153052	0.213359
540.368221	0.213414
540.583371	0.214249
540.798503	0.214684
541.013617	0.215604
541.228712	0.215511
541.443789	0.215842
541.658848	0.215955
541.873889	0.216174
542.088912	0.216979
542.303916	0.217006
542.518902	0.217360
542.733870	0.217206
542.948820	0.217958
543.163752	0.218625
543.378665	0.218991
543.593560	0.219183
543.808437	0.219760
544.023295	0.219555
544.238136	0.219869
544.452958	0.219687
544.667762	0.220155
544.882548	0.219612
545.097315	0.219863
545.312064	0.220205
545.526795	0.220604
545.741508	0.220911
545.956203	0.221172
546.170879	0.221484
546.385537	0.221616
546.600177	0.221617
546.814799	0.221690
547.029402	0.222171
547.243988	0.222486
547.458555	0.222826
547.673103	0.223092
547.887634	0.223124
548.102146	0.223436
548.316640	0.223721
548.531116	0.223999
548.745574	0.224394
548.960013	0.224157
549.174435	0.224113
549.388838	0.224295
549.603222	0.224322
549.817589	0.224696
550.031937	0.225081
550.246267	0.225882
550.460579	0.226024
550.674873	0.226557
550.889148	0.227226
551.103405	0.227697
551.317644	0.227673
551.531865	0.228077
551.746068	0.228376
551.960252	0.227973
552.174418	0.227759
552.388566	0.228037
552.602696	0.228587
552.816807	0.228681
553.030900	0.229303
553.244975	0.230195
553.459032	0.230607
553.673070	0.230858
553.887091	0.231558
554.101093	0.232003
554.315077	0.232238
554.529042	0.232380
554.742990	0.232794
554.956919	0.232856
555.170830	0.232540
555.384722	0.232684
555.598597	0.233068
555.812453	0.233403
556.026291	0.233528
556.240111	0.234439
556.453913	0.234818
556.667696	0.234523
556.881461	0.234802
557.095208	0.235376
557.308937	0.235460
557.522647	0.235479
557.736339	0.235692
557.950013	0.236256
558.163669	0.236403
558.377307	0.236464
558.590926	0.237133
558.804527	0.237188
559.018110	0.237006
559.231675	0.236816
559.445221	0.237344
559.658749	0.237523
559.872259	0.237186
560.085751	0.237269
560.299225	0.237593
560.512680	0.237477
560.726117	0.237147
560.939536	0.237335
561.152937	0.237745
561.366319	0.237697
561.579683	0.237844
561.793029	0.238171
562.006357	0.238533
562.219667	0.238338
562.432958	0.238852
562.646231	0.239745
562.859486	0.240254
563.072723	0.240864
563.285941	0.240927
563.499141	0.241082
563.712323	0.241413
563.925487	0.241363
564.138632	0.241682
564.351760	0.241654
564.564869	0.241375
564.777960	0.241568
564.991032	0.241559
565.204087	0.241684
565.417123	0.242153
565.630141	0.242312
565.843140	0.242652
566.056122	0.242747
566.269085	0.243089
566.482030	0.243518
566.694957	0.243782
566.907866	0.244329
567.120756	0.244910
567.333628	0.244507
567.546482	0.244356
567.759318	0.244365
567.972135	0.244580
568.184935	0.244592
568.397716	0.244730
568.610478	0.244954
568.823223	0.244835
569.035949	0.244536
569.248657	0.245023
569.461347	0.245815
569.674019	0.246364
569.886672	0.246392
570.099308	0.246562
570.311925	0.246635
570.524523	0.246459
570.737104	0.246553
570.949666	0.246965
571.162210	0.247270
571.374736	0.247310
571.587244	0.246811
571.799733	0.247114
572.012205	0.247069
572.224658	0.247446
572.437092	0.247734
572.649509	0.247898
572.861907	0.248170
573.074287	0.248079
573.286649	0.247992
573.498993	0.248604
573.711318	0.248839
573.923625	0.249254
574.135914	0.249230
574.348185	0.249135
574.560438	0.249179
574.772672	0.249403
574.984888	0.249576
575.197086	0.249798
575.409266	0.249796
575.621427	0.249422
575.833570	0.249389
576.045695	0.249647
576.257802	0.250019
576.469890	0.250494
576.681961	0.250552
576.894013	0.250823
577.106046	0.251181
577.318062	0.251585
577.530059	0.252364
577.742039	0.252700
577.954000	0.252571
578.165942	0.252427
578.377867	0.252020
578.589773	0.252272
578.801661	0.252377
579.013531	0.252531
579.225382	0.252486
579.437216	0.252420
579.649031	0.252645
579.860828	0.253239
580.072606	0.253954
580.284367	0.254267
580.496109	0.254329
580.707833	0.254699
580.919539	0.254225
581.131227	0.254214
581.342896	0.254315
581.554547	0.254293
581.766180	0.254467
581.977795	0.254567
582.189391	0.255250
582.400969	0.255408
582.612529	0.255317
582.824071	0.255787
583.035595	0.256420
583.247100	0.256553
583.458587	0.256656
583.670056	0.256488
583.881506	0.256748
584.092939	0.256641
584.304353	0.256722
584.515749	0.256668
584.727127	0.256806
584.938486	0.256307
585.149828	0.256465
585.361151	0.256936
585.572456	0.257385
585.783742	0.257418
585.995011	0.257627
586.206261	0.257878
586.417493	0.258311
586.628706	0.258491
586.839902	0.258892
587.051079	0.259334
587.262238	0.259527
587.473379	0.259481
587.684502	0.259634
587.895606	0.259976
588.106692	0.260212
588.317760	0.260421
588.528810	0.260907
588.739841	0.261118
588.950855	0.260985
589.161850	0.261143
589.372827	0.261413
589.583785	0.261655
589.794726	0.261634
590.005648	0.261268
590.216552	0.261398
590.427437	0.260856
590.638305	0.260848
590.849154	0.261259
591.059985	0.261363
591.270798	0.261197
591.481592	0.261013
591.692369	0.260747
591.903127	0.261332
592.113867	0.261867
592.324588	0.262494
592.535292	0.262628
592.745977	0.262438
592.956644	0.262620
593.167293	0.262816
593.377923	0.263263
593.588536	0.264024
593.799130	0.264235
594.009706	0.264209
594.220263	0.264467
594.430803	0.264728
594.641324	0.264789
594.851827	0.264993
595.062312	0.265473
595.272778	0.265647
595.483227	0.265605
595.693657	0.265518
595.904069	0.265435
596.114462	0.265717
596.324838	0.265768
596.535195	0.266230
596.745534	0.266109
596.955855	0.266055
597.166157	0.265973
597.376441	0.265929
597.586707	0.265840
597.796955	0.266323
598.007185	0.266031
598.217396	0.266098
598.427589	0.266214
598.637764	0.266710
598.847921	0.266672
599.058060	0.266783
599.268180	0.267069
599.478282	0.267637
599.688366	0.267562
599.898431	0.267735
600.108479	0.268028
600.318508	0.267951
600.528519	0.268008
600.738511	0.268223
600.948486	0.268711
601.158442	0.268857
601.368380	0.269029
601.578300	0.269293
601.788202	0.269680
601.998085	0.269882
602.207950	0.270329
602.417797	0.270277
602.627626	0.270564
602.837436	0.270575
603.047228	0.270838
603.257002	0.270897
603.466758	0.270862
603.676496	0.271130
603.886215	0.271499
604.095916	0.271633
604.305599	0.271874
604.515264	0.272088
604.724910	0.272273
604.934538	0.272266
605.144148	0.272329
605.353740	0.272647
605.563314	0.272656
605.772869	0.272674
605.982406	0.272917
606.191925	0.272992
606.401425	0.273011
606.610908	0.272862
606.820372	0.273146
607.029818	0.273385
607.239246	0.273355
607.448655	0.273497
607.658047	0.273940
607.867420	0.274279
608.076775	0.274307
608.286111	0.274118
608.495430	0.274558
608.704730	0.274769
608.914012	0.274816
609.123275	0.274700
609.332521	0.274574
609.541748	0.274600
609.750957	0.274461
609.960148	0.274665
610.169321	0.275433
610.378475	0.275464
610.587611	0.275351
610.796729	0.275396
611.005829	0.275806
611.214910	0.276314
611.423974	0.276106
611.633019	0.276131
611.842045	0.276216
612.051054	0.276233
612.260044	0.276128
612.469017	0.276228
612.677970	0.276613
612.886906	0.277088
613.095824	0.277132
613.304723	0.277549
613.513604	0.277599
613.722467	0.278093
613.931311	0.277807
614.140138	0.277924
614.348946	0.278174
614.557736	0.278154
614.766507	0.277947
614.975261	0.277848
615.183996	0.277691
615.392713	0.278154
615.601412	0.277607
615.810092	0.278302
616.018754	0.278331
616.227399	0.278546
616.436024	0.278646
616.644632	0.278857
616.853222	0.279060
617.061793	0.279248
617.270346	0.279365
617.478880	0.279479
617.687397	0.279043
617.895895	0.279438
618.104375	0.279582
618.312837	0.279783
618.521281	0.279902
618.729706	0.280128
618.938113	0.280362
619.146502	0.280209
619.354873	0.280802
619.563226	0.281111
619.771560	0.281397
619.979876	0.281389
620.188174	0.281426
620.396453	0.281467
620.604715	0.281475
620.812958	0.281515
621.021183	0.281878
621.229390	0.282029
621.437578	0.282305
621.645748	0.282409
621.853900	0.282208
622.062034	0.282415
622.270150	0.282410
622.478247	0.282842
622.686326	0.282863
622.894387	0.282677
623.102430	0.282508
623.310454	0.282507
623.518461	0.282513
623.726449	0.282979
623.934418	0.283269
624.142370	0.283668
624.350303	0.283951
624.558218	0.284436
624.766115	0.284989
624.973994	0.285268
625.181855	0.285525
625.389697	0.285828
625.597521	0.286078
625.805327	0.285971
626.013114	0.286010
626.220883	0.285911
626.428634	0.285818
626.636367	0.285937
626.844082	0.286162
627.051778	0.286269
627.259457	0.286174
627.467117	0.286120
627.674758	0.286502
627.882382	0.286379
628.089987	0.286575
628.297574	0.286794
628.505143	0.286975
628.712694	0.287243
628.920226	0.287501
629.127740	0.287722
629.335236	0.288023
629.542714	0.288046
629.750174	0.288606
629.957615	0.288800
630.165038	0.288848
630.372443	0.288835
630.579829	0.288623
630.787198	0.288410
630.994548	0.288351
631.201880	0.288393
631.409194	0.288562
631.616489	0.288575
631.823766	0.288278
632.031025	0.288588
632.238266	0.288522
632.445489	0.289000
632.652693	0.289309
632.859879	0.289866
633.067047	0.289885
633.274197	0.289942
633.481329	0.290162
633.688442	0.290856
633.895537	0.290839
634.102614	0.291161
634.309672	0.291255
634.516713	0.291481
634.723735	0.291124
634.930739	0.291246
635.137724	0.291406
635.344692	0.291396
635.551641	0.291379
635.758572	0.291358
635.965485	0.291375
636.172379	0.291731
636.379256	0.292146
636.586114	0.292721
636.792954	0.293105
636.999775	0.293506
637.206579	0.293868
637.413364	0.294181
637.620131	0.294647
637.826880	0.294909
638.033610	0.295184
638.240323	0.295269
638.447017	0.295486
638.653692	0.295766
638.860350	0.295664
639.066990	0.295874
639.273611	0.295909
639.480214	0.295989
639.686798	0.296392
639.893365	0.296392
640.099913	0.296374
640.306443	0.296470
640.512955	0.296869
640.719449	0.297242
640.925924	0.297661
641.132381	0.298088
641.338820	0.298225
641.545241	0.298073
641.751644	0.298250
641.958028	0.298536
642.164394	0.298777
642.370742	0.298455
642.577071	0.298606
642.783383	0.298616
642.989676	0.298351
643.195951	0.298691
643.402207	0.299039
643.608446	0.299029
643.814666	0.299286
644.020868	0.299368
644.227052	0.299626
644.433218	0.299725
644.639365	0.299594
644.845494	0.299925
645.051605	0.300156
645.257698	0.300314
645.463772	0.300442
645.669828	0.300416
645.875866	0.300714
646.081886	0.301099
646.287888	0.301195
646.493871	0.301500
646.699836	0.301648
646.905783	0.301827
647.111712	0.302107
647.317622	0.302438
647.523514	0.302745
647.729388	0.302834
647.935244	0.302645
648.141082	0.302943
648.346901	0.303259
648.552702	0.303619
648.758485	0.303698
648.964250	0.303785
649.169996	0.304151
649.375724	0.304132
649.581434	0.304263
649.787126	0.304710
649.992800	0.304754
650.198455	0.304612
650.404092	0.304617
650.609711	0.304523
650.815311	0.304569
651.020894	0.304542
651.226458	0.304898
651.432004	0.305389
651.637532	0.305410
651.843041	0.305767
652.048532	0.305994
652.254006	0.306123
652.459460	0.306523
652.664897	0.306995
652.870315	0.307335
653.075716	0.307544
653.281097	0.307653
653.486461	0.308171
653.691807	0.308347
653.897134	0.308699
654.102443	0.308970
654.307734	0.309179
654.513006	0.309138
654.718261	0.309151
654.923497	0.309361
655.128715	0.309324
655.333915	0.309415
655.539096	0.309440
655.744259	0.309705
655.949404	0.309973
656.154531	0.310109
656.359640	0.310504
656.564730	0.310893
656.769802	0.311358
656.974856	0.311505
657.179892	0.311776
657.384909	0.312255
657.589908	0.312318
657.794889	0.312436
657.999852	0.312901
658.204797	0.312986
658.409723	0.313115
658.614631	0.313040
658.819521	0.313418
659.024393	0.313735
659.229246	0.313803
659.434081	0.314000
659.638898	0.314494
659.843697	0.314792
660.048478	0.315042
660.253240	0.315101
660.457984	0.315491
660.662710	0.315623
660.867417	0.315530
661.072107	0.315779
661.276778	0.316241
661.481431	0.316209
661.686066	0.316302
661.890682	0.316610
662.095281	0.317271
662.299861	0.317327
662.504422	0.317710
662.708966	0.318271
662.913491	0.318609
663.117999	0.318785
663.322488	0.319154
663.526958	0.319524
663.731411	0.319597
663.935845	0.319532
664.140261	0.319817
664.344659	0.320088
664.549038	0.320094
664.753400	0.320242
664.957743	0.320447
665.162068	0.320330
665.366375	0.320235
665.570663	0.320643
665.774933	0.321064
665.979185	0.321119
666.183419	0.321052
666.387635	0.321254
666.591832	0.321535
666.796011	0.321575
667.000172	0.321993
667.204315	0.322426
667.408439	0.322298
667.612545	0.322412
667.816634	0.322753
668.020703	0.322924
668.224755	0.323152
668.428788	0.323454
668.632803	0.323993
668.836800	0.324258
669.040779	0.324522
669.244739	0.325117
669.448681	0.325350
669.652605	0.325725
669.856511	0.326249
670.060399	0.326507
670.264268	0.326611
670.468119	0.326577
670.671952	0.326917
670.875767	0.327263
671.079563	0.327468
671.283341	0.327735
671.487101	0.327911
671.690843	0.328132
671.894567	0.328261
672.098272	0.328553
672.301959	0.328958
672.505628	0.329345
672.709278	0.329368
672.912911	0.329759
673.116525	0.330029
673.320121	0.330223
673.523699	0.330576
673.727258	0.331013
673.930799	0.331148
674.134322	0.331230
674.337827	0.331342
674.541314	0.331442
674.744782	0.331330
674.948232	0.331460
675.151664	0.331770
675.355078	0.331853
675.558474	0.332206
675.761851	0.332611
675.965210	0.333002
676.168551	0.333140
676.371873	0.333359
676.575178	0.333784
676.778464	0.333800
676.981732	0.334200
677.184981	0.334504
677.388213	0.334680
677.591426	0.334706
677.794621	0.335208
677.997798	0.335317
678.200956	0.335647
678.404097	0.335880
678.607219	0.336390
678.810323	0.336336
679.013408	0.336604
679.216476	0.336958
679.419525	0.337293
679.622556	0.337086
679.825569	0.337516
680.028563	0.337930
680.231540	0.337911
680.434498	0.337933
680.637438	0.338247
680.840359	0.338411
681.043263	0.338433
681.246148	0.338598
681.449015	0.339108
681.651864	0.339261
681.854694	0.339398
682.057506	0.339774
682.260301	0.340035
682.463076	0.340293
682.665834	0.340365
682.868573	0.340528
683.071295	0.340869
683.273998	0.341038
683.476682	0.341380
683.679349	0.341624
683.881997	0.342166
684.084627	0.342506
684.287239	0.342513
684.489833	0.342874
684.692408	0.342929
684.894965	0.342943
685.097504	0.343157
685.300025	0.343460
685.502527	0.343507
685.705012	0.343425
685.907478	0.343341
686.109925	0.343743
686.312355	0.343964
686.514766	0.344558
686.717159	0.345032
686.919534	0.345185
687.121891	0.345318
687.324230	0.345583
687.526550	0.346026
687.728852	0.346463
687.931136	0.346679
688.133401	0.347029
688.335649	0.346893
688.537878	0.346865
688.740089	0.347197
688.942281	0.347365
689.144456	0.347456
689.346612	0.347603
689.548750	0.347915
689.750870	0.347835
689.952971	0.347748
690.155055	0.348382
690.357120	0.348591
690.559167	0.348683
690.761195	0.348998
690.963206	0.349458
691.165198	0.349441
691.367172	0.349599
691.569128	0.350079
691.771065	0.350203
691.972984	0.350099
692.174885	0.350432
692.376768	0.350602
692.578633	0.350669
692.780479	0.350627
692.982308	0.350669
693.184118	0.350848
693.385909	0.350822
693.587683	0.351396
