sample name	sample
index	1155
start time	 04-22-2021  03:43:59 PM
880	0.243684
Peak Time (s)	101.035
Peak Height 	0.2437
calc peak height	100,103
Baseline Time (s)	9.037
Baseline Value 	-0.004895
subtract baseline	10,4
Abs	0.149443
Peak Time (s)	101.035
Peak Height 	0.1494
calc peak height	100,103
Baseline Time (s)	11.036
Baseline Value 	0.005258
subtract baseline	10,3
PK_550	0.098897
Peak Time (s)	101.035
Peak Height 	0.0989
calc peak height	100,103
Baseline Time (s)	11.036
Baseline Value 	1.8077E-4
subtract baseline	10,2
PK_880	0.147974
Peak Time (s)	101.035
Peak Height 	0.148
calc peak height	100,103
Baseline Time (s)	11.036
Baseline Value 	0.001391
subtract baseline	10,1


Time (s)	A880-A510	A880-A775	A880-A975	A880	I510	I775	I975	I880	
0.037500	-0.001932	-0.000668	-0.004610	0.001414	6246.421155	43187.616636	3911.838420	22677.574873
0.538000	-0.000713	0.000302	0.000949	0.004350	6233.417542	43006.117420	3917.828656	22544.661784
1.035000	-0.002906	-0.000069	-0.002152	0.003887	6220.361260	43014.599988	3911.804233	22565.556871
1.535500	-0.003027	-0.000008	-0.007928	0.007265	6194.124878	42710.142204	3891.185820	22413.558463
2.036000	0.001603	0.000346	-0.004929	0.001223	6274.813771	43299.094756	3911.547128	22686.220527
2.536500	-0.000605	0.000079	-0.002092	0.000830	6260.948574	43310.870335	3918.925741	22704.110588
3.039500	0.002444	0.000561	0.001010	-0.001458	6301.886144	43568.731966	3931.359884	22808.463715
3.537000	-0.004025	-0.000010	-0.008459	0.005274	6201.554822	42892.400527	3894.447176	22503.027967
4.037000	0.002124	0.000523	-0.001327	0.000747	6282.447624	43359.808626	3920.868746	22707.863026
4.534500	-0.000544	0.000418	0.002431	0.000102	6266.970179	43410.028409	3931.037798	22737.254718
5.034500	0.000755	0.000274	-0.002314	0.000165	6276.421028	43390.760888	3919.940786	22734.376813
5.535000	0.002371	0.000304	-0.002173	0.000291	6287.852810	43381.874404	3919.976625	22728.656379
6.035500	-0.000155	0.000509	-0.002491	0.000521	6266.743296	43379.515165	3918.717403	22718.157217
6.535500	0.002431	0.000832	-0.001262	0.000680	6285.327642	43394.802255	3921.173567	22710.937867
7.036000	0.001898	-0.000295	-0.000851	0.000091	6285.753148	43344.714402	3923.473137	22737.740670
7.539000	0.001876	0.000460	0.000901	0.000106	6285.469544	43413.577751	3927.482896	22737.080038
8.036500	0.000281	0.000555	-0.004708	0.000507	6270.175059	43385.058027	3913.681256	22718.783349
8.536500	0.004405	0.000540	-0.001062	0.000493	6301.954624	43384.909234	3922.062830	22719.421749
9.037500	-0.000053	0.000403	0.003432	0.000000	6271.502614	43418.110559	3933.598982	22741.896039
9.535000	-0.000917	-0.000308	-0.000267	-0.000378	6267.789124	43387.124185	3925.902706	22759.140269
10.034500	0.002047	-0.000050	-0.003243	-0.000313	6290.000002	43405.079673	3918.905464	22756.144599
10.535000	-0.000410	0.001322	0.000318	0.000831	6262.426825	43426.218656	3924.461139	22704.044439
11.035500	0.000000	0.000000	0.000000	0.000353	6269.206554	43347.792116	3924.831235	22725.801096
11.536000	0.000181	-0.000359	0.000703	-0.000051	6273.683306	43351.953236	3927.389046	22744.215825
12.036500	0.000561	0.000904	-0.001125	0.000732	6270.597402	43396.546531	3921.368909	22708.553918
12.536500	-0.002267	-0.000050	0.001886	0.000238	6252.804628	43353.900540	3929.458055	22731.055490
13.036500	0.002130	0.000727	-0.002762	0.001864	6273.937660	43275.050620	3915.024258	22657.112045
13.537000	-0.001837	0.000175	-0.005395	0.001628	6245.511693	43245.763514	3909.566632	22667.837893
14.037500	-0.001810	0.000376	-0.003088	0.003016	6235.204151	43135.900506	3911.655764	22604.909098
14.534500	0.000247	0.000565	-0.001027	0.003175	6249.591102	43138.693836	3915.995200	22597.735291
15.037500	-0.000406	-0.000027	-0.000191	0.002325	6251.088030	43162.577461	3919.855285	22636.212024
15.535500	-0.000843	0.000875	-0.000599	0.003519	6238.716203	43135.565127	3916.186032	22582.184538
16.035500	0.000957	0.001062	-0.000073	0.001719	6266.080975	43319.550622	3921.517068	22663.699159
16.536000	0.001591	0.001013	0.000993	0.001499	6272.608474	43335.442790	3924.478490	22673.683553
17.039000	0.002154	0.000167	0.003682	-0.000460	6291.952970	43438.874154	3935.252279	22762.848851
17.536500	-0.001400	0.000653	-0.001876	0.001821	6247.364016	43272.159108	3917.149384	22659.076009
18.036000	-0.001023	0.000149	-0.001351	0.001647	6251.550888	43241.592818	3918.751658	22666.986671
18.537000	-0.000113	0.000337	-0.000151	0.001950	6256.168355	43230.998277	3920.809616	22653.247014
19.034500	0.001212	0.000516	0.000818	0.002610	6261.229164	43186.430306	3921.517739	22623.309116
19.535000	0.001812	0.000298	-0.001452	0.001886	6271.346335	43233.252249	3917.972839	22656.145343
20.034500	-0.000808	0.000599	-0.005035	0.002096	6249.771492	43241.668642	3909.321250	22646.612730
20.535500	0.002785	0.000497	0.002903	0.002651	6272.933681	43180.866386	3926.228408	22621.462497
21.038000	-0.000225	-0.000029	0.002568	0.002138	6253.885586	43179.744729	3926.640282	22644.721049
21.536000	0.003396	0.000770	-0.004909	0.002425	6279.342303	43227.123939	3908.861814	22631.702515
22.036000	-0.001413	0.000466	-0.002010	0.001742	6247.873911	43262.179934	3917.024446	22662.688540
22.537500	0.000073	0.000680	-0.003779	0.001649	6259.879227	43290.692041	3913.195536	22666.894263
23.036500	-0.001236	0.000718	-0.006194	0.002698	6241.958040	43196.982823	3905.331184	22619.319224
23.534500	-0.000987	0.000811	-0.001324	0.002092	6248.446901	43261.751794	3917.793954	22646.799714
24.043000	0.001899	0.001046	-0.002787	0.002360	6268.385237	43258.666573	3913.836112	22634.645332
24.535500	-0.001182	0.000313	-0.005411	0.001398	6252.232626	43279.930599	3910.053489	22678.289228
25.035000	0.001640	0.001952	0.005629	0.002466	6265.596081	43332.825022	3932.974484	22629.835411
25.536000	0.000006	0.001549	-0.000022	0.002153	6255.528812	43324.528087	3920.638546	22644.015752
26.035500	0.002696	0.000786	-0.001221	0.001850	6278.378541	43281.787961	3918.582912	22657.755829
26.539000	-0.001065	0.001557	-0.001983	0.002028	6248.333756	43336.840059	3916.432017	22649.685678
27.036500	-0.000048	0.000413	-0.001994	0.001638	6259.040666	43266.920001	3917.299797	22667.410659
27.537000	0.000471	0.001494	0.002112	0.000578	6271.086447	43465.810352	3929.191930	22715.554762
28.038000	-0.000177	0.001052	-0.002123	0.000425	6267.305169	43438.966111	3919.783607	22722.538850
28.540500	0.001886	0.000326	0.002083	0.000137	6285.315686	43398.254221	3930.148895	22735.668206
29.038000	-0.000943	-0.000132	0.002644	0.000007	6264.656431	43367.754857	3931.752978	22741.590717
29.535000	0.001699	-0.000111	-0.001737	0.000703	6279.532871	43304.951317	3920.030126	22709.866819
30.035500	0.000904	0.000655	-0.004179	0.000655	6273.818734	43380.675366	3914.550931	22712.090080
30.536000	-0.001140	0.000697	-0.000840	0.003112	6239.547550	43156.723995	3916.566732	22600.580378
31.036500	0.000891	0.000953	-0.001033	0.002902	6256.564809	43199.865931	3916.604224	22610.093377
31.536500	0.000368	0.000654	-0.002553	0.000971	6267.296473	43351.115229	3917.544509	22697.676220
32.036500	0.001717	0.000710	-0.001018	0.000552	6280.830436	43395.287397	3922.028799	22716.749655
32.537000	0.002985	0.000523	-0.001598	0.000196	6293.305576	43410.964414	3921.513987	22732.952494
33.037000	0.002828	0.000533	0.000221	0.000032	6293.360074	43427.214812	3926.083623	22740.436014
33.534500	0.004235	0.000931	0.001761	-0.001156	6313.387394	43575.090916	3932.402126	22794.637485
34.035000	0.001527	-0.000193	-0.003260	0.001467	6272.373092	43226.658372	3914.795332	22675.178589
34.538000	0.000762	0.000646	0.002403	0.001893	6263.270326	43264.936131	3926.825708	22655.831634
35.036000	-0.001501	0.000774	-0.000426	0.001583	6248.404459	43305.481906	3921.020812	22669.884458
35.538500	-0.000119	0.001022	0.002300	0.002587	6251.277462	43235.384564	3924.984059	22624.344672
36.039000	-0.000969	0.000823	0.000100	0.002238	6247.476075	43249.340871	3920.724339	22640.190245
36.536500	0.000295	0.000763	-0.001078	0.001460	6263.010339	43315.913407	3919.806381	22675.479153
37.036500	-0.001051	0.000061	-0.002973	0.001632	6251.456815	43234.836543	3915.073696	22667.677503
37.537500	-0.000776	-0.000039	-0.001759	0.000532	6261.913768	43327.575936	3920.370768	22717.651323
38.035000	-0.001048	-0.000217	0.002074	0.001031	6256.051208	43264.834104	3928.056080	22694.975577
38.535000	-0.000208	0.000113	-0.005037	0.000867	6263.695436	43310.581191	3912.111447	22702.419724
39.034500	-0.000487	0.000184	-0.001567	0.001779	6254.623946	43232.635765	3917.952854	22660.977344
39.535000	0.000339	0.000712	-0.002586	0.001063	6266.376982	43348.020724	3917.259001	22693.500398
40.036000	-0.000148	0.000465	-0.000888	0.001350	6260.468521	43298.406769	3920.493692	22680.474194
40.539000	-0.001181	0.000877	-0.002755	0.001646	6250.364394	43309.274981	3915.540946	22667.051675
41.036500	-0.000032	0.000429	-0.005956	0.001901	6257.153066	43244.007026	3907.674271	22655.435470
41.539500	-0.000932	0.000267	0.002814	0.001687	6251.941067	43248.809166	3928.252179	22665.173260
42.036500	0.000013	0.000668	-0.002889	0.002243	6254.898509	43234.567303	3913.872622	22639.966356
42.537500	-0.000886	0.000699	-0.001966	0.001543	6253.381768	43302.250016	3917.579969	22671.714503
43.035000	0.000762	0.000295	-0.002668	0.001920	6263.069629	43229.911337	3915.114647	22654.611232
43.534500	0.002621	0.000414	0.007295	0.001886	6277.533805	43244.014148	3938.208296	22656.119504
44.034500	0.001937	0.000373	0.001477	-0.003354	6312.619043	43728.554708	3936.860269	22895.343787
44.536000	0.000709	0.000722	-0.000317	0.000443	6273.946060	43406.592135	3923.893360	22721.723036
45.041500	-0.000736	0.000100	-0.001880	0.002140	6249.982862	43191.393452	3916.410156	22644.614596
45.538500	0.001263	0.000881	0.005619	0.001891	6267.108968	43286.897483	3934.289530	22655.925333
46.036500	0.000078	0.000217	-0.003817	0.000089	6271.822287	43392.541308	3916.671392	22737.827992
46.536000	0.002164	0.000593	-0.003246	0.000661	6283.414103	43374.214590	3916.667863	22711.776273
47.036500	0.001048	-0.000268	-0.001136	0.001192	6270.807141	43245.132290	3920.288504	22687.664636
47.537000	0.000749	0.001005	-0.005492	0.002359	6259.619338	43254.920831	3907.688920	22634.689974
48.038000	-0.000725	0.000240	-0.000484	0.000608	6261.733180	43346.487846	3923.131065	22714.227907
48.535000	0.002622	-0.000511	-0.000631	-0.000907	6299.003853	43417.385493	3926.283182	22783.254733
49.038500	0.000717	0.000180	0.003539	0.000933	6270.255001	43310.721634	3931.678907	22699.431004
49.535500	0.002981	0.000955	0.004092	-0.001015	6302.604938	43564.190698	3937.503100	22788.210128
50.039000	0.003736	0.001472	0.004187	-0.000944	6307.892236	43605.787890	3937.559303	22784.949088
50.536000	0.009724	0.002119	0.001521	0.033268	6096.650352	40586.475196	3854.986726	21282.482971
51.036500	0.022551	-0.018505	-0.017681	0.631848	3767.280630	12040.204685	3147.910205	7570.653696
51.537000	0.004583	-0.016107	-0.039172	0.041828	5998.948201	38338.874833	3755.089987	20924.674232
52.037000	-0.026805	-0.074200	-0.052586	-0.253057	8542.451931	63953.115058	4513.659676	38393.460580
52.537500	0.004306	-0.123812	-0.015317	-0.313798	9859.455811	65535.000000	4916.302590	43713.892061
53.035000	-0.007731	-0.083258	-0.013026	-0.267193	8986.818208	64669.692874	4722.968356	39566.039369
53.538500	-0.002471	-0.072946	-0.012182	-0.256658	8913.952599	64638.158993	4683.253436	38688.548321
54.035500	-0.002613	-0.058683	-0.012405	-0.238258	8664.707315	64053.794529	4609.379923	37206.038146
54.535000	-0.006306	-0.064335	-0.016340	-0.248067	8745.744588	64640.997111	4632.336689	37988.525965
55.036000	-0.007786	-0.045665	-0.015093	-0.218138	8341.433100	63063.660286	4523.112928	35655.278785
55.536500	-0.004205	-0.039277	-0.008761	-0.206170	8238.331051	62297.029333	4502.486408	34766.319857
56.036500	-0.000263	-0.029961	-0.005605	-0.186084	8045.377013	60844.806021	4442.104532	33328.349616
56.537000	0.000301	-0.016159	-0.004579	-0.140516	7543.875494	56765.601607	4294.055044	30302.564470
57.039500	0.004353	-0.008635	-0.003516	-0.100872	7182.459683	52933.220285	4177.527721	27916.338773
57.534500	0.010821	-0.004058	-0.002341	-0.073454	6983.163182	50375.453546	4103.980892	26388.937025
58.035000	0.013195	0.000738	0.007764	-0.046225	6758.860272	47990.956014	4058.332815	24964.558623
58.535500	0.019017	0.003566	0.009998	-0.018482	6571.419527	45483.013858	3993.581671	23602.286130
59.035500	0.025463	0.008016	0.009611	-0.003633	6502.035831	44478.068216	3956.684455	22908.132567
59.539000	0.031995	0.013673	0.023511	0.052257	6120.511571	39948.617916	3861.446245	20498.205710
60.036000	0.035236	0.015824	0.023982	0.055205	6122.655255	39880.975029	3856.111904	20379.512066
60.536500	0.042213	0.019866	0.033584	0.064137	6108.407093	39468.068132	3857.550545	20024.699149
61.036500	0.048889	0.025022	0.035640	0.075549	6074.164862	38946.658801	3837.638981	19581.913872
61.537000	0.052066	0.029277	0.047970	0.110584	5853.240848	36487.831286	3791.062497	18292.957047
62.034000	0.061299	0.032897	0.055870	0.128716	5794.368355	35387.602477	3770.855890	17665.593966
62.534500	0.064634	0.037836	0.068206	0.122763	5855.834989	36209.912651	3807.313225	17868.683687
63.035000	0.076441	0.043332	0.074148	0.138948	5826.698133	35402.749235	3786.704883	17322.968457
63.538500	0.084006	0.046354	0.092304	0.158601	5747.752074	34185.729299	3783.734664	16687.094578
64.036000	0.083396	0.049367	0.087443	0.173932	5646.944602	33313.891029	3744.643484	16210.647271
64.536000	0.093579	0.052491	0.089554	0.182176	5659.018545	32958.810774	3733.125889	15961.335027
65.036000	0.098057	0.056533	0.090229	0.198129	5588.391831	32148.559262	3705.131721	15492.094528
65.536500	0.096264	0.056870	0.100967	0.212336	5492.984901	31232.627121	3698.909838	15088.456514
66.037000	0.095756	0.059176	0.095890	0.238531	5341.377684	29722.138095	3645.022201	14378.020008
66.537000	0.102076	0.063635	0.106882	0.242392	5354.952558	29758.928954	3656.971276	14276.872060
67.037500	0.101694	0.067170	0.101473	0.240651	5362.489471	30085.913597	3650.801173	14322.379416
67.537500	0.102999	0.067651	0.108478	0.229909	5430.328017	30794.699560	3681.147070	14607.147907
68.035500	0.105035	0.069930	0.105976	0.226052	5464.203045	31190.085537	3683.515323	14711.135283
68.535500	0.105420	0.070183	0.111281	0.220998	5495.873418	31536.470765	3701.865545	14848.767512
69.039000	0.105718	0.071947	0.108419	0.223604	5482.387974	31481.273041	3692.124618	14777.590670
69.536000	0.107878	0.074430	0.114122	0.215171	5544.900684	32206.008686	3717.562472	15009.493931
70.036500	0.110901	0.076028	0.114812	0.212394	5579.771538	32501.583887	3723.928761	15086.835709
70.537000	0.112712	0.077289	0.117546	0.209931	5605.778418	32755.560339	3733.568265	15155.862298
71.037000	0.113733	0.078837	0.114401	0.213458	5590.499102	32620.247502	3721.213168	15057.134127
71.537500	0.114077	0.080036	0.114805	0.209815	5614.847191	32952.264963	3728.684650	15159.118166
72.034500	0.114186	0.081355	0.125643	0.210035	5614.165948	33028.176073	3748.620106	15152.949107
72.535000	0.116016	0.080984	0.122183	0.209942	5625.982473	33008.919136	3742.245262	15155.554753
73.035000	0.114671	0.080283	0.112206	0.214341	5590.831620	32658.693683	3715.577845	15032.547184
73.537500	0.118805	0.082703	0.121854	0.211831	5631.531882	32997.172780	3738.073212	15102.584331
74.036500	0.120688	0.084581	0.122367	0.212970	5636.136552	33048.340854	3736.900696	15070.769492
74.536000	0.119212	0.083766	0.122529	0.211177	5638.095400	33115.986708	3740.570173	15120.901114
75.037000	0.117605	0.085280	0.117726	0.215583	5601.144746	32916.235773	3723.422366	14998.063742
75.537000	0.122881	0.085964	0.126705	0.211886	5656.468377	33219.377331	3747.121734	15101.041857
76.037500	0.121957	0.086680	0.129724	0.211584	5652.601622	33290.340640	3753.447140	15109.510907
76.534000	0.122025	0.086621	0.122954	0.211201	5655.408665	33312.940338	3741.326460	15120.238351
77.035000	0.121970	0.088653	0.126764	0.216626	5621.491195	33077.103524	3738.290725	14969.168563
77.535000	0.122889	0.089533	0.131062	0.213858	5644.261328	33330.688018	3751.657562	15045.989493
78.035500	0.123058	0.089271	0.130246	0.213270	5648.958984	33353.482323	3751.222622	15062.384823
78.536000	0.126437	0.091028	0.127239	0.215162	5658.217041	33344.050364	3741.936980	15009.735357
79.036000	0.123334	0.091550	0.131846	0.220735	5604.658279	32993.252721	3740.117503	14855.973656
79.536500	0.126749	0.092140	0.134408	0.217725	5644.219330	33242.873246	3750.665808	14938.786048
80.036500	0.127748	0.092987	0.131816	0.219316	5640.551741	33191.079184	3742.735114	14894.951745
80.537000	0.127809	0.092338	0.133201	0.219734	5638.340565	33117.056198	3744.561667	14883.462539
81.037000	0.126039	0.092666	0.130793	0.226442	5586.383279	32677.962248	3727.502064	14700.571872
81.535000	0.126866	0.092851	0.130772	0.222577	5615.010783	32955.941289	3734.649807	14805.588755
82.035000	0.130753	0.092267	0.131047	0.224215	5628.843618	32803.123224	3732.109192	14760.967303
82.535500	0.129230	0.090726	0.137431	0.224094	5620.214086	32705.850253	3744.314925	14764.268654
83.038000	0.126978	0.091324	0.136521	0.229108	5575.919211	32405.434734	3733.190802	14628.659496
83.535500	0.129883	0.090656	0.133033	0.226397	5610.094543	32544.105714	3731.744948	14701.795581
84.036000	0.129101	0.090680	0.132937	0.225981	5607.851004	32574.020565	3732.340752	14713.055391
84.536500	0.130913	0.091434	0.135622	0.225915	5619.366039	32629.875312	3737.481248	14714.842512
85.036500	0.129981	0.092013	0.128624	0.232869	5571.346755	32198.244171	3711.738951	14527.973861
85.537500	0.134201	0.093163	0.137217	0.228316	5624.822610	32584.059907	3735.971687	14649.986751
86.037500	0.134217	0.093386	0.141085	0.228222	5625.495899	32605.621756	3743.418673	14652.498845
86.534500	0.131067	0.093629	0.142308	0.229489	5598.430986	32535.927853	3743.335875	14618.411177
87.035000	0.133588	0.095110	0.132669	0.236395	5571.836195	32169.442060	3712.681938	14434.355847
87.535500	0.135120	0.093526	0.138328	0.229870	5620.915834	32503.058592	3735.142671	14608.195225
88.036000	0.135403	0.094177	0.130959	0.230621	5618.037841	32496.224004	3720.103534	14588.034466
88.536000	0.136638	0.094999	0.147685	0.231314	5621.367724	32505.081666	3750.071141	14569.498933
89.036500	0.134294	0.094176	0.132202	0.236433	5575.863873	32104.191152	3711.763670	14433.342943
89.537000	0.139532	0.095003	0.148017	0.231594	5637.489553	32486.318879	3750.169414	14562.005339
90.037000	0.137195	0.096188	0.142301	0.232840	5615.419193	32482.143293	3737.019713	14528.740947
90.534500	0.137087	0.095948	0.145544	0.232741	5615.359458	32472.591510	3743.306577	14531.374776
91.034500	0.136195	0.095369	0.138759	0.238238	5576.450599	32063.284693	3720.439978	14385.736828
91.535500	0.139627	0.095735	0.139467	0.233845	5624.188353	32383.395178	3729.859421	14501.983053
92.034500	0.141003	0.096185	0.143558	0.234009	5631.660591	32402.720744	3737.185378	14497.617512
92.538000	0.143027	0.096939	0.145876	0.234995	5638.075439	32387.078627	3739.684886	14471.439666
93.036000	0.137734	0.094968	0.141095	0.239666	5577.121417	31941.176034	3722.108973	14348.199966
93.536000	0.140755	0.096796	0.144825	0.236073	5617.426263	32304.589332	3735.693615	14442.882835
94.036500	0.143224	0.097831	0.146094	0.237415	5624.352785	32283.828795	3735.554321	14407.402972
94.536500	0.142195	0.096098	0.140440	0.236417	5624.159894	32234.323843	3726.893644	14433.768253
95.037000	0.138245	0.095889	0.141782	0.242818	5561.192676	31792.935968	3717.586072	14265.764667
95.537000	0.141958	0.097251	0.143916	0.237908	5613.545526	32211.583940	3730.574464	14394.413827
96.034500	0.143405	0.096858	0.143818	0.238039	5621.629539	32176.410756	3730.149439	14390.965084
96.535000	0.142794	0.097598	0.150583	0.239146	5611.084837	32151.737831	3740.730812	14361.840960
97.036000	0.141625	0.097896	0.141617	0.245122	5567.670816	31773.282677	3713.084120	14205.907315
97.535000	0.147117	0.098690	0.139490	0.240951	5626.549979	32103.943170	3716.810248	14314.515558
