sample name	sample
index	879
start time	 04-08-2021  02:04:39 PM


Wavelength (nm)	Absorbance
494.344910	-0.031888
494.563924	-0.031888
494.782919	-0.031888
495.001897	0.018209
495.220856	-0.004005
495.439797	0.001171
495.658719	0.010695
495.877624	0.014817
496.096510	0.018530
496.315378	0.012723
496.534227	0.011054
496.753059	0.014985
496.971872	0.005130
497.190667	0.071301
497.409444	0.114232
497.628203	0.131647
497.846943	0.143758
498.065665	0.151879
498.284369	0.156974
498.503055	0.162448
498.721723	0.165984
498.940372	0.168829
499.159003	0.170665
499.377616	0.171691
499.596210	0.172566
499.814787	0.172540
500.033345	0.171783
500.251885	0.172516
500.470406	0.172674
500.688910	0.172811
500.907395	0.173254
501.125862	0.173671
501.344311	0.174344
501.562742	0.174467
501.781154	0.174614
501.999548	0.175448
502.217924	0.175331
502.436282	0.174443
502.654621	0.175134
502.872942	0.175750
503.091245	0.175956
503.309530	0.175873
503.527797	0.175642
503.746045	0.176146
503.964275	0.175847
504.182487	0.176339
504.400681	0.177909
504.618856	0.177815
504.837013	0.178705
505.055152	0.179196
505.273273	0.179408
505.491376	0.180350
505.709460	0.180603
505.927526	0.181216
506.145574	0.181348
506.363604	0.181591
506.581615	0.182280
506.799608	0.182274
507.017583	0.182950
507.235540	0.183739
507.453478	0.182910
507.671399	0.183251
507.889301	0.183381
508.107185	0.184128
508.325050	0.184034
508.542898	0.183334
508.760727	0.183535
508.978538	0.183397
509.196330	0.183483
509.414105	0.184014
509.631861	0.184750
509.849599	0.185241
510.067319	0.185284
510.285021	0.185323
510.502704	0.185842
510.720369	0.185753
510.938016	0.186084
511.155645	0.186475
511.373255	0.187535
511.590848	0.187246
511.808422	0.187353
512.025977	0.187935
512.243515	0.188577
512.461034	0.189818
512.678536	0.190122
512.896018	0.191316
513.113483	0.190884
513.330930	0.190494
513.548358	0.190899
513.765768	0.191384
513.983160	0.192162
514.200533	0.192463
514.417889	0.192362
514.635226	0.193173
514.852545	0.192720
515.069845	0.193804
515.287128	0.195510
515.504392	0.195611
515.721638	0.196017
515.938866	0.195699
516.156075	0.195893
516.373267	0.195250
516.590440	0.195722
516.807594	0.195366
517.024731	0.195214
517.241850	0.194534
517.458950	0.194959
517.676032	0.195813
517.893095	0.195526
518.110141	0.196438
518.327168	0.197538
518.544177	0.197713
518.761168	0.198421
518.978141	0.199372
519.195095	0.200555
519.412031	0.200303
519.628949	0.200089
519.845849	0.201537
520.062731	0.200871
520.279594	0.201119
520.496439	0.201385
520.713266	0.202592
520.930074	0.202237
521.146865	0.202080
521.363637	0.203845
521.580391	0.204145
521.797127	0.203747
522.013844	0.204432
522.230543	0.205154
522.447224	0.205694
522.663887	0.205420
522.880532	0.205751
523.097158	0.205893
523.313766	0.206020
523.530356	0.206235
523.746928	0.207029
523.963481	0.207200
524.180017	0.207791
524.396534	0.207705
524.613032	0.208106
524.829513	0.208794
525.045975	0.209650
525.262420	0.209585
525.478845	0.210389
525.695253	0.210754
525.911643	0.210934
526.128014	0.211137
526.344367	0.212067
526.560702	0.212052
526.777018	0.211891
526.993316	0.211709
527.209597	0.212411
527.425858	0.212631
527.642102	0.213048
527.858328	0.214302
528.074535	0.214115
528.290724	0.213674
528.506894	0.214063
528.723047	0.214912
528.939181	0.215731
529.155297	0.216207
529.371395	0.216642
529.587475	0.216343
529.803536	0.216688
530.019579	0.217474
530.235604	0.218475
530.451611	0.219413
530.667600	0.219835
530.883570	0.221303
531.099522	0.221784
531.315456	0.221844
531.531372	0.222975
531.747269	0.222678
531.963148	0.223203
532.179009	0.223773
532.394852	0.223964
532.610676	0.224082
532.826482	0.222988
533.042271	0.223251
533.258040	0.224280
533.473792	0.224170
533.689525	0.225066
533.905240	0.225956
534.120937	0.225586
534.336616	0.225697
534.552277	0.226537
534.767919	0.227335
534.983543	0.227382
535.199149	0.227437
535.414736	0.228931
535.630306	0.229389
535.845857	0.229967
536.061390	0.230797
536.276904	0.231470
536.492401	0.231572
536.707879	0.232385
536.923339	0.233385
537.138781	0.234094
537.354204	0.233246
537.569610	0.233439
537.784997	0.232908
538.000366	0.233580
538.215716	0.234083
538.431049	0.234316
538.646363	0.234212
538.861659	0.233862
539.076937	0.233721
539.292196	0.234285
539.507438	0.234505
539.722661	0.235402
539.937866	0.235522
540.153052	0.236069
540.368221	0.236870
540.583371	0.237649
540.798503	0.238434
541.013617	0.238668
541.228712	0.239020
541.443789	0.239848
541.658848	0.240600
541.873889	0.241223
542.088912	0.241179
542.303916	0.241708
542.518902	0.242004
542.733870	0.242255
542.948820	0.242559
543.163752	0.243563
543.378665	0.243672
543.593560	0.243494
543.808437	0.244081
544.023295	0.244515
544.238136	0.244612
544.452958	0.244820
544.667762	0.244928
544.882548	0.245561
545.097315	0.245499
545.312064	0.245750
545.526795	0.246305
545.741508	0.246221
545.956203	0.246635
546.170879	0.246905
546.385537	0.247492
546.600177	0.247934
546.814799	0.248687
547.029402	0.249335
547.243988	0.249874
547.458555	0.250098
547.673103	0.250793
547.887634	0.251050
548.102146	0.251649
548.316640	0.251438
548.531116	0.251691
548.745574	0.251685
548.960013	0.251999
549.174435	0.252326
549.388838	0.252651
549.603222	0.252315
549.817589	0.252828
550.031937	0.253266
550.246267	0.253286
550.460579	0.254326
550.674873	0.254629
550.889148	0.254621
551.103405	0.254764
551.317644	0.255224
551.531865	0.255539
551.746068	0.255978
551.960252	0.255962
552.174418	0.257060
552.388566	0.257040
552.602696	0.257828
552.816807	0.258335
553.030900	0.258522
553.244975	0.258356
553.459032	0.258917
553.673070	0.258526
553.887091	0.258847
554.101093	0.259177
554.315077	0.259446
554.529042	0.259299
554.742990	0.259387
554.956919	0.259643
555.170830	0.259975
555.384722	0.260040
555.598597	0.260980
555.812453	0.261329
556.026291	0.261104
556.240111	0.261048
556.453913	0.260883
556.667696	0.260951
556.881461	0.261176
557.095208	0.261233
557.308937	0.261533
557.522647	0.261004
557.736339	0.261207
557.950013	0.261432
558.163669	0.261610
558.377307	0.261613
558.590926	0.262170
558.804527	0.262726
559.018110	0.262753
559.231675	0.263078
559.445221	0.263820
559.658749	0.264293
559.872259	0.264484
560.085751	0.265169
560.299225	0.265752
560.512680	0.265861
560.726117	0.265808
560.939536	0.266392
561.152937	0.266359
561.366319	0.266390
561.579683	0.266155
561.793029	0.266479
562.006357	0.266451
562.219667	0.267180
562.432958	0.267632
562.646231	0.267959
562.859486	0.268127
563.072723	0.269109
563.285941	0.268969
563.499141	0.269281
563.712323	0.269350
563.925487	0.269321
564.138632	0.269335
564.351760	0.269504
564.564869	0.269717
564.777960	0.270201
564.991032	0.269911
565.204087	0.270465
565.417123	0.270649
565.630141	0.271266
565.843140	0.271863
566.056122	0.271918
566.269085	0.271756
566.482030	0.271597
566.694957	0.271546
566.907866	0.271935
567.120756	0.271888
567.333628	0.272373
567.546482	0.272263
567.759318	0.272334
567.972135	0.272476
568.184935	0.273151
568.397716	0.273462
568.610478	0.273774
568.823223	0.274110
569.035949	0.274481
569.248657	0.274189
569.461347	0.274450
569.674019	0.275151
569.886672	0.275573
570.099308	0.275570
570.311925	0.275591
570.524523	0.275642
570.737104	0.275316
570.949666	0.275586
571.162210	0.276059
571.374736	0.275921
571.587244	0.275466
571.799733	0.275943
572.012205	0.275599
572.224658	0.276336
572.437092	0.277089
572.649509	0.277441
572.861907	0.277708
573.074287	0.277693
573.286649	0.278158
573.498993	0.278299
573.711318	0.278248
573.923625	0.278953
574.135914	0.279083
574.348185	0.278880
574.560438	0.278776
574.772672	0.279057
574.984888	0.279016
575.197086	0.279061
575.409266	0.279226
575.621427	0.279188
575.833570	0.279202
576.045695	0.279292
576.257802	0.279272
576.469890	0.279516
576.681961	0.279709
576.894013	0.280211
577.106046	0.280706
577.318062	0.281214
577.530059	0.281507
577.742039	0.281941
577.954000	0.281875
578.165942	0.282128
578.377867	0.282618
578.589773	0.282544
578.801661	0.282774
579.013531	0.282685
579.225382	0.282608
579.437216	0.282714
579.649031	0.282696
579.860828	0.282972
580.072606	0.283176
580.284367	0.283104
580.496109	0.283922
580.707833	0.284205
580.919539	0.284510
581.131227	0.284543
581.342896	0.284719
581.554547	0.285125
581.766180	0.285460
581.977795	0.285608
582.189391	0.285943
582.400969	0.285301
582.612529	0.285370
582.824071	0.285596
583.035595	0.286220
583.247100	0.286462
583.458587	0.286374
583.670056	0.286631
583.881506	0.287001
584.092939	0.287019
584.304353	0.287362
584.515749	0.287642
584.727127	0.287693
584.938486	0.287654
585.149828	0.287795
585.361151	0.288165
585.572456	0.288311
585.783742	0.288664
585.995011	0.289077
586.206261	0.289451
586.417493	0.289846
586.628706	0.290556
586.839902	0.290782
587.051079	0.290961
587.262238	0.290985
587.473379	0.291208
587.684502	0.291116
587.895606	0.291060
588.106692	0.291131
588.317760	0.291220
588.528810	0.291041
588.739841	0.291048
588.950855	0.291346
589.161850	0.291813
589.372827	0.291762
589.583785	0.291925
589.794726	0.292267
590.005648	0.292700
590.216552	0.292623
590.427437	0.292753
590.638305	0.293105
590.849154	0.293352
591.059985	0.293040
591.270798	0.293232
591.481592	0.293501
591.692369	0.293481
591.903127	0.293616
592.113867	0.293808
592.324588	0.293992
592.535292	0.294442
592.745977	0.294585
592.956644	0.295059
593.167293	0.295449
593.377923	0.295407
593.588536	0.295896
593.799130	0.295837
594.009706	0.295859
594.220263	0.296019
594.430803	0.296378
594.641324	0.296383
594.851827	0.296682
595.062312	0.296957
595.272778	0.297286
595.483227	0.297670
595.693657	0.298047
595.904069	0.298199
596.114462	0.298231
596.324838	0.298054
596.535195	0.298047
596.745534	0.298066
596.955855	0.298336
597.166157	0.298544
597.376441	0.298314
597.586707	0.298443
597.796955	0.298727
598.007185	0.299109
598.217396	0.298918
598.427589	0.299351
598.637764	0.300196
598.847921	0.300073
599.058060	0.300148
599.268180	0.300481
599.478282	0.300646
599.688366	0.300864
599.898431	0.301219
600.108479	0.301702
600.318508	0.301824
600.528519	0.301377
600.738511	0.301718
600.948486	0.301807
601.158442	0.301868
601.368380	0.302173
601.578300	0.302221
601.788202	0.302192
601.998085	0.302473
602.207950	0.303086
602.417797	0.303665
602.627626	0.304007
602.837436	0.304510
603.047228	0.304759
603.257002	0.304874
603.466758	0.305039
603.676496	0.305280
603.886215	0.305619
604.095916	0.305425
604.305599	0.305272
604.515264	0.305423
604.724910	0.305418
604.934538	0.305665
605.144148	0.306077
605.353740	0.306467
605.563314	0.306547
605.772869	0.306486
605.982406	0.306764
606.191925	0.307060
606.401425	0.307155
606.610908	0.307648
606.820372	0.307583
607.029818	0.307472
607.239246	0.307712
607.448655	0.307532
607.658047	0.307831
607.867420	0.307725
608.076775	0.307718
608.286111	0.307713
608.495430	0.307568
608.704730	0.307727
608.914012	0.308092
609.123275	0.308131
609.332521	0.308487
609.541748	0.308418
609.750957	0.308838
609.960148	0.309018
610.169321	0.308889
610.378475	0.309000
610.587611	0.309287
610.796729	0.309374
611.005829	0.309535
611.214910	0.309845
611.423974	0.309963
611.633019	0.310394
611.842045	0.310561
612.051054	0.311074
612.260044	0.311117
612.469017	0.311277
612.677970	0.311157
612.886906	0.311394
613.095824	0.311398
613.304723	0.311725
613.513604	0.311307
613.722467	0.311776
613.931311	0.311803
614.140138	0.312000
614.348946	0.312009
614.557736	0.312330
614.766507	0.312160
614.975261	0.312302
615.183996	0.312275
615.392713	0.312763
615.601412	0.312604
615.810092	0.313051
616.018754	0.313308
616.227399	0.313702
616.436024	0.313830
616.644632	0.314252
616.853222	0.314292
617.061793	0.314304
617.270346	0.314128
617.478880	0.314258
617.687397	0.314289
617.895895	0.314579
618.104375	0.314633
618.312837	0.314745
618.521281	0.315026
618.729706	0.315607
618.938113	0.316185
619.146502	0.316335
619.354873	0.316426
619.563226	0.316470
619.771560	0.316434
619.979876	0.316440
620.188174	0.316534
620.396453	0.316679
620.604715	0.316890
620.812958	0.317072
621.021183	0.317406
621.229390	0.317722
621.437578	0.318142
621.645748	0.317974
621.853900	0.318554
622.062034	0.319067
622.270150	0.319560
622.478247	0.319408
622.686326	0.319304
622.894387	0.319445
623.102430	0.319499
623.310454	0.319571
623.518461	0.319650
623.726449	0.319717
623.934418	0.319635
624.142370	0.319499
624.350303	0.319586
624.558218	0.319573
624.766115	0.319921
624.973994	0.320121
625.181855	0.319875
625.389697	0.320659
625.597521	0.320699
625.805327	0.320770
626.013114	0.320874
626.220883	0.321204
626.428634	0.322056
626.636367	0.322099
626.844082	0.322228
627.051778	0.322619
627.259457	0.322727
627.467117	0.322906
627.674758	0.323230
627.882382	0.323412
628.089987	0.323691
628.297574	0.323484
628.505143	0.323652
628.712694	0.323869
628.920226	0.323786
629.127740	0.323847
629.335236	0.324155
629.542714	0.324268
629.750174	0.324349
629.957615	0.324570
630.165038	0.324969
630.372443	0.325022
630.579829	0.324989
630.787198	0.325565
630.994548	0.325831
631.201880	0.326207
631.409194	0.326590
631.616489	0.326923
631.823766	0.327334
632.031025	0.327136
632.238266	0.327674
632.445489	0.327779
632.652693	0.327751
632.859879	0.327688
633.067047	0.327272
633.274197	0.327134
633.481329	0.327420
633.688442	0.327391
633.895537	0.327676
634.102614	0.327687
634.309672	0.328030
634.516713	0.328116
634.723735	0.328392
634.930739	0.328835
635.137724	0.328957
635.344692	0.328959
635.551641	0.329056
635.758572	0.329039
635.965485	0.329198
636.172379	0.329323
636.379256	0.329612
636.586114	0.329628
636.792954	0.329843
636.999775	0.330196
637.206579	0.330380
637.413364	0.330490
637.620131	0.331032
637.826880	0.331381
638.033610	0.331587
638.240323	0.331771
638.447017	0.332252
638.653692	0.332398
638.860350	0.332595
639.066990	0.332553
639.273611	0.332494
639.480214	0.332487
639.686798	0.332282
639.893365	0.332544
640.099913	0.332683
640.306443	0.332918
640.512955	0.333086
640.719449	0.333058
640.925924	0.333393
641.132381	0.333517
641.338820	0.333564
641.545241	0.333844
641.751644	0.334307
641.958028	0.334367
642.164394	0.334773
642.370742	0.334963
642.577071	0.335516
642.783383	0.335720
642.989676	0.336147
643.195951	0.336555
643.402207	0.336765
643.608446	0.336732
643.814666	0.337071
644.020868	0.336942
644.227052	0.337065
644.433218	0.337352
644.639365	0.337518
644.845494	0.337748
645.051605	0.337581
645.257698	0.337786
645.463772	0.338053
645.669828	0.338637
645.875866	0.338617
646.081886	0.338922
646.287888	0.339122
646.493871	0.339273
646.699836	0.339323
646.905783	0.339717
647.111712	0.339786
647.317622	0.339959
647.523514	0.339983
647.729388	0.340445
647.935244	0.340621
648.141082	0.340482
648.346901	0.340781
648.552702	0.341077
648.758485	0.341512
648.964250	0.341828
649.169996	0.342022
649.375724	0.342112
649.581434	0.342365
649.787126	0.342532
649.992800	0.342955
650.198455	0.343304
650.404092	0.343627
650.609711	0.343765
650.815311	0.344064
651.020894	0.344135
651.226458	0.344353
651.432004	0.344546
651.637532	0.345068
651.843041	0.345221
652.048532	0.345322
652.254006	0.345330
652.459460	0.345472
652.664897	0.345594
652.870315	0.346004
653.075716	0.346288
653.281097	0.346286
653.486461	0.346019
653.691807	0.345854
653.897134	0.345862
654.102443	0.346296
654.307734	0.346711
654.513006	0.347151
654.718261	0.347354
654.923497	0.347734
655.128715	0.348030
655.333915	0.348421
655.539096	0.348931
655.744259	0.349178
655.949404	0.349322
656.154531	0.349304
656.359640	0.349232
656.564730	0.349543
656.769802	0.349312
656.974856	0.349466
657.179892	0.349648
657.384909	0.349762
657.589908	0.350352
657.794889	0.350477
657.999852	0.350960
658.204797	0.351157
658.409723	0.351081
658.614631	0.351382
658.819521	0.351781
659.024393	0.352142
659.229246	0.352700
659.434081	0.352916
659.638898	0.353534
659.843697	0.353703
660.048478	0.354075
660.253240	0.354841
660.457984	0.355616
660.662710	0.355686
660.867417	0.355803
661.072107	0.356100
661.276778	0.356318
661.481431	0.356293
661.686066	0.356555
661.890682	0.356899
662.095281	0.356899
662.299861	0.356748
662.504422	0.357035
662.708966	0.357393
662.913491	0.357384
663.117999	0.357250
663.322488	0.357209
663.526958	0.357227
663.731411	0.357115
663.935845	0.357280
664.140261	0.357339
664.344659	0.357483
664.549038	0.357593
664.753400	0.357881
664.957743	0.358183
665.162068	0.358736
665.366375	0.359084
665.570663	0.359435
665.774933	0.359813
665.979185	0.360195
666.183419	0.360676
666.387635	0.360797
666.591832	0.360948
666.796011	0.361414
667.000172	0.361494
667.204315	0.361755
667.408439	0.362046
667.612545	0.361930
667.816634	0.362229
668.020703	0.362436
668.224755	0.363046
668.428788	0.363323
668.632803	0.363245
668.836800	0.363770
669.040779	0.364055
669.244739	0.364502
669.448681	0.364962
669.652605	0.365290
669.856511	0.365605
670.060399	0.365819
670.264268	0.366098
670.468119	0.366586
670.671952	0.366640
670.875767	0.366954
671.079563	0.367260
671.283341	0.367476
671.487101	0.367567
671.690843	0.367851
671.894567	0.368088
672.098272	0.368177
672.301959	0.368174
672.505628	0.368454
672.709278	0.368683
672.912911	0.368821
673.116525	0.369081
673.320121	0.369510
673.523699	0.369788
673.727258	0.370157
673.930799	0.370502
674.134322	0.371095
674.337827	0.371262
674.541314	0.371377
674.744782	0.371701
674.948232	0.371937
675.151664	0.372092
675.355078	0.372089
675.558474	0.372218
675.761851	0.372486
675.965210	0.372542
676.168551	0.372900
676.371873	0.373020
676.575178	0.373249
676.778464	0.373528
676.981732	0.374000
677.184981	0.374363
677.388213	0.374771
677.591426	0.374781
677.794621	0.375075
677.997798	0.375285
678.200956	0.375532
678.404097	0.375669
678.607219	0.376001
678.810323	0.375691
679.013408	0.375882
679.216476	0.375949
679.419525	0.376352
679.622556	0.376584
679.825569	0.376792
680.028563	0.376854
680.231540	0.377073
680.434498	0.377201
680.637438	0.377655
680.840359	0.377992
681.043263	0.378043
681.246148	0.378323
681.449015	0.378562
681.651864	0.378555
681.854694	0.379007
682.057506	0.379193
682.260301	0.379229
682.463076	0.379443
682.665834	0.379272
682.868573	0.379594
683.071295	0.379594
683.273998	0.379958
683.476682	0.380427
683.679349	0.380618
683.881997	0.381039
684.084627	0.381526
684.287239	0.381634
684.489833	0.382403
684.692408	0.382394
684.894965	0.382650
685.097504	0.382554
685.300025	0.382773
685.502527	0.383021
685.705012	0.383007
685.907478	0.383002
686.109925	0.383497
686.312355	0.383378
686.514766	0.383642
686.717159	0.384138
686.919534	0.384340
687.121891	0.384654
687.324230	0.384619
687.526550	0.384991
687.728852	0.385368
687.931136	0.385544
688.133401	0.386066
688.335649	0.386363
688.537878	0.386443
688.740089	0.387025
688.942281	0.387058
689.144456	0.387417
689.346612	0.387475
689.548750	0.387681
689.750870	0.387697
689.952971	0.387507
690.155055	0.387983
690.357120	0.388383
690.559167	0.388382
690.761195	0.388776
690.963206	0.389150
691.165198	0.389428
691.367172	0.389739
691.569128	0.389985
691.771065	0.390389
691.972984	0.390300
692.174885	0.390390
692.376768	0.390336
692.578633	0.390480
692.780479	0.390603
692.982308	0.390754
693.184118	0.390689
693.385909	0.391006
