sample name	sample
index	773
start time	 03-31-2021  01:18:20 PM
880	0.434101
Peak Time (s)	90.038
Peak Height 	0.4341
calc peak height	90,93
Baseline Time (s)	8.537
Baseline Value 	-0.003738
subtract baseline	10,4
Abs	0.316250
Peak Time (s)	90.038
Peak Height 	0.3162
calc peak height	90,93
Baseline Time (s)	9.034
Baseline Value 	4.6162E-4
subtract baseline	10,3
PK_550	0.174903
Peak Time (s)	92.537
Peak Height 	0.1749
calc peak height	90,93
Baseline Time (s)	11.036
Baseline Value 	-1.7514E-4
subtract baseline	10,2
PK_880	0.294701
Peak Time (s)	92.537
Peak Height 	0.2947
calc peak height	90,93
Baseline Time (s)	10.536
Baseline Value 	0.001241
subtract baseline	10,1


Time (s)	A880-A510	A880-A775	A880-A975	A880	I510	I775	I975	I880	
0.035000	-0.002011	0.000661	0.001766	0.002024	6723.858485	40540.661952	4057.875032	22169.687383
0.536000	-0.001188	-0.000272	0.001592	0.003066	6722.006903	40370.779158	4054.999403	22123.872184
1.036000	-0.000247	0.000497	0.001126	0.004116	6721.087313	40346.579802	4051.425360	22077.799070
1.536000	-0.001214	0.000341	-0.004168	0.001031	6739.000842	40598.787369	4046.243154	22213.460684
2.039500	0.000657	-0.000017	0.004407	0.000557	6758.930531	40608.869943	4067.647375	22234.397885
2.537000	0.000669	0.000150	0.004320	0.001258	6753.062438	40562.724067	4065.764326	22203.433909
3.037000	0.001466	0.000695	0.004158	-0.001469	6783.161177	40846.095603	4071.901913	22324.060026
3.536500	0.001090	0.000263	0.001817	0.000758	6760.902670	40615.637771	4060.996938	22225.488602
4.037000	0.001261	0.000729	0.000788	0.000210	6767.038508	40703.353557	4059.855752	22249.714277
4.535000	0.002261	0.000203	-0.000442	0.000350	6774.400466	40645.718243	4056.610853	22243.542392
5.035000	0.002437	0.000422	0.005746	0.000512	6774.511882	40650.686021	4070.960200	22236.362658
5.538500	-0.001014	-0.000571	-0.004802	-0.000652	6754.990158	40665.393176	4048.700455	22287.837533
6.039000	-0.000436	0.000435	0.004099	0.000053	6753.915524	40691.485197	4068.117328	22256.657519
6.536000	0.001059	0.000374	-0.003886	0.000181	6765.559515	40675.157913	4048.894660	22250.985936
7.036500	-0.000009	-0.000089	0.002643	-0.000625	6763.326945	40704.832968	4066.256296	22286.656930
7.536500	0.001534	0.000881	0.000651	0.000759	6764.686221	40669.017775	4058.229584	22225.464269
8.037000	-0.000982	0.000210	-0.000237	0.000073	6749.100720	40670.320104	4057.751145	22255.781872
8.537000	-0.000421	-0.000054	0.003924	0.000000	6754.493652	40653.768843	4067.824763	22258.999087
9.034500	0.000001	-0.000231	0.000000	-0.000223	6759.991281	40657.793237	4059.015169	22268.885322
9.535000	0.001236	0.000288	-0.003749	-0.000475	6772.677643	40724.508048	4050.757724	22280.015910
10.038500	0.000467	-0.000413	0.003571	-0.000274	6764.389226	40646.406614	4067.635429	22271.099708
10.535500	0.000000	0.000460	-0.002412	0.000322	6755.333645	40670.380511	4052.029115	22244.760150
11.036000	-0.000928	0.000000	0.004151	0.004618	6711.122271	40260.996478	4057.378105	22055.814460
11.536000	-0.001165	0.000199	-0.000071	0.000248	6746.054195	40654.216998	4057.730849	22248.029370
12.036500	-0.000121	-0.000266	0.003356	-0.000460	6760.961515	40675.190067	4067.565782	22279.349954
12.536500	-0.000487	0.001218	0.000750	0.000453	6750.072535	40724.650945	4059.189028	22238.972276
13.037000	0.002421	0.000529	0.006878	-0.000234	6780.762101	40724.507682	4075.472806	22269.345649
13.537500	0.000330	0.000228	0.002630	0.000065	6760.337585	40672.569149	4064.579038	22256.118325
14.038000	-0.001507	-0.000656	-0.002034	0.001040	6736.441237	40511.994351	4051.227900	22213.061152
14.535000	0.000589	-0.000473	0.000518	0.001122	6753.536512	40520.658176	4057.053832	22209.418147
15.038500	-0.001030	0.000285	-0.003810	-0.000278	6751.677964	40707.189387	4050.151403	22271.305733
15.536000	-0.000082	-0.000195	-0.004195	-0.000639	6762.822237	40696.814905	4050.093324	22287.265940
16.036000	0.000921	0.000387	-0.000097	-0.000579	6770.881547	40742.091536	4059.630131	22284.639724
16.536000	0.000091	-0.000083	0.002037	-0.000123	6759.894737	40661.910522	4063.615239	22264.424578
17.037000	0.003100	0.001160	0.003906	-0.003314	6813.122463	41047.513121	4075.734732	22406.126504
17.537000	0.000493	0.000569	0.001088	0.000427	6758.634772	40670.764083	4060.053572	22240.123611
18.034500	0.001194	0.000497	0.003236	0.000821	6761.250407	40630.348754	4064.223436	22222.707893
18.534500	0.000449	0.000813	0.000571	0.001055	6752.920586	40637.552943	4057.341061	22212.407981
19.035000	-0.000089	-0.000687	-0.006263	-0.000107	6758.231649	40608.307348	4044.004882	22263.729202
19.538000	-0.000537	-0.000094	0.006620	0.000208	6751.736167	40632.306788	4073.790436	22249.810053
20.038500	-0.000476	0.000887	0.003681	0.000894	6746.425055	40657.835975	4065.109997	22219.504724
20.536000	-0.001494	-0.000363	0.003585	0.000222	6743.484461	40607.864248	4066.483948	22249.196682
21.035500	0.000668	0.000475	0.000116	0.000578	6758.848662	40649.532192	4057.392977	22233.463550
21.536500	-0.000867	0.000340	0.000725	0.000730	6744.494765	40624.731678	4058.472866	22226.734239
22.039500	0.001044	0.000766	0.003155	0.000640	6761.524920	40669.375291	4064.462053	22230.719533
22.537000	0.001915	0.000861	0.001524	0.000989	6765.973904	40647.422179	4059.754999	22215.320027
23.034000	0.000428	0.000041	0.003849	0.000422	6758.127100	40625.466742	4066.636170	22240.322022
23.535000	0.000562	0.000800	-0.000202	0.001080	6753.660181	40634.187514	4055.452607	22211.269760
24.036000	0.001270	0.001508	0.003880	0.001684	6754.551114	40643.214092	4063.702771	22184.676740
24.535500	-0.000123	0.000225	-0.004195	0.000719	6750.906352	40615.740860	4046.910033	22227.224766
25.036000	-0.001328	0.000116	-0.001388	0.000429	6743.143839	40631.440894	4054.191285	22240.053795
25.536000	0.000234	0.000290	0.000182	0.000479	6755.988752	40642.058030	4057.781492	22237.813747
26.036500	-0.001109	0.000374	0.005755	0.000964	6740.455180	40607.451067	4069.898420	22216.410841
26.536500	-0.000638	0.000357	-0.000809	0.000813	6745.740649	40619.043887	4054.651013	22223.085460
27.037000	0.002772	0.000924	0.005292	-0.000699	6787.764365	40799.094802	4072.775701	22289.919651
27.540500	0.000627	0.000006	-0.003870	-0.001655	6777.564583	40802.389754	4053.251156	22332.315290
28.037500	-0.000004	0.000120	0.002786	-0.000862	6765.391823	40743.517242	4067.164494	22297.167458
28.535000	0.002360	0.000704	0.003654	0.000092	6777.449363	40711.391725	4066.957654	22254.918949
29.038000	0.000205	0.001213	0.000275	0.000038	6759.503175	40760.261204	4059.047927	22257.325277
29.535500	0.001832	0.000944	0.003359	0.000309	6771.075722	40713.430563	4065.737731	22245.354511
30.036000	0.002463	0.001157	0.005994	0.000514	6774.717223	40714.102511	4071.549530	22236.264866
30.535000	-0.000151	0.000570	-0.004125	0.001612	6743.087612	40568.458770	4044.983932	22187.846274
31.036500	-0.001468	0.000400	0.001669	0.001791	6730.416173	40538.310952	4058.196671	22179.965123
31.537000	-0.000096	-0.000103	0.005206	-0.000584	6762.242923	40700.076256	4072.296660	22284.866471
32.037500	0.001281	0.000129	0.003188	-0.000417	6772.577343	40705.722482	4067.062021	22277.466667
32.538500	-0.000135	0.000125	-0.001587	-0.000367	6760.048990	40701.055694	4055.599045	22275.230682
33.035000	-0.002969	0.000285	-0.000052	0.004645	6693.774568	40283.131250	4047.417030	22054.645169
33.536000	-0.000484	0.001163	0.001981	0.001821	6738.486203	40601.499181	4058.863550	22178.613629
34.035000	-0.000424	0.000658	0.007930	0.001450	6742.144998	40590.023860	4073.952727	22194.981823
34.536000	0.000300	-0.000251	-0.001369	0.000610	6755.436761	40584.084700	4053.808709	22232.051444
35.036500	-0.000171	0.000024	0.002014	0.000952	6748.525408	40578.256283	4061.005201	22216.956084
35.536000	-0.000922	-0.000084	0.004314	0.001074	6741.102974	40558.343603	4066.188525	22211.536878
36.036500	0.000010	0.000071	-0.002440	0.000958	6750.009885	40581.789347	4050.466656	22216.660332
36.537000	-0.001502	0.000593	0.005971	0.000986	6736.942090	40624.427062	4070.364844	22215.439717
37.037500	-0.000072	0.000520	0.005001	0.001740	6742.671445	40553.004008	4066.240218	22182.180532
37.534500	0.000609	0.000468	-0.000305	0.001708	6748.726303	40551.302434	4053.725843	22183.594289
38.035000	0.000132	0.001116	0.003799	0.001875	6743.251401	40592.846287	4063.052417	22176.234552
38.538000	0.000921	0.001022	0.006455	0.001886	6749.869120	40583.757983	4069.368666	22175.779494
39.035500	-0.002208	-0.000379	-0.001344	0.002035	6722.103695	40450.207329	4050.510018	22169.202333
39.536000	0.000351	0.000275	-0.003535	0.001197	6750.868950	40578.746460	4047.333784	22206.116528
40.036500	0.000309	0.001132	-0.002597	0.001403	6748.763359	40635.022170	4049.053044	22197.041112
40.536500	-0.002803	-0.000451	0.001785	0.000694	6728.408114	40559.537386	4061.075071	22228.347918
41.033500	-0.000527	0.000072	-0.002919	0.002307	6734.007722	40465.542632	4046.177570	22157.223325
41.537000	-0.000641	0.000485	-0.000390	0.001129	6743.034597	40602.772927	4054.893848	22209.147423
42.037000	0.000723	0.000134	0.000619	0.001320	6753.000924	40555.964534	4056.826335	22200.722442
42.535000	0.000454	0.000954	0.006868	0.002236	6742.920612	40547.664084	4069.516756	22160.350416
43.037500	-0.002436	-0.000196	0.005534	0.000993	6728.977744	40555.723785	4069.300361	22215.144354
43.535500	0.005696	0.001518	0.003813	-0.002719	6830.472784	41026.855966	4074.078198	22379.654197
44.036000	0.000266	0.001366	0.003429	0.000264	6758.092021	40753.844465	4066.010311	22247.319108
44.539000	0.000912	0.000203	-0.002448	-0.000465	6769.821933	40716.258153	4053.797813	22279.566084
45.036000	-0.001731	0.000135	-0.003878	0.003935	6710.113301	40331.133225	4040.141716	22085.742009
45.536500	0.000210	-0.000229	-0.001497	-0.000606	6765.032969	40691.019374	4056.377038	22285.807030
46.036500	0.001678	0.000693	0.000695	-0.000348	6775.377518	40748.586974	4060.958931	22274.379941
46.536000	-0.002082	0.000114	-0.005527	0.005810	6691.446886	40168.851908	4031.973456	22003.740443
47.037500	-0.000558	0.001304	0.001397	0.002919	6728.575263	40519.022209	4054.887686	22130.345712
47.535000	-0.001037	0.000453	0.000636	0.001730	6734.569793	40548.047967	4055.896946	22182.614266
48.035000	0.000591	0.000535	0.000999	-0.000483	6767.230311	40746.549582	4062.000708	22280.354708
48.535000	-0.001953	0.000186	0.001454	0.005436	6695.655400	40206.950955	4049.094736	22020.067485
49.035500	-0.003139	0.000470	0.004738	0.004738	6691.578165	40291.001693	4058.486310	22050.601127
49.539000	0.001193	0.000278	0.007062	0.000244	6766.173860	40661.348256	4074.766560	22248.215629
50.036500	0.001368	0.000126	0.006997	-0.002462	6790.851306	40883.025825	4081.140354	22368.189599
50.539000	0.006225	0.002567	0.005727	-0.002937	6836.961547	41137.623558	4079.217042	22389.319856
51.037000	-0.036616	-0.005091	0.024504	0.221386	5100.733226	25390.466505	3683.450255	14587.994399
51.536500	-0.040793	-0.007255	0.002995	0.047584	6076.795763	36201.400823	3958.086947	20265.603375
52.034500	-0.051668	-0.030625	-0.007143	-0.184395	8080.704650	56621.338602	4577.074119	32419.346280
52.538500	-0.038253	-0.091949	-0.002164	-0.312329	10012.800031	65495.369192	5131.142089	42479.814723
53.035500	-0.007565	-0.084278	0.020744	-0.304784	10393.473576	65513.559899	5206.815250	41800.767953
53.535500	0.006034	-0.035920	0.033926	-0.236822	9530.392605	62758.199607	4948.804270	36187.479776
54.035500	0.020591	-0.002524	0.049880	-0.140359	8417.936505	54692.501460	4624.049499	29587.438872
54.536000	0.036135	0.013305	0.054392	-0.097447	8090.599087	51572.609564	4489.121447	27090.789932
55.036500	0.064369	0.027949	0.079419	-0.074685	8154.402692	50674.651807	4496.748903	25863.223844
55.537000	0.093268	0.042827	0.096457	-0.044751	8142.271978	49053.169126	4453.823942	24343.833705
56.037000	0.113802	0.055136	0.113282	-0.007937	7955.214741	46531.292122	4389.756132	22613.272388
56.537000	0.135359	0.067364	0.130203	0.027703	7798.956163	44251.205375	4332.376786	21072.004519
57.034500	0.147902	0.075393	0.148162	0.060154	7586.531194	42000.168445	4289.619589	19774.487644
57.535000	0.158025	0.082592	0.158975	0.091040	7375.128387	39934.648809	4232.706804	18626.461146
58.035500	0.167817	0.089152	0.169182	0.126100	7131.123215	37594.157422	4165.787879	17418.471860
58.535500	0.176744	0.095347	0.184608	0.160893	6895.616099	35394.982468	4116.231553	16312.307100
59.036000	0.184687	0.100517	0.192326	0.181012	6789.514511	34301.734496	4085.642598	15711.972880
59.536000	0.189134	0.105942	0.197511	0.201595	6653.426687	33231.032426	4048.856721	15125.912492
60.036000	0.195665	0.109620	0.208815	0.220856	6549.557275	32168.527057	4030.349009	14602.063619
60.536500	0.206079	0.114142	0.219182	0.234999	6519.712396	31531.376606	4021.687729	14231.961470
61.037000	0.209792	0.118822	0.224915	0.241862	6494.693438	31388.785786	4019.110001	14056.661830
61.537000	0.218650	0.126345	0.220937	0.263088	6398.205401	30509.685080	3963.315199	13531.671070
62.037500	0.226779	0.131572	0.232280	0.266455	6435.028236	30627.360651	3980.622216	13450.729576
62.535500	0.230336	0.133166	0.231427	0.267323	6456.007065	30673.453463	3976.861455	13429.975686
63.047500	0.235842	0.136316	0.238858	0.267734	6496.103209	30848.016045	3992.297661	13420.148315
63.535500	0.239904	0.138464	0.241026	0.271265	6500.308758	30759.744970	3989.280638	13336.189071
64.036000	0.241365	0.139151	0.242252	0.275910	6475.162129	30508.660799	3981.755743	13226.765221
64.536500	0.247443	0.141631	0.246107	0.283406	6464.027094	30193.748918	3973.806717	13052.638606
65.037000	0.248269	0.143359	0.241637	0.291506	6407.454614	29798.916235	3946.866874	12867.809271
65.537000	0.252407	0.145634	0.253124	0.299175	6380.334315	29469.252575	3954.969395	12695.989779
66.037500	0.254125	0.146313	0.252093	0.306235	6339.717059	29084.392987	3937.888378	12540.454552
66.535000	0.254157	0.148306	0.264908	0.313737	6283.752106	28756.695180	3949.067965	12377.937977
67.035000	0.254983	0.148850	0.261063	0.320294	6241.464153	28403.730174	3927.306334	12238.172520
67.535500	0.259102	0.151123	0.263132	0.328273	6213.299952	28073.255315	3915.171969	12070.923265
68.038500	0.262261	0.151126	0.269496	0.333599	6197.593351	27768.849936	3917.291087	11960.976466
68.536000	0.266543	0.153973	0.273472	0.340901	6175.836043	27516.968354	3910.518708	11812.414892
69.036000	0.266087	0.155112	0.273919	0.348922	6115.570034	27132.825811	3895.288361	11652.078496
69.537000	0.268438	0.155901	0.270699	0.351894	6111.202277	27012.305255	3883.033637	11593.429846
70.040000	0.268444	0.157194	0.278724	0.356911	6076.175736	26808.005326	3888.965279	11495.300641
70.537000	0.270833	0.158378	0.279152	0.363340	6048.224732	26523.193746	3877.171040	11371.213538
71.037000	0.274184	0.158682	0.278023	0.371637	6014.368530	26095.832674	3858.973263	11213.773820
71.537500	0.273067	0.158830	0.281660	0.374846	5985.063833	25934.202467	3859.790624	11153.670109
72.040500	0.273502	0.160914	0.287419	0.382582	5936.274914	25638.811581	3856.021446	11010.622524
72.535500	0.278115	0.161771	0.293670	0.388076	5930.438392	25399.303769	3857.463392	10910.564069
73.035500	0.278113	0.162350	0.291246	0.393677	5893.618917	25142.737857	3842.305394	10809.848983
73.536000	0.281335	0.162760	0.288080	0.398906	5880.544848	24899.311212	3826.744766	10716.977004
74.036500	0.281443	0.164139	0.295176	0.403792	5849.663034	24723.891873	3830.811915	10631.217311
74.536500	0.276627	0.163906	0.293268	0.413576	5757.370911	24230.517546	3809.529033	10462.348878
75.037000	0.280338	0.163753	0.291736	0.410685	5798.723611	24364.260756	3811.974593	10511.856688
75.537500	0.281870	0.165632	0.294265	0.416101	5774.322061	24191.643610	3806.790374	10419.380866
76.040500	0.284094	0.166565	0.295026	0.419204	5768.830806	24086.492672	3802.609924	10366.922929
76.535000	0.279963	0.165355	0.295872	0.426811	5696.545796	23664.424869	3790.669335	10239.896109
77.038000	0.283399	0.166862	0.299091	0.425731	5724.119616	23787.348573	3798.238866	10257.783764
77.536000	0.284640	0.167321	0.300843	0.428015	5717.724136	23700.563685	3797.298047	10219.983153
78.036000	0.283523	0.168350	0.299617	0.430829	5693.756837	23615.991422	3790.189157	10173.675770
78.536000	0.287801	0.169559	0.309166	0.434164	5699.495975	23515.784751	3801.151677	10119.202131
79.036500	0.286604	0.167260	0.300918	0.433986	5693.302576	23416.232943	3786.946960	10122.092609
79.536500	0.287963	0.169786	0.302209	0.437080	5682.791372	23389.668525	3783.808821	10071.896013
80.037000	0.288846	0.169397	0.302714	0.438123	5681.828451	23322.821200	3782.876128	10055.057089
80.537500	0.286771	0.170280	0.309450	0.439372	5661.822524	23305.783700	3792.452750	10034.941843
81.040500	0.287951	0.171025	0.311556	0.442067	5652.753306	23215.193468	3791.419528	9991.734178
81.535000	0.292626	0.170040	0.305625	0.440912	5687.822734	23223.082953	3783.086721	10010.223747
82.035500	0.290745	0.170242	0.306224	0.440865	5676.738046	23234.592149	3784.208233	10010.972242
82.535500	0.291865	0.171210	0.305111	0.442885	5671.320558	23185.859193	3778.784707	9978.674491
83.035500	0.291141	0.170044	0.315871	0.442359	5670.129024	23156.275326	3798.509415	9987.067439
83.536000	0.293299	0.172984	0.311254	0.444973	5667.385768	23171.353474	3785.812005	9945.445835
84.037000	0.288385	0.171404	0.312101	0.442715	5651.476394	23202.717194	3791.238680	9981.390502
84.536000	0.290485	0.172016	0.313312	0.443037	5662.115368	23216.166314	3792.798885	9976.249994
85.037500	0.290862	0.172492	0.314510	0.442596	5667.027062	23258.712347	3795.685479	9983.285040
85.537500	0.289631	0.172375	0.312472	0.440946	5669.544917	23330.018707	3795.001094	10009.673601
86.035000	0.292174	0.173175	0.311963	0.441057	5684.210779	23362.186028	3793.909345	10007.896438
86.535000	0.289390	0.172857	0.310083	0.438989	5679.883537	23444.022236	3794.239023	10041.097721
87.036000	0.293858	0.172979	0.312432	0.438935	5707.325880	23452.322997	3798.483267	10041.974811
87.536000	0.292107	0.172007	0.308937	0.437005	5708.413360	23497.282122	3795.715913	10073.105463
88.036000	0.294060	0.173030	0.310141	0.436799	5721.625131	23555.120281	3798.207830	10076.441466
88.536500	0.292223	0.172774	0.308474	0.435738	5716.869617	23593.092692	3797.136290	10093.624603
89.037000	0.292616	0.172488	0.315668	0.434344	5727.832266	23645.469380	3812.464911	10116.267135
89.536500	0.292740	0.172618	0.317906	0.433861	5731.565420	23674.476607	3817.385794	10124.123440
90.037500	0.293446	0.174322	0.316250	0.434101	5734.436002	23744.033088	3813.954039	10120.222916
90.535000	0.293237	0.173728	0.315508	0.432613	5742.330879	23786.609481	3815.303272	10144.481380
91.035500	0.293127	0.174721	0.315116	0.432574	5741.892478	23835.899612	3814.665691	10145.128684
91.535500	0.294504	0.172909	0.316120	0.430820	5761.308616	23833.079767	3819.664415	10173.824971
92.035500	0.293151	0.173715	0.308019	0.430864	5752.630516	23869.531384	3804.985837	10173.108179
92.536500	0.294701	0.174903	0.310572	0.430937	5761.807741	23922.962017	3809.427679	10171.913287
93.038500	0.295274	0.173329	0.313041	0.429145	5776.574395	23933.382404	3817.115692	10201.354762
93.537000	0.293006	0.174570	0.318508	0.429453	5760.493328	23978.226134	3826.527476	10196.288614
94.037000	0.295829	0.175528	0.316301	0.429535	5777.606044	24020.418277	3822.336956	10194.931406
94.537000	0.289341	0.174048	0.307488	0.433644	5712.050712	23752.721634	3799.097248	10127.661405
95.037500	0.293787	0.173198	0.312528	0.426584	5783.304567	24050.345085	3820.837688	10243.642681
95.535000	0.296205	0.174265	0.316917	0.427250	5794.319589	24069.736185	3827.651225	10232.628658
