sample name	sample
index	1451
start time	 05-10-2021  01:29:13 PM


Wavelength (nm)	Absorbance
494.344910	-0.006507
494.563924	-0.006507
494.782919	-0.006507
495.001897	-0.038407
495.220856	0.000193
495.439797	-0.011402
495.658719	-0.011388
495.877624	-0.014608
496.096510	-0.003474
496.315378	0.000395
496.534227	0.002459
496.753059	-0.006741
496.971872	0.010236
497.190667	0.023974
497.409444	0.047275
497.628203	0.051535
497.846943	0.053182
498.065665	0.053841
498.284369	0.053541
498.503055	0.053714
498.721723	0.054370
498.940372	0.054622
499.159003	0.056089
499.377616	0.054781
499.596210	0.054965
499.814787	0.054247
500.033345	0.054132
500.251885	0.055327
500.470406	0.055590
500.688910	0.056140
500.907395	0.055474
501.125862	0.055211
501.344311	0.056595
501.562742	0.056186
501.781154	0.058187
501.999548	0.058879
502.217924	0.057540
502.436282	0.057399
502.654621	0.057244
502.872942	0.057557
503.091245	0.057674
503.309530	0.057426
503.527797	0.057272
503.746045	0.056628
503.964275	0.055504
504.182487	0.056201
504.400681	0.056383
504.618856	0.055845
504.837013	0.056332
505.055152	0.055896
505.273273	0.055210
505.491376	0.055516
505.709460	0.055383
505.927526	0.055503
506.145574	0.055182
506.363604	0.055975
506.581615	0.055703
506.799608	0.055083
507.017583	0.054172
507.235540	0.054160
507.453478	0.054003
507.671399	0.053612
507.889301	0.053705
508.107185	0.053988
508.325050	0.053761
508.542898	0.054597
508.760727	0.054497
508.978538	0.055878
509.196330	0.055969
509.414105	0.056013
509.631861	0.056345
509.849599	0.056439
510.067319	0.056285
510.285021	0.055791
510.502704	0.056072
510.720369	0.056239
510.938016	0.056635
511.155645	0.056822
511.373255	0.057000
511.590848	0.056529
511.808422	0.056105
512.025977	0.055726
512.243515	0.055508
512.461034	0.054690
512.678536	0.054517
512.896018	0.053674
513.113483	0.053177
513.330930	0.052547
513.548358	0.053213
513.765768	0.053542
513.983160	0.053429
514.200533	0.053648
514.417889	0.054084
514.635226	0.054403
514.852545	0.054155
515.069845	0.054421
515.287128	0.054994
515.504392	0.054745
515.721638	0.054903
515.938866	0.055802
516.156075	0.056121
516.373267	0.055680
516.590440	0.054948
516.807594	0.054317
517.024731	0.054897
517.241850	0.054397
517.458950	0.054128
517.676032	0.054191
517.893095	0.053841
518.110141	0.054026
518.327168	0.054497
518.544177	0.055013
518.761168	0.056047
518.978141	0.055023
519.195095	0.055319
519.412031	0.055069
519.628949	0.055807
519.845849	0.055462
520.062731	0.055258
520.279594	0.055130
520.496439	0.055143
520.713266	0.055060
520.930074	0.055022
521.146865	0.055399
521.363637	0.056443
521.580391	0.055678
521.797127	0.055543
522.013844	0.055429
522.230543	0.055451
522.447224	0.055127
522.663887	0.055340
522.880532	0.056001
523.097158	0.055506
523.313766	0.054913
523.530356	0.054709
523.746928	0.055151
523.963481	0.055006
524.180017	0.054994
524.396534	0.055122
524.613032	0.055278
524.829513	0.055479
525.045975	0.055453
525.262420	0.055786
525.478845	0.056390
525.695253	0.056260
525.911643	0.055995
526.128014	0.055985
526.344367	0.056470
526.560702	0.056162
526.777018	0.056181
526.993316	0.056635
527.209597	0.056973
527.425858	0.056793
527.642102	0.057277
527.858328	0.057339
528.074535	0.057972
528.290724	0.057842
528.506894	0.057906
528.723047	0.057781
528.939181	0.058043
529.155297	0.057890
529.371395	0.057852
529.587475	0.057571
529.803536	0.057884
530.019579	0.057288
530.235604	0.057122
530.451611	0.057443
530.667600	0.057350
530.883570	0.057099
531.099522	0.056536
531.315456	0.056075
531.531372	0.055861
531.747269	0.056345
531.963148	0.056794
532.179009	0.057052
532.394852	0.057069
532.610676	0.056904
532.826482	0.056260
533.042271	0.055970
533.258040	0.056272
533.473792	0.056128
533.689525	0.055237
533.905240	0.055118
534.120937	0.054795
534.336616	0.054439
534.552277	0.054638
534.767919	0.054689
534.983543	0.055314
535.199149	0.055547
535.414736	0.055832
535.630306	0.056075
535.845857	0.055823
536.061390	0.055922
536.276904	0.055734
536.492401	0.055485
536.707879	0.055899
536.923339	0.055695
537.138781	0.055139
537.354204	0.054720
537.569610	0.054961
537.784997	0.054913
538.000366	0.054918
538.215716	0.055123
538.431049	0.055493
538.646363	0.055685
538.861659	0.055625
539.076937	0.056077
539.292196	0.056432
539.507438	0.056089
539.722661	0.056446
539.937866	0.056512
540.153052	0.056526
540.368221	0.055991
540.583371	0.055725
540.798503	0.055467
541.013617	0.055136
541.228712	0.054907
541.443789	0.055151
541.658848	0.054753
541.873889	0.054574
542.088912	0.054754
542.303916	0.054962
542.518902	0.055121
542.733870	0.055517
542.948820	0.055669
543.163752	0.056233
543.378665	0.056498
543.593560	0.056590
543.808437	0.056300
544.023295	0.055870
544.238136	0.055816
544.452958	0.055440
544.667762	0.055180
544.882548	0.055274
545.097315	0.055477
545.312064	0.055374
545.526795	0.055643
545.741508	0.056124
545.956203	0.056352
546.170879	0.056564
546.385537	0.056941
546.600177	0.057354
546.814799	0.057475
547.029402	0.056869
547.243988	0.056566
547.458555	0.056391
547.673103	0.056365
547.887634	0.056541
548.102146	0.056461
548.316640	0.056555
548.531116	0.056584
548.745574	0.056797
548.960013	0.056768
549.174435	0.057530
549.388838	0.057822
549.603222	0.057694
549.817589	0.057645
550.031937	0.057907
550.246267	0.057878
550.460579	0.057801
550.674873	0.057962
550.889148	0.058409
551.103405	0.058219
551.317644	0.058082
551.531865	0.058314
551.746068	0.058513
551.960252	0.058323
552.174418	0.058100
552.388566	0.058172
552.602696	0.057817
552.816807	0.057731
553.030900	0.057215
553.244975	0.057251
553.459032	0.057328
553.673070	0.057262
553.887091	0.057456
554.101093	0.057733
554.315077	0.057860
554.529042	0.057945
554.742990	0.057484
554.956919	0.057910
555.170830	0.057528
555.384722	0.057840
555.598597	0.057903
555.812453	0.058013
556.026291	0.058003
556.240111	0.057992
556.453913	0.058321
556.667696	0.058788
556.881461	0.058852
557.095208	0.058493
557.308937	0.058065
557.522647	0.058108
557.736339	0.057902
557.950013	0.058099
558.163669	0.058018
558.377307	0.057768
558.590926	0.057650
558.804527	0.057700
559.018110	0.058625
559.231675	0.058851
559.445221	0.058793
559.658749	0.058893
559.872259	0.058705
560.085751	0.058541
560.299225	0.058544
560.512680	0.058692
560.726117	0.058512
560.939536	0.058372
561.152937	0.058372
561.366319	0.058389
561.579683	0.058410
561.793029	0.058853
562.006357	0.059022
562.219667	0.059415
562.432958	0.059461
562.646231	0.059720
562.859486	0.059973
563.072723	0.060098
563.285941	0.060521
563.499141	0.060785
563.712323	0.060943
563.925487	0.061357
564.138632	0.061367
564.351760	0.061710
564.564869	0.061543
564.777960	0.061301
564.991032	0.061167
565.204087	0.060994
565.417123	0.061126
565.630141	0.060864
565.843140	0.060588
566.056122	0.060485
566.269085	0.059911
566.482030	0.059965
566.694957	0.060080
566.907866	0.060042
567.120756	0.059939
567.333628	0.059629
567.546482	0.059691
567.759318	0.059667
567.972135	0.059645
568.184935	0.060184
568.397716	0.059998
568.610478	0.060085
568.823223	0.060574
569.035949	0.060606
569.248657	0.060478
569.461347	0.060574
569.674019	0.060751
569.886672	0.060789
570.099308	0.060680
570.311925	0.061136
570.524523	0.061112
570.737104	0.060890
570.949666	0.060708
571.162210	0.061151
571.374736	0.061086
571.587244	0.060966
571.799733	0.060889
572.012205	0.060936
572.224658	0.061011
572.437092	0.061176
572.649509	0.061299
572.861907	0.061417
573.074287	0.061564
573.286649	0.061462
573.498993	0.061287
573.711318	0.061397
573.923625	0.061601
574.135914	0.061513
574.348185	0.061555
574.560438	0.061645
574.772672	0.061929
574.984888	0.061899
575.197086	0.062140
575.409266	0.062881
575.621427	0.063307
575.833570	0.063403
576.045695	0.063281
576.257802	0.063343
576.469890	0.063394
576.681961	0.063593
576.894013	0.063629
577.106046	0.063682
577.318062	0.063138
577.530059	0.062887
577.742039	0.062653
577.954000	0.062910
578.165942	0.062830
578.377867	0.062978
578.589773	0.062943
578.801661	0.062899
579.013531	0.063089
579.225382	0.063482
579.437216	0.063633
579.649031	0.063809
579.860828	0.063844
580.072606	0.064031
580.284367	0.063967
580.496109	0.064103
580.707833	0.063937
580.919539	0.063840
581.131227	0.063828
581.342896	0.063908
581.554547	0.063894
581.766180	0.064092
581.977795	0.064116
582.189391	0.064115
582.400969	0.064316
582.612529	0.064940
582.824071	0.064910
583.035595	0.064887
583.247100	0.064881
583.458587	0.065155
583.670056	0.064976
583.881506	0.065072
584.092939	0.065212
584.304353	0.065303
584.515749	0.065010
584.727127	0.065248
584.938486	0.065636
585.149828	0.065946
585.361151	0.065881
585.572456	0.066007
585.783742	0.066260
585.995011	0.066251
586.206261	0.066228
586.417493	0.066473
586.628706	0.066926
586.839902	0.067173
587.051079	0.066998
587.262238	0.066850
587.473379	0.066985
587.684502	0.066881
587.895606	0.067011
588.106692	0.066746
588.317760	0.066823
588.528810	0.066583
588.739841	0.066226
588.950855	0.066342
589.161850	0.066788
589.372827	0.066909
589.583785	0.067039
589.794726	0.067292
590.005648	0.067898
590.216552	0.067653
590.427437	0.067508
590.638305	0.067583
590.849154	0.067698
591.059985	0.067513
591.270798	0.067606
591.481592	0.067572
591.692369	0.067223
591.903127	0.066596
592.113867	0.066905
592.324588	0.067093
592.535292	0.067064
592.745977	0.066911
592.956644	0.067242
593.167293	0.067035
593.377923	0.066852
593.588536	0.067197
593.799130	0.067331
594.009706	0.067263
594.220263	0.066942
594.430803	0.067125
594.641324	0.067058
594.851827	0.067019
595.062312	0.067029
595.272778	0.067331
595.483227	0.067441
595.693657	0.067579
595.904069	0.067740
596.114462	0.068011
596.324838	0.067875
596.535195	0.068081
596.745534	0.068117
596.955855	0.068526
597.166157	0.068613
597.376441	0.068295
597.586707	0.068337
597.796955	0.068309
598.007185	0.068326
598.217396	0.068538
598.427589	0.068216
598.637764	0.068184
598.847921	0.067941
599.058060	0.067763
599.268180	0.068059
599.478282	0.068265
599.688366	0.067961
599.898431	0.067973
600.108479	0.067873
600.318508	0.068076
600.528519	0.068031
600.738511	0.068240
600.948486	0.068266
601.158442	0.068304
601.368380	0.068073
601.578300	0.068362
601.788202	0.068187
601.998085	0.068139
602.207950	0.068377
602.417797	0.068507
602.627626	0.068415
602.837436	0.068331
603.047228	0.068228
603.257002	0.068537
603.466758	0.068542
603.676496	0.068530
603.886215	0.068405
604.095916	0.068082
604.305599	0.068020
604.515264	0.068124
604.724910	0.068604
604.934538	0.068674
605.144148	0.068661
605.353740	0.068905
605.563314	0.069194
605.772869	0.069504
605.982406	0.069945
606.191925	0.070094
606.401425	0.070033
606.610908	0.069860
606.820372	0.069835
607.029818	0.070000
607.239246	0.070106
607.448655	0.070097
607.658047	0.070132
607.867420	0.069887
608.076775	0.069878
608.286111	0.069863
608.495430	0.069896
608.704730	0.069857
608.914012	0.069800
609.123275	0.069578
609.332521	0.069819
609.541748	0.069912
609.750957	0.070027
609.960148	0.070092
610.169321	0.070265
610.378475	0.069909
610.587611	0.070087
610.796729	0.069892
611.005829	0.070002
611.214910	0.069884
611.423974	0.069816
611.633019	0.069934
611.842045	0.069951
612.051054	0.069610
612.260044	0.069747
612.469017	0.069764
612.677970	0.069584
612.886906	0.069521
613.095824	0.069595
613.304723	0.069557
613.513604	0.069328
613.722467	0.069337
613.931311	0.069570
614.140138	0.070008
614.348946	0.070274
614.557736	0.070484
614.766507	0.070703
614.975261	0.070570
615.183996	0.070698
615.392713	0.071039
615.601412	0.070917
615.810092	0.071137
616.018754	0.071204
616.227399	0.070724
616.436024	0.071134
616.644632	0.071138
616.853222	0.071258
617.061793	0.071401
617.270346	0.071459
617.478880	0.071716
617.687397	0.071691
617.895895	0.071351
618.104375	0.071727
618.312837	0.071706
618.521281	0.071535
618.729706	0.071582
618.938113	0.071442
619.146502	0.071485
619.354873	0.071369
619.563226	0.071381
619.771560	0.071667
619.979876	0.071620
620.188174	0.071578
620.396453	0.071713
620.604715	0.071720
620.812958	0.071794
621.021183	0.071792
621.229390	0.071802
621.437578	0.071802
621.645748	0.071813
621.853900	0.071770
622.062034	0.071718
622.270150	0.071894
622.478247	0.072045
622.686326	0.072245
622.894387	0.072237
623.102430	0.072242
623.310454	0.072375
623.518461	0.072361
623.726449	0.072414
623.934418	0.072224
624.142370	0.072204
624.350303	0.072332
624.558218	0.072221
624.766115	0.072368
624.973994	0.072366
625.181855	0.072190
625.389697	0.072001
625.597521	0.072061
625.805327	0.072277
626.013114	0.072114
626.220883	0.071941
626.428634	0.071945
626.636367	0.071934
626.844082	0.071997
627.051778	0.072065
627.259457	0.072012
627.467117	0.071901
627.674758	0.071886
627.882382	0.072083
628.089987	0.071958
628.297574	0.071854
628.505143	0.071729
628.712694	0.071730
628.920226	0.071709
629.127740	0.072075
629.335236	0.072114
629.542714	0.072217
629.750174	0.072107
629.957615	0.072267
630.165038	0.072537
630.372443	0.072825
630.579829	0.073051
630.787198	0.073147
630.994548	0.073067
631.201880	0.073164
631.409194	0.072936
631.616489	0.072929
631.823766	0.073145
632.031025	0.073243
632.238266	0.073164
632.445489	0.073047
632.652693	0.073054
632.859879	0.073161
633.067047	0.073237
633.274197	0.073658
633.481329	0.073675
633.688442	0.073630
633.895537	0.073674
634.102614	0.073495
634.309672	0.073601
634.516713	0.073543
634.723735	0.073562
634.930739	0.073261
635.137724	0.073126
635.344692	0.073213
635.551641	0.073094
635.758572	0.072909
635.965485	0.073084
636.172379	0.073125
636.379256	0.073254
636.586114	0.073339
636.792954	0.073646
636.999775	0.073635
637.206579	0.073581
637.413364	0.073693
637.620131	0.073889
637.826880	0.074038
638.033610	0.074114
638.240323	0.074225
638.447017	0.074278
638.653692	0.074490
638.860350	0.074545
639.066990	0.074683
639.273611	0.074664
639.480214	0.074905
639.686798	0.074939
639.893365	0.075076
640.099913	0.075102
640.306443	0.075336
640.512955	0.075589
640.719449	0.075785
640.925924	0.075937
641.132381	0.076126
641.338820	0.075912
641.545241	0.075754
641.751644	0.075771
641.958028	0.075874
642.164394	0.075754
642.370742	0.075570
642.577071	0.075591
642.783383	0.075593
642.989676	0.075683
643.195951	0.075825
643.402207	0.076081
643.608446	0.075936
643.814666	0.075991
644.020868	0.076059
644.227052	0.076051
644.433218	0.076098
644.639365	0.076100
644.845494	0.076148
645.051605	0.075972
645.257698	0.075948
645.463772	0.076137
645.669828	0.076059
645.875866	0.075987
646.081886	0.076000
646.287888	0.075873
646.493871	0.075873
646.699836	0.075896
646.905783	0.076181
647.111712	0.076058
647.317622	0.075901
647.523514	0.075963
647.729388	0.075779
647.935244	0.075798
648.141082	0.075936
648.346901	0.076267
648.552702	0.076077
648.758485	0.075884
648.964250	0.075942
649.169996	0.075998
649.375724	0.076196
649.581434	0.076474
649.787126	0.076660
649.992800	0.076586
650.198455	0.076288
650.404092	0.076431
650.609711	0.076514
650.815311	0.076729
651.020894	0.076824
651.226458	0.076548
651.432004	0.076533
651.637532	0.076277
651.843041	0.076493
652.048532	0.076564
652.254006	0.076514
652.459460	0.076605
652.664897	0.076433
652.870315	0.076266
653.075716	0.076566
653.281097	0.076336
653.486461	0.076431
653.691807	0.076390
653.897134	0.076502
654.102443	0.076810
654.307734	0.076875
654.513006	0.077054
654.718261	0.077421
654.923497	0.077315
655.128715	0.077717
655.333915	0.077826
655.539096	0.077965
655.744259	0.077982
655.949404	0.077742
656.154531	0.077805
656.359640	0.077745
656.564730	0.077805
656.769802	0.078094
656.974856	0.078124
657.179892	0.078125
657.384909	0.077853
657.589908	0.077969
657.794889	0.078161
657.999852	0.078189
658.204797	0.078508
658.409723	0.078372
658.614631	0.078304
658.819521	0.078196
659.024393	0.078366
659.229246	0.078554
659.434081	0.078540
659.638898	0.078611
659.843697	0.078437
660.048478	0.078208
660.253240	0.078277
660.457984	0.078300
660.662710	0.078301
660.867417	0.078233
661.072107	0.078279
661.276778	0.078369
661.481431	0.078293
661.686066	0.078510
661.890682	0.078653
662.095281	0.078743
662.299861	0.078928
662.504422	0.079111
662.708966	0.079460
662.913491	0.079581
663.117999	0.079615
663.322488	0.079711
663.526958	0.079654
663.731411	0.079645
663.935845	0.079651
664.140261	0.079539
664.344659	0.079403
664.549038	0.079064
664.753400	0.079019
664.957743	0.078935
665.162068	0.078989
665.366375	0.079215
665.570663	0.079118
665.774933	0.079286
665.979185	0.079301
666.183419	0.079683
666.387635	0.079899
666.591832	0.079939
666.796011	0.080094
667.000172	0.080084
667.204315	0.080148
667.408439	0.080325
667.612545	0.080240
667.816634	0.080426
668.020703	0.080231
668.224755	0.080215
668.428788	0.080337
668.632803	0.080275
668.836800	0.080383
669.040779	0.080302
669.244739	0.080221
669.448681	0.080468
669.652605	0.080456
669.856511	0.080644
670.060399	0.080687
670.264268	0.080805
670.468119	0.080885
670.671952	0.081001
670.875767	0.081096
671.079563	0.081148
671.283341	0.081026
671.487101	0.080886
671.690843	0.080756
671.894567	0.080653
672.098272	0.080691
672.301959	0.080853
672.505628	0.080742
672.709278	0.080809
672.912911	0.081006
673.116525	0.080954
673.320121	0.081084
673.523699	0.081200
673.727258	0.081270
673.930799	0.081191
674.134322	0.081092
674.337827	0.081098
674.541314	0.080961
674.744782	0.080990
674.948232	0.081002
675.151664	0.081045
675.355078	0.081144
675.558474	0.081143
675.761851	0.081186
675.965210	0.081343
676.168551	0.081260
676.371873	0.081406
676.575178	0.081369
676.778464	0.081295
676.981732	0.081234
677.184981	0.081108
677.388213	0.081296
677.591426	0.081336
677.794621	0.081200
677.997798	0.081300
678.200956	0.081252
678.404097	0.081253
678.607219	0.081564
678.810323	0.081716
679.013408	0.081914
679.216476	0.081960
679.419525	0.082024
679.622556	0.082260
679.825569	0.082612
680.028563	0.082814
680.231540	0.083102
680.434498	0.082984
680.637438	0.082935
680.840359	0.082880
681.043263	0.082954
681.246148	0.082943
681.449015	0.082825
681.651864	0.082732
681.854694	0.082649
682.057506	0.082683
682.260301	0.082727
682.463076	0.082831
682.665834	0.082858
682.868573	0.082964
683.071295	0.083206
683.273998	0.083444
683.476682	0.083524
683.679349	0.083583
683.881997	0.083528
684.084627	0.083684
684.287239	0.083793
684.489833	0.083822
684.692408	0.083627
684.894965	0.083475
685.097504	0.083299
685.300025	0.083221
685.502527	0.083046
685.705012	0.082857
685.907478	0.082741
686.109925	0.082612
686.312355	0.082800
686.514766	0.082920
686.717159	0.083128
686.919534	0.083151
687.121891	0.083225
687.324230	0.083359
687.526550	0.083431
687.728852	0.083452
687.931136	0.083562
688.133401	0.083578
688.335649	0.083628
688.537878	0.083306
688.740089	0.083233
688.942281	0.083183
689.144456	0.083289
689.346612	0.083378
689.548750	0.083296
689.750870	0.083321
689.952971	0.083289
690.155055	0.083205
690.357120	0.083198
690.559167	0.083351
690.761195	0.083310
690.963206	0.083299
691.165198	0.083224
691.367172	0.083403
691.569128	0.083472
691.771065	0.083492
691.972984	0.083767
692.174885	0.083965
692.376768	0.084118
692.578633	0.084198
692.780479	0.084324
692.982308	0.084417
693.184118	0.084714
693.385909	0.084729
