sample name	sample
index	114
start time	 02-15-2021  11:54:29 AM
880	0.426433
Peak Time (s)	92.541
Peak Height 	0.4264
calc peak height	90,93
Baseline Time (s)	9.537
Baseline Value 	-0.001004
subtract baseline	10,4
Abs	0.315354
Peak Time (s)	92.038
Peak Height 	0.3154
calc peak height	90,93
Baseline Time (s)	9.037
Baseline Value 	-3.0878E-4
subtract baseline	10,3
PK_550	0.159831
Peak Time (s)	90.036
Peak Height 	0.1598
calc peak height	90,93
Baseline Time (s)	9.537
Baseline Value 	5.338E-4
subtract baseline	10,2
PK_880	0.294567
Peak Time (s)	92.541
Peak Height 	0.2946
calc peak height	90,93
Baseline Time (s)	8.536
Baseline Value 	2.121E-4
subtract baseline	10,1


Time (s)	A880-A510	A880-A775	A880-A975	A880	I510	I775	I975	I880	
0.033500	0.002772	-0.000672	-0.011723	0.001979	4234.778314	15569.258596	3229.473986	8885.743549
0.536500	-0.001295	-0.001744	0.001866	0.002704	4221.230763	15517.540524	3237.891537	8875.895663
1.037500	0.005197	-0.000664	-0.000793	0.003737	4236.675895	15518.894416	3235.450624	8861.898366
1.535000	-0.002457	-0.000256	0.005939	0.000647	4223.751434	15619.774865	3241.992046	8903.878770
2.035000	-0.002484	-0.001148	0.005233	0.001571	4221.073249	15567.291040	3240.896166	8891.295443
2.535500	0.003440	0.000501	-0.008411	0.000902	4239.750780	15634.310284	3232.318200	8900.401028
3.039000	0.002422	0.000710	0.000264	-0.001517	4243.754397	15710.727575	3239.636341	8933.446885
3.535500	0.002534	-0.001819	-0.005746	-0.002136	4245.849364	15655.150454	3236.056721	8941.942315
4.036500	0.002270	-0.000598	0.005424	0.002237	4232.619263	15563.955494	3240.577074	8882.234103
4.537000	-0.003134	0.000978	0.004149	0.001070	4220.656242	15643.302347	3240.504948	8898.115291
5.036500	-0.000102	-0.001825	-0.001431	-0.002102	4238.213733	15653.976245	3238.895685	8941.470080
5.537500	0.004109	0.000685	-0.003801	0.000707	4242.217399	15645.307696	3235.464378	8903.054532
6.035000	-0.002364	0.001057	-0.000048	-0.000090	4226.092110	15679.273327	3238.476443	8913.932078
6.535000	0.001713	-0.000603	0.002450	-0.000419	4238.591757	15640.626790	3240.364071	8918.426664
7.035500	0.003067	0.000528	-0.008630	0.000024	4241.192963	15660.582189	3232.747735	8912.380157
7.538500	0.002520	0.000555	0.001243	-0.000565	4241.313718	15678.496734	3239.654674	8920.428167
8.036000	0.003091	-0.000376	-0.000823	-0.001036	4244.292059	15665.097859	3238.590502	8926.859588
8.536000	0.000000	-0.001511	0.002015	-0.002172	4238.704062	15665.132539	3241.248084	8942.428450
9.036500	0.002614	-0.001895	0.000000	-0.001523	4244.323582	15635.161913	3239.464135	8933.538330
9.536500	-0.000931	0.000000	0.018106	0.000000	4229.886580	15645.950510	3250.751152	8912.702381
10.037000	-0.001187	0.000372	-0.002154	0.000372	4228.111088	15645.972446	3236.772814	8907.629673
10.534500	0.003239	0.000464	-0.005483	-0.000818	4244.091856	15683.208090	3235.361594	8923.883561
11.034500	0.000541	-0.000125	-0.004727	0.000347	4233.078169	15632.270163	3235.092096	8907.966186
11.535000	-0.002614	0.000670	0.012826	0.000129	4224.767964	15661.651844	3247.022322	8910.944229
12.035500	0.000977	-0.000732	-0.006158	-0.000486	4236.684442	15638.797499	3234.699226	8919.338017
12.536000	0.004238	0.000693	-0.000323	0.000992	4241.773217	15637.296463	3237.575079	8899.175845
13.036000	0.000585	0.001298	0.001902	-0.001631	4238.832475	15731.228046	3240.809460	8935.017213
13.536000	0.002117	0.000608	0.020490	-0.001091	4241.663875	15695.358964	3253.171322	8927.620388
14.037000	-0.000408	-0.001493	0.004047	0.004457	4218.797446	15474.452971	3238.176287	8852.157177
14.536500	0.000536	0.000143	-0.010718	0.002956	4225.678512	15564.579888	3229.492164	8872.480580
15.036500	0.006489	0.001756	0.008988	0.000894	4248.506847	15670.999628	3243.885009	8900.514103
15.535500	0.002515	-0.000401	-0.006767	-0.000999	4242.538010	15663.323188	3234.636120	8926.361843
16.035000	0.000636	0.000612	-0.004341	0.006865	4214.978074	15465.794474	3231.088207	8819.705291
16.535000	0.005364	0.000945	0.005731	0.000061	4247.664631	15671.634551	3242.246225	8911.865206
17.038000	-0.001693	0.001321	0.003185	0.000344	4226.759470	15674.320160	3240.345290	8908.002313
17.540500	0.003060	0.001056	0.010265	-0.003102	4250.136931	15767.187691	3247.481155	8955.212113
18.036000	-0.001513	0.000034	0.000128	0.003160	4219.338172	15555.564827	3236.438315	8869.714336
18.536500	-0.000822	0.001499	0.001313	0.001802	4225.102459	15637.151387	3238.123096	8888.143805
19.037000	0.001133	-0.000243	0.000210	0.000617	4233.991879	15621.037001	3238.178163	8904.286123
19.536500	-0.002238	-0.001932	0.013319	-0.000252	4226.904336	15597.300484	3247.621430	8916.148237
20.034500	0.003195	0.000277	0.018328	0.002958	4233.200109	15568.381789	3248.858791	8872.449388
20.535000	-0.000846	0.001153	-0.005026	0.000914	4227.544225	15652.900237	3234.523198	8900.238171
21.035500	0.000612	0.000064	0.008331	0.000429	4233.044917	15635.349488	3243.754805	8906.843577
21.535500	0.001626	0.001124	-0.009722	0.001628	4232.520594	15631.319582	3230.994220	8890.509012
22.036000	0.000660	0.000600	0.012488	0.003328	4224.979827	15567.052690	3244.608986	8867.439941
22.536000	0.002114	0.000558	0.007795	0.002159	4232.399939	15599.566614	3242.223158	8883.296972
23.036500	-0.000882	0.001169	-0.001384	0.001420	4226.012612	15638.668079	3236.589108	8893.349378
23.536500	0.001167	0.000678	0.010520	0.001953	4230.298252	15609.009834	3244.206046	8886.098081
24.037000	0.002401	0.001661	0.006327	0.002930	4231.026285	15609.165035	3240.717952	8872.829757
24.537500	0.000185	-0.000006	0.009431	0.001260	4229.477577	15609.264993	3243.936479	8895.516656
25.034500	0.002760	0.002711	0.006613	0.004088	4228.763576	15606.060313	3240.134319	8857.149958
25.535500	-0.001290	0.000926	0.011042	0.002163	4222.766279	15610.089834	3244.417397	8883.238918
26.035500	-0.000599	0.000473	-0.004599	0.003505	4220.937623	15558.273434	3233.106418	8865.041610
26.537500	0.000682	0.001200	0.002496	0.002584	4227.141645	15605.868380	3238.390340	8877.528833
27.036000	0.002685	0.000276	0.000931	0.001950	4234.613833	15597.446182	3237.771625	8886.131923
27.536000	0.002358	0.000869	0.004152	0.002131	4233.168833	15609.367002	3239.796291	8883.670032
28.036500	0.000009	0.000416	0.015063	0.005557	4216.884153	15497.647656	3244.843472	8837.308926
28.536500	0.000571	0.000316	0.018923	0.000320	4233.237808	15645.806424	3251.095789	8908.327905
29.045000	-0.002672	0.000321	-0.004534	0.000399	4223.842790	15643.698187	3235.185188	8907.261126
29.537500	0.001380	0.001945	0.004384	0.002099	4230.488573	15641.486550	3239.973232	8884.112640
30.034500	0.003281	0.001774	0.015112	0.007399	4220.896564	15483.754722	3243.626855	8812.527361
30.535000	-0.000325	-0.000002	-0.009351	0.000177	4231.104301	15640.777140	3232.177925	8910.288921
31.036000	0.006308	0.001213	0.009262	0.001547	4246.111476	15636.249202	3243.628283	8891.616041
31.535500	0.003060	-0.000516	0.017684	0.002320	4234.627865	15563.907007	3248.854504	8881.109088
32.036500	-0.004997	-0.001824	0.003766	0.003568	4208.460852	15490.420377	3238.580655	8864.179108
32.582500	-0.000363	-0.001874	0.008951	-0.000675	4233.412960	15611.207976	3244.925444	8921.924830
33.036500	0.002697	0.000266	0.019101	0.000859	4237.753888	15628.756948	3250.845294	8900.988263
33.539500	0.001265	-0.001580	0.003592	-0.001170	4239.456899	15634.082060	3241.634791	8928.705305
34.040500	0.003145	0.000225	0.013692	0.006268	4223.695207	15471.800889	3243.430979	8827.726561
34.534500	0.000693	0.000139	0.007740	0.001724	4229.603915	15600.048478	3242.479953	8889.210102
35.035000	0.003167	0.000110	0.007388	0.003115	4232.671883	15559.042428	3241.305784	8870.316579
35.535500	0.002090	0.001303	-0.005325	0.003515	4228.492027	15581.923946	3232.626774	8864.907211
36.039000	-0.002846	0.000820	-0.012031	0.005239	4209.796560	15518.372287	3227.183195	8841.600381
36.550000	-0.003707	-0.000859	-0.012574	0.001556	4217.682396	15576.047188	3229.197946	8891.488500
37.038500	-0.001628	-0.000382	0.008252	0.002601	4220.583167	15559.688007	3242.233297	8877.290714
37.537000	0.000195	0.000463	0.001302	0.003495	4223.196627	15558.262612	3236.993253	8865.172221
38.036500	0.004725	0.000880	0.000639	0.004938	4231.921023	15528.722453	3235.602174	8845.655880
38.573500	0.004332	0.002027	0.008581	0.004597	4231.773885	15571.578394	3241.111561	8850.261074
39.603500	0.002091	0.000063	-0.010427	0.002599	4231.086563	15572.580849	3229.910579	8877.324977
39.963500	0.002134	-0.000424	0.000882	0.004433	4226.021604	15505.782615	3236.095865	8852.481593
40.145500	-0.002839	0.000414	0.008003	0.003479	4214.728611	15557.301137	3241.474755	8865.384410
40.538500	0.004426	0.000217	0.001701	0.003711	4234.556321	15544.950218	3237.114438	8862.244053
41.036000	0.002128	0.000882	0.004395	0.004474	4225.885583	15542.136196	3238.395900	8851.923901
41.536000	0.000017	0.001956	0.013982	0.003768	4221.927966	15593.477507	3245.325750	8861.475462
42.036500	-0.001998	-0.001040	0.002096	0.002851	4218.842952	15533.534462	3237.947050	8873.903394
42.536500	0.002916	-0.000931	0.002115	0.002711	4233.109395	15540.697911	3238.052244	8875.800216
43.037000	-0.000215	0.000070	0.013829	0.003130	4223.071080	15557.464761	3245.656410	8870.124393
43.537500	0.000760	0.001027	0.007797	0.004468	4222.049511	15546.500803	3240.672266	8852.009511
44.037500	-0.004263	-0.000097	0.002612	0.003394	4210.990268	15545.056768	3237.928718	8866.539808
44.534500	0.002743	0.001051	0.005694	-0.000618	4242.100350	15694.454985	3242.679133	8921.140537
45.037500	0.006110	0.001171	0.021055	-0.001468	4254.217476	15722.759650	3253.830609	8932.778974
45.535500	0.005945	0.001053	0.001735	0.001411	4245.460372	15635.570974	3238.664504	8893.466180
46.035500	-0.002081	-0.000371	0.004051	0.001681	4221.895653	15586.525016	3240.029504	8889.787500
46.536000	0.002811	-0.000442	0.006035	0.000540	4238.988556	15617.490735	3242.128637	8905.333800
47.036000	0.004202	0.001080	0.021042	0.001303	4240.782033	15639.500061	3251.886108	8894.939831
47.536500	0.000541	0.000338	0.013603	0.001481	4229.861580	15612.808732	3246.628247	8892.508925
48.036500	0.002416	0.001393	-0.010005	0.006417	4221.225625	15501.005579	3227.726323	8825.733391
48.537500	0.000522	0.000113	0.017294	0.003604	4223.809835	15545.040435	3247.702645	8863.691865
49.034500	-0.000304	-0.000610	0.002102	0.000633	4229.870226	15609.946223	3239.428072	8904.066595
49.538000	0.004833	0.001074	0.005969	0.001535	4241.920651	15632.583037	3241.414128	8891.784221
50.038000	0.001375	0.000733	0.008455	0.004886	4222.604219	15526.024264	3240.833421	8846.367890
50.535500	0.002497	-0.000454	0.009148	-0.002510	4246.816584	15705.762891	3246.311342	8947.078011
51.036000	0.003345	0.002100	0.019489	-0.010112	4271.307761	16005.353166	3258.831209	9052.389837
51.536500	0.004046	-0.000011	0.015942	0.023526	4178.469971	14981.078553	3233.446235	8600.013832
52.036500	-0.067368	-0.032609	0.005828	0.149337	3748.392767	11332.399844	3157.133480	7187.232296
52.536500	-0.014613	-0.012852	-0.004377	-0.098485	4495.057592	18392.908526	3308.368824	10422.125152
53.037000	-0.000797	-0.010521	0.016558	-0.172164	4828.705951	21328.951487	3395.727345	11797.636250
53.537000	-0.000021	-0.009238	0.022265	-0.086999	4505.784068	18117.179427	3321.114983	10227.950127
54.034500	-0.000719	-0.008043	0.002004	-0.067586	4437.653074	17497.915322	3288.669058	9911.220186
54.534500	0.019454	-0.004117	0.012938	-0.063255	4491.056199	17484.448093	3293.864932	9842.467002
55.035500	0.033747	-0.000407	0.039883	-0.072044	4572.440566	17906.144079	3323.400524	9982.715944
55.538500	0.046204	0.005272	0.045890	-0.047821	4530.415565	17284.822971	3308.041022	9602.969345
56.036000	0.057386	0.010462	0.064678	-0.012887	4448.972254	16342.082971	3294.955475	9091.299371
56.536500	0.077168	0.011640	0.072469	0.006932	4448.850808	15783.304970	3285.518078	8818.801820
57.036500	0.084387	0.020728	0.084850	0.050948	4331.160814	14798.792361	3261.910288	8256.293660
57.537000	0.099975	0.023156	0.108303	0.083408	4280.446348	14013.336786	3255.497952	7876.512316
58.037500	0.119871	0.035630	0.136677	0.115062	4246.250610	13539.364289	3253.195438	7532.510828
58.534000	0.142018	0.048302	0.151571	0.157311	4189.888215	12848.321757	3234.654677	7110.746315
59.035000	0.167273	0.061385	0.164330	0.207889	4122.501806	12037.286329	3210.871909	6656.932938
59.538000	0.184185	0.074053	0.203800	0.236310	4093.146219	11716.859930	3217.606865	6424.178906
60.036000	0.197788	0.085550	0.218434	0.267525	4049.709223	11331.836077	3207.562389	6185.501126
60.536000	0.209150	0.095968	0.228008	0.289412	4024.581616	11115.823667	3200.348391	6028.094044
61.036000	0.226160	0.105179	0.254543	0.316184	4001.811830	10795.886932	3200.211421	5846.029661
61.535500	0.240409	0.114785	0.266082	0.332740	3996.505115	10672.810645	3197.331815	5738.933060
62.036500	0.246088	0.118238	0.259014	0.340020	3992.840342	10605.869515	3189.276924	5693.115661
62.541500	0.252595	0.124969	0.278639	0.343307	4000.227054	10666.089857	3198.470300	5672.678733
63.037500	0.257149	0.126767	0.269519	0.324639	4055.156011	11033.926924	3204.004940	5790.827798
63.535000	0.260221	0.133332	0.268210	0.328995	4052.039919	11074.659229	3200.706093	5762.799331
64.035500	0.271212	0.138693	0.277830	0.335678	4062.527406	11050.263949	3202.411151	5720.349609
64.535000	0.270989	0.138846	0.277943	0.336702	4059.480486	11034.216159	3201.881019	5713.900713
65.035500	0.272087	0.140908	0.289134	0.343005	4046.860974	10956.563190	3204.737558	5674.547432
65.536500	0.265020	0.139628	0.269271	0.343232	4029.429722	10929.155730	3193.198927	5673.144261
66.036500	0.274838	0.145674	0.280155	0.353720	4027.840351	10848.880086	3193.420641	5608.944679
66.537000	0.276176	0.146234	0.289076	0.356546	4024.328200	10808.276981	3196.868851	5591.915976
67.037000	0.278782	0.145083	0.298876	0.357911	4027.257627	10763.412138	3201.720914	5583.726616
67.537500	0.281304	0.143521	0.281055	0.359027	4030.588152	10715.954687	3190.958090	5577.049409
68.034500	0.281328	0.149032	0.299514	0.368086	4009.372657	10653.524209	3196.241943	5523.496868
68.535000	0.280634	0.147183	0.278017	0.363549	4018.344293	10700.787037	3186.790792	5550.179738
69.037500	0.287580	0.150319	0.303109	0.366708	4027.259307	10700.363419	3199.083902	5531.570388
69.536000	0.285380	0.148295	0.296083	0.364761	4026.661712	10699.009070	3196.181608	5543.023346
70.036000	0.283141	0.150098	0.296268	0.368674	4012.221944	10661.888417	3194.072560	5520.055252
70.536000	0.284584	0.148765	0.286052	0.365266	4023.591075	10698.403023	3190.268455	5540.048732
71.036500	0.289201	0.158004	0.311410	0.372236	4018.061084	10738.487973	3200.682424	5499.329217
71.537000	0.287030	0.151276	0.292081	0.366445	4026.581522	10721.918896	3192.972928	5533.115298
72.037000	0.282472	0.148860	0.296332	0.373190	4000.212775	10561.614253	3191.578233	5493.809454
72.537500	0.288382	0.154215	0.318037	0.371701	4017.397034	10681.049205	3204.859724	5502.435915
73.034500	0.286692	0.150410	0.298326	0.367323	4023.711583	10691.136540	3196.000692	5527.964112
73.538000	0.291719	0.157252	0.319361	0.372875	4022.475433	10713.891623	3204.948082	5495.633420
74.035000	0.280260	0.150037	0.298586	0.374663	3991.763633	10556.494752	3192.014241	5485.308036
74.535500	0.287842	0.154984	0.299211	0.373609	4011.677759	10661.030196	3192.953458	5491.385736
75.035500	0.291690	0.154668	0.302256	0.373143	4021.775858	10663.675594	3194.929978	5494.081232
75.536000	0.295598	0.154925	0.313558	0.376233	4023.701652	10614.118256	3199.615015	5476.275185
76.036500	0.285348	0.156629	0.293235	0.383547	3983.132866	10516.947404	3184.192855	5434.632646
76.537000	0.287973	0.154529	0.314493	0.376301	4005.731600	10606.044419	3200.115179	5475.888408
77.037500	0.291784	0.154866	0.314887	0.378441	4009.608039	10574.713987	3199.109826	5463.632628
77.537500	0.291122	0.156375	0.293889	0.380736	4002.758644	10561.091959	3186.073425	5450.556246
78.035000	0.292167	0.155627	0.312103	0.382093	4002.036638	10524.723674	3195.436889	5442.854374
78.535000	0.288955	0.156531	0.289506	0.384182	3989.883098	10504.343413	3181.846239	5431.049894
79.035500	0.295222	0.156883	0.302558	0.387046	3997.666312	10461.297737	3187.361720	5414.955524
79.536000	0.293642	0.156324	0.292639	0.389035	3989.503789	10417.921955	3180.928039	5403.844191
80.035500	0.290677	0.154567	0.317626	0.396566	3965.882201	10261.859713	3190.420435	5362.222228
80.536000	0.292070	0.152643	0.312779	0.390134	3983.439297	10337.193158	3191.301298	5397.724408
81.036500	0.299067	0.156739	0.311893	0.396865	3984.043365	10293.075062	3187.097179	5360.586865
81.537000	0.293316	0.154373	0.306746	0.398229	3968.053455	10231.065602	3183.561144	5353.126839
82.036500	0.291685	0.154616	0.308747	0.405497	3948.422045	10115.720944	3180.739239	5313.786191
82.534500	0.290519	0.156414	0.297553	0.402453	3952.533569	10195.036321	3176.440152	5330.187081
83.037500	0.296913	0.156069	0.304490	0.402844	3965.787732	10182.911557	3179.886779	5328.072985
83.535500	0.293383	0.155956	0.296951	0.406290	3950.400013	10124.634582	3174.131699	5309.534504
84.035500	0.294131	0.156858	0.334096	0.414806	3933.555832	10001.570508	3189.440490	5264.355085
84.536000	0.292035	0.154121	0.301237	0.406220	3947.608683	10095.924006	3176.396721	5309.911956
85.036500	0.295918	0.155058	0.315509	0.407500	3953.303600	10090.342984	3183.287359	5303.061183
85.536500	0.297090	0.156886	0.309382	0.411444	3947.240639	10056.080940	3177.927473	5282.083946
86.037000	0.292717	0.155663	0.324509	0.410812	3939.117099	10046.541058	3186.369742	5285.431558
86.537000	0.291542	0.156106	0.323081	0.411737	3934.588172	10038.788207	3185.089865	5280.534553
87.034500	0.298853	0.156749	0.307329	0.414000	3945.511294	10012.734163	3175.516168	5268.591611
87.535000	0.294526	0.158638	0.320537	0.416188	3931.436901	10007.942551	3181.325264	5257.105384
88.035000	0.289502	0.158038	0.302271	0.420532	3911.563241	9929.097887	3169.563492	5234.466793
88.535500	0.295318	0.159416	0.334837	0.418517	3928.147978	9983.116347	3187.805078	5244.941981
89.036000	0.295629	0.159328	0.312288	0.418675	3928.474321	9979.178581	3175.664103	5244.117773
89.536000	0.289781	0.158914	0.325327	0.418624	3916.165094	9973.388213	3182.585244	5244.383052
90.036000	0.286614	0.159831	0.312075	0.424059	3898.200675	9901.661880	3172.767370	5216.254539
90.536000	0.292077	0.155279	0.305576	0.419182	3919.837378	9906.788596	3171.935050	5241.477024
91.036500	0.290857	0.158216	0.314936	0.422147	3911.017327	9906.344250	3175.235394	5226.109162
91.537000	0.292743	0.154885	0.300654	0.422188	3914.895791	9853.267783	3167.911090	5225.898989
92.037500	0.289828	0.156469	0.315354	0.424047	3904.896163	9848.949667	3174.466266	5216.316144
92.540500	0.294567	0.158577	0.297448	0.426433	3909.812650	9844.603774	3164.195722	5204.081299
93.035000	0.293440	0.155403	0.309562	0.424739	3911.001170	9821.466034	3171.132183	5212.762659
93.535500	0.293139	0.156483	0.331788	0.426000	3907.728898	9818.629143	3182.094703	5206.294211
94.035500	0.297081	0.157968	0.310593	0.430197	3907.197856	9776.465711	3168.884443	5184.912569
94.536000	0.294116	0.155499	0.309914	0.429372	3902.738545	9751.010957	3168.957774	5189.095310
95.036500	0.295682	0.155519	0.303850	0.429358	3906.028703	9751.542076	3165.921592	5189.170182
95.537000	0.295635	0.155902	0.315078	0.431159	3902.181613	9729.673834	3170.671095	5180.037552
96.037000	0.293390	0.155798	0.308938	0.431062	3897.730603	9729.557214	3167.614325	5180.527384
96.537000	0.291120	0.155562	0.333766	0.434368	3886.280738	9675.238934	3178.696756	5163.859108
97.037500	0.296878	0.153113	0.311340	0.432394	3902.197967	9668.008523	3168.152720	5173.798860
