sample name	sample
index	1164
start time	 04-26-2021  10:28:14 AM
880	0.470420
Peak Time (s)	92.535
Peak Height 	0.4704
calc peak height	90,93
Baseline Time (s)	11.538
Baseline Value 	-0.001966
subtract baseline	10,4
Abs	0.334811
Peak Time (s)	90.036
Peak Height 	0.3348
calc peak height	90,93
Baseline Time (s)	11.538
Baseline Value 	0.00149
subtract baseline	10,3
PK_550	0.172604
Peak Time (s)	90.036
Peak Height 	0.1726
calc peak height	90,93
Baseline Time (s)	10.037
Baseline Value 	3.3833E-4
subtract baseline	10,2
PK_880	0.315579
Peak Time (s)	90.036
Peak Height 	0.3156
calc peak height	90,93
Baseline Time (s)	11.035
Baseline Value 	1.3674E-4
subtract baseline	10,1


Time (s)	A880-A510	A880-A775	A880-A975	A880	I510	I775	I975	I880	
0.036500	-0.002363	-0.000187	-0.005461	0.007027	6079.623162	43489.097745	3771.166409	22521.527282
0.536500	-0.000115	0.000248	-0.003990	0.005545	6107.983860	43669.066481	3778.050213	22589.008839
1.037500	-0.002585	-0.000395	-0.003679	0.003450	6105.122913	43805.986008	3783.695073	22684.822528
1.538500	0.000572	0.000108	-0.002797	0.000883	6149.092137	44096.836486	3791.840869	22802.843120
2.035500	-0.001782	0.000081	-0.001536	0.005692	6094.164612	43639.510703	3783.462084	22582.321855
2.536000	-0.001244	0.000505	0.003905	0.000893	6135.002773	44133.634944	3807.831480	22802.378554
3.039000	0.003131	0.000072	0.001820	-0.001461	6187.218317	44316.815959	3808.477479	22911.198625
3.536000	-0.002148	-0.000713	-0.003178	0.000233	6133.121843	44080.516508	3792.478898	22832.818045
4.036500	-0.002718	0.000091	-0.003903	0.005195	6090.827813	43687.332738	3779.075396	22605.023013
4.536500	0.002057	0.000276	-0.000838	0.000564	6163.064402	44143.108174	3797.255822	22817.532693
5.037000	0.000247	0.000759	0.002808	0.000519	6149.397876	44193.490647	3806.092545	22819.638517
5.536500	0.002738	0.000020	-0.000797	-0.000004	6172.779240	44172.779659	3798.707838	22843.748712
6.034500	-0.002287	-0.000030	-0.002708	-0.000213	6135.489249	44188.026942	3794.654959	22853.444449
6.535000	-0.001265	-0.000319	0.000715	-0.000603	6146.380700	44197.631003	3803.758926	22871.451166
7.038000	0.000876	0.000365	0.001160	0.000126	6157.310442	44193.379666	3803.079275	22837.783033
7.535500	-0.000379	0.000375	-0.002431	0.000038	6148.268597	44202.689932	3794.715517	22841.829329
8.036000	-0.000647	0.000929	-0.002709	0.000430	6143.172609	44218.119315	3793.125102	22823.718655
8.536000	0.000753	0.000867	0.004548	0.000690	6151.977393	44187.396853	3809.869005	22811.710014
9.036500	-0.000054	-0.000090	-0.006356	-0.000369	6153.939600	44197.143737	3786.385344	22860.651105
9.536000	-0.000827	-0.000247	-0.006497	-0.000368	6147.951839	44182.081190	3786.052206	22860.604423
10.037000	0.000697	0.000000	0.002756	0.000165	6155.617363	44154.890785	3806.819225	22835.982256
10.537500	-0.002180	-0.000344	0.002300	-0.000634	6139.553440	44198.191621	3807.644109	22872.901896
11.035000	0.000000	0.000454	-0.003913	0.000559	6147.173854	44160.544115	3789.964965	22817.769818
11.538000	0.000429	0.000355	0.000000	0.000000	6154.816600	44204.410605	3800.603504	22843.585045
12.035000	0.000692	0.000899	0.003441	0.001093	6148.392958	44152.008922	3806.231839	22793.131619
12.536000	0.001486	0.000631	0.004676	0.000577	6158.535871	44175.636124	3810.450160	22816.931710
13.036000	0.001349	0.000172	0.001500	-0.001697	6175.143336	44348.974455	3808.275819	22922.129803
13.536500	-0.001735	0.000795	0.001218	-0.001165	6147.093021	44357.704546	3806.317408	22897.480293
14.038500	-0.002314	0.000224	0.001681	0.001435	6122.613011	44055.309277	3801.190442	22777.373580
14.536500	-0.002847	0.000288	-0.000865	0.003751	6100.834210	43842.045611	3789.625354	22671.050685
15.034000	-0.002332	-0.000263	-0.000431	-0.002048	6149.295057	44340.891023	3804.477188	22938.407965
15.534000	-0.000580	0.000118	0.001526	-0.001872	6161.510556	44360.536439	3808.761403	22930.267157
16.040500	0.000975	0.000116	-0.000199	-0.001992	6174.531956	44371.791153	3804.898994	22935.823497
16.535500	-0.002828	-0.000482	-0.006013	0.003900	6099.836209	43755.220549	3777.167852	22664.189235
17.035500	0.001744	0.000257	0.004493	-0.003827	6194.880926	44561.362467	3820.689598	23021.182756
17.535500	-0.000430	0.000679	-0.001269	0.000457	6144.642609	44191.733719	3796.485489	22822.504027
18.035500	-0.000165	0.000986	0.000267	0.000937	6142.976507	44175.229920	3799.001901	22800.329881
18.536000	-0.000428	-0.000167	-0.001004	0.001426	6137.182674	44019.094161	3794.809281	22777.822864
19.037000	0.000556	0.000037	-0.001042	0.000570	6151.388987	44119.855939	3796.757242	22817.290122
19.536500	0.000076	0.000066	0.000145	0.000536	6147.940426	44125.856440	3799.669829	22818.834282
20.037500	-0.001311	-0.000141	0.002198	0.000050	6140.988261	44152.367738	3805.753313	22841.291365
20.535000	-0.002523	0.000365	0.003955	0.002625	6111.894144	43955.874768	3803.787019	22722.658089
21.038000	-0.000661	0.000859	0.004762	0.001189	6137.213703	44139.170445	3809.181918	22788.737316
21.535500	0.000921	0.000161	0.006357	0.000476	6154.946495	44140.625851	3814.762467	22821.627327
22.035500	0.000606	0.000563	-0.000620	0.001278	6146.300559	44102.504227	3796.076317	22784.642566
22.536000	-0.000969	-0.000020	0.003453	0.002056	6128.170622	43973.243289	3803.948708	22748.810670
23.036000	-0.000596	0.000058	0.004417	0.000723	6141.305217	44107.247242	3809.472762	22810.192447
23.536500	-0.000087	-0.000338	0.000791	0.000035	6150.549390	44135.008940	3802.413222	22841.962766
24.037000	0.000443	0.001074	0.002627	0.001286	6144.985751	44150.392437	3803.816850	22784.271401
24.537000	-0.001450	0.001158	-0.001482	0.002825	6118.586420	44012.172926	3790.356853	22713.512078
25.037500	0.000146	0.000341	0.000887	0.000591	6148.052336	44146.762675	3801.311403	22816.292349
25.535000	0.000827	0.000908	-0.004673	0.001164	6148.887833	44146.229651	3786.738691	22789.880684
26.035500	0.001910	0.001398	0.000023	0.001572	6154.115445	44153.970417	3796.906159	22771.094011
26.535500	-0.000870	0.000564	-0.001986	0.002657	6124.319431	43971.691092	3789.560441	22721.202158
27.036000	0.001061	0.000761	0.002389	-0.000489	6163.510709	44289.846857	3807.509170	22866.207177
27.535500	0.001396	0.000560	0.001994	-0.001806	6176.360414	44396.539774	3809.728506	22927.187382
28.036000	-0.001370	0.000474	0.000687	0.002297	6123.245390	43997.349498	3796.760926	22737.748247
28.537000	0.001181	0.000252	0.004173	-0.001741	6174.180662	44360.796799	3814.841358	22924.185395
29.037000	0.001318	0.000727	0.002082	-0.001098	6170.239844	44344.686863	3808.233525	22894.364391
29.537000	0.001236	0.000679	0.005077	-0.001001	6168.852158	44330.892532	3815.238875	22889.895308
30.035000	0.002782	0.000423	-0.000839	-0.001567	6185.316685	44360.547939	3802.344781	22916.107332
30.540500	-0.001450	0.000597	0.000049	0.002393	6121.896440	43999.807066	3795.013040	22733.328411
31.035500	-0.001125	0.001133	0.001171	0.002017	6127.271833	44086.469621	3798.582522	22750.621431
31.535500	0.001409	0.001490	0.003414	-0.000638	6167.369015	44373.750029	3810.338958	22873.081924
32.036000	0.001123	0.001009	-0.000608	0.000689	6154.855089	44201.025107	3797.505714	22811.775231
32.536500	0.000731	0.001337	0.001001	-0.001073	6165.486306	44400.727188	3805.574428	22893.214439
33.036500	0.001526	0.001108	0.001143	-0.001454	6174.638629	44415.356853	3806.833047	22910.884192
33.541500	0.000195	0.000737	0.000511	0.001487	6141.512287	44099.211766	3798.271917	22775.006235
34.037000	0.001372	0.000808	0.001736	0.001840	6147.874910	44072.349286	3800.355264	22758.757372
34.537500	-0.001370	0.000962	0.002740	0.001933	6126.039981	44078.160711	3802.536662	22754.488630
35.035000	-0.001230	0.000859	0.001416	0.001729	6128.675132	44087.732252	3799.855188	22763.850595
35.535000	-0.003189	-0.000447	-0.000422	0.000412	6123.744267	44088.779531	3798.609341	22824.537508
36.035500	0.001002	0.001048	0.006163	0.001966	6144.044125	44083.189757	3810.687503	22752.961074
36.535000	0.000753	-0.000069	-0.005017	0.001037	6149.297528	44065.313426	3786.227494	22795.721709
37.035500	0.001794	0.000169	0.003164	0.001166	6156.362887	44075.769684	3805.392083	22789.797273
37.536500	0.000148	0.001245	0.001177	0.001952	6137.567023	44103.275619	3798.751871	22753.619629
38.036500	-0.000553	0.000378	-0.001211	0.001556	6135.213500	44058.533953	3794.007171	22771.812697
38.537000	0.000812	-0.000142	-0.003479	0.002113	6141.444104	43956.331839	3787.317522	22746.195491
39.037000	0.000844	0.000872	-0.000153	0.001907	6143.280665	44072.089000	3795.688405	22755.659518
39.537500	0.002179	0.001837	0.000705	0.002483	6149.139915	44109.020429	3796.360620	22729.175449
40.037500	-0.000440	0.000799	0.004680	0.001418	6137.151448	44111.725411	3808.434874	22778.196795
40.535500	0.001543	0.001271	0.006951	0.003453	6136.745953	43963.189628	3809.000020	22684.674441
41.035500	0.000591	0.001236	0.005661	0.001756	6142.492057	44121.086764	3809.981859	22762.616385
41.536000	-0.001118	0.000842	0.002307	0.001480	6131.456333	44109.893611	3802.582348	22775.329032
42.036000	-0.000405	0.001015	0.002583	0.001900	6133.711879	44086.409599	3802.238245	22756.009352
42.536500	-0.001135	0.000698	0.002785	0.003668	6114.535865	43888.606481	3798.492735	22674.812868
43.037000	0.000166	0.000076	0.000931	0.001026	6144.846271	44080.146651	3800.375405	22796.220087
43.537000	0.004671	0.000601	0.002006	-0.003012	6211.469813	44516.065969	3812.671528	22983.212911
44.037000	0.001250	0.000288	0.006255	-0.001078	6169.557315	44300.912678	3818.286556	22893.467748
44.535000	-0.003046	0.000065	0.004792	0.003678	6099.872623	43827.818617	3803.269814	22674.364127
45.035000	0.001844	-0.000038	0.004721	-0.001976	6181.179171	44355.538595	3816.741310	22935.068265
45.535500	0.002703	0.002340	0.004734	-0.000251	6174.424245	44418.013403	3812.591432	22855.163947
46.035000	-0.002574	0.000895	0.005439	0.000544	6127.453853	44203.942676	3812.373402	22818.455235
46.536000	-0.003429	0.000228	0.000089	0.003936	6094.992550	43818.919499	3791.446347	22662.579047
47.036000	0.000301	0.000811	0.001697	0.002394	6135.337911	44020.066714	3798.939243	22733.283501
47.536000	-0.000135	0.000614	0.001615	0.001631	6137.858927	44073.790556	3800.565031	22768.371714
48.037000	0.000271	0.001173	0.003850	0.000237	6151.763405	44259.864806	3809.280415	22832.660153
48.537000	-0.002543	0.000688	-0.002595	0.004435	6097.936355	43815.236416	3783.929559	22639.730193
49.037500	0.001838	0.001883	0.003492	-0.000065	6166.248184	44356.524058	3809.143600	22846.569403
49.538000	0.002885	0.000978	0.006354	-0.001739	6187.465755	44430.109162	3820.136176	22924.078667
50.035000	0.000205	0.000178	0.000269	0.001124	6144.389391	44080.507536	3798.561711	22791.713647
50.535000	0.018173	-0.010601	0.008938	0.321005	4464.388728	22081.422188	3268.340819	12360.225239
51.036000	0.016427	-0.016811	0.007623	0.109295	5504.574938	33745.713754	3583.849627	18379.337749
51.536500	0.005915	-0.015292	0.001322	-0.013064	6301.599229	43958.866147	3835.578700	23456.312965
52.036500	0.008656	-0.023021	0.006534	-0.127614	7390.027654	55434.952173	4176.433786	29697.123401
52.537000	0.025623	-0.007368	0.029000	-0.019746	6521.530034	45366.575228	3923.954968	23776.926673
53.036500	0.043467	0.001999	0.052072	0.033454	6229.866853	41280.425976	3846.089600	21355.999815
53.537500	0.056470	0.011522	0.066028	0.064284	6091.579463	39438.309251	3804.781699	20082.959488
54.037500	0.078272	0.026461	0.086007	0.108304	5926.981184	37065.589294	3748.633550	18414.975139
54.535000	0.099764	0.043110	0.107748	0.136712	5877.435673	36150.320878	3733.605533	17424.919556
55.035500	0.126870	0.060624	0.131223	0.145425	6010.949662	36832.986238	3767.192800	17134.002496
55.535500	0.152938	0.079770	0.161171	0.164765	6061.225084	36817.831185	3792.043958	16508.776554
56.035500	0.178449	0.093717	0.184045	0.193945	6033.714705	35645.467752	3777.197529	15616.577673
56.536500	0.198458	0.105135	0.202877	0.222944	5967.282225	34342.566302	3753.713420	14787.367114
57.036500	0.217819	0.117697	0.220527	0.263041	5819.196448	32405.045999	3703.762727	13728.294627
57.537000	0.231234	0.122542	0.233676	0.277790	5809.912254	31737.619335	3700.299936	13362.678342
58.037000	0.243646	0.130759	0.252762	0.290770	5805.962493	31422.052682	3713.583458	13051.031909
58.534500	0.253571	0.137584	0.262869	0.354678	5453.582303	27897.307786	3602.725645	11645.400838
59.037500	0.258335	0.141604	0.271381	0.384630	5303.568064	26442.889373	3562.237361	11054.523969
59.535500	0.273070	0.148046	0.277319	0.407191	5258.698915	25581.654212	3532.190124	10635.587816
60.035500	0.279172	0.151386	0.293471	0.409953	5277.747849	25611.971440	3556.301588	10585.775860
60.535500	0.281749	0.152976	0.292619	0.436241	5145.630439	24351.105687	3508.191874	10127.234621
61.036000	0.281842	0.150857	0.294932	0.462850	5006.179382	22971.963186	3467.601426	9690.523736
61.536500	0.285001	0.156265	0.297547	0.474854	4961.522936	22667.934861	3452.513970	9502.095977
62.036500	0.282694	0.159771	0.297034	0.468915	4979.751591	23104.663108	3461.192240	9594.665589
62.537000	0.284437	0.163759	0.300726	0.469359	4986.303004	23271.002420	3466.438670	9587.693531
63.040000	0.286852	0.163196	0.299393	0.460952	5041.693337	23644.034372	3478.005635	9720.792428
63.543500	0.288833	0.166049	0.306842	0.459857	5057.692980	23834.358145	3492.230492	9738.321191
64.038000	0.289576	0.165563	0.305730	0.456821	5077.499148	23958.180574	3495.470726	9787.142233
64.535500	0.286922	0.166974	0.302217	0.460980	5041.910191	23824.754597	3482.630269	9720.341999
65.036000	0.291755	0.169134	0.306096	0.453194	5108.268361	24311.703341	3502.245205	9845.914514
65.535500	0.293983	0.170693	0.304251	0.452919	5121.657310	24402.675589	3499.573645	9850.383743
66.036500	0.293160	0.170143	0.304642	0.451314	5125.858264	24455.270064	3502.971436	9876.574435
66.536000	0.292646	0.170957	0.306450	0.449674	5131.920335	24577.894938	3508.874675	9903.418658
67.036000	0.292317	0.170536	0.307888	0.446683	5146.308274	24707.111730	3516.529862	9952.652193
67.537000	0.297356	0.172286	0.309138	0.445973	5177.696475	24831.562178	3519.942165	9964.396030
68.038000	0.294344	0.172457	0.314848	0.445428	5164.175803	24867.912281	3530.934654	9973.414111
68.535000	0.294975	0.173222	0.310882	0.445509	5167.182258	24902.693011	3523.805778	9972.080908
69.035000	0.294731	0.173385	0.312429	0.445472	5166.046753	24912.864410	3526.587266	9972.682822
69.535500	0.297198	0.173409	0.317760	0.446913	5171.668545	24840.842213	3533.465870	9948.863836
70.035500	0.294268	0.172259	0.306819	0.447476	5152.598760	24754.083198	3513.302986	9939.571450
70.535500	0.294513	0.174036	0.311477	0.450468	5137.710956	24692.791387	3516.189511	9890.414291
71.036500	0.295821	0.171782	0.312014	0.451028	5141.758496	24551.453568	3516.149473	9881.249354
71.536500	0.300836	0.172686	0.315701	0.454886	5148.022204	24404.005017	3515.851863	9818.425813
72.036500	0.295852	0.170821	0.314837	0.455309	5118.868648	24290.519699	3513.623059	9811.584908
72.537500	0.294911	0.172483	0.312688	0.464792	5063.660928	23907.007483	3493.760865	9659.673737
73.037500	0.301753	0.172843	0.314540	0.460450	5122.941782	24136.760245	3504.271610	9728.816165
73.535000	0.296995	0.172271	0.311317	0.462843	5084.861255	23991.619224	3494.736231	9690.629800
74.035500	0.299344	0.173848	0.319018	0.464777	5087.052767	23974.196009	3504.530057	9659.916636
74.535500	0.296250	0.172255	0.318557	0.470330	5041.795464	23628.708664	3494.318866	9572.486600
75.036000	0.303055	0.172164	0.312971	0.464642	5107.473428	23898.799429	3494.491228	9662.050255
75.536000	0.298868	0.171486	0.313852	0.465534	5080.544488	23822.694921	3494.472740	9647.924813
76.036500	0.303113	0.172197	0.314174	0.464780	5107.051282	23893.756961	3496.290944	9659.876027
76.536500	0.300651	0.172875	0.312171	0.472178	5055.063067	23569.877022	3480.567956	9543.640784
77.037000	0.301850	0.171358	0.321632	0.464402	5102.339445	23871.394789	3509.656507	9665.867849
77.539500	0.301203	0.172008	0.323214	0.464267	5099.610468	23909.472741	3512.618016	9668.001467
78.035000	0.305904	0.171618	0.321859	0.464122	5125.516703	23897.546356	3510.529469	9670.303900
78.535000	0.298610	0.171534	0.312207	0.470147	5055.013065	23602.959181	3483.996784	9575.363933
79.035500	0.304411	0.173113	0.322481	0.465334	5111.021548	23911.318513	3509.513014	9651.097447
79.536000	0.304974	0.172255	0.324230	0.464329	5119.411004	23918.478501	3514.267990	9667.020688
80.036000	0.306221	0.173413	0.322933	0.465262	5121.091633	23929.383041	3510.415720	9652.231667
80.536000	0.303079	0.171756	0.315952	0.470635	5075.856515	23590.169611	3489.430293	9567.720657
81.036000	0.310181	0.172787	0.317409	0.465080	5143.421387	23907.773236	3501.268031	9655.112489
81.537000	0.307679	0.173500	0.323363	0.465202	5129.254304	23936.535814	3511.260590	9653.182307
82.037000	0.306663	0.171316	0.332452	0.463410	5133.436532	23917.478280	3530.266123	9681.610123
82.537500	0.303639	0.170318	0.314524	0.469382	5085.416458	23581.355364	3489.137573	9587.341978
83.035000	0.305477	0.169957	0.324391	0.462185	5133.644492	23910.969054	3518.269933	9701.103483
83.535000	0.306643	0.170938	0.319569	0.466428	5117.109361	23753.040789	3502.651450	9633.811676
84.036000	0.310570	0.171420	0.319323	0.463176	5155.876517	23933.908140	3507.795027	9685.326855
84.536000	0.312905	0.172653	0.329231	0.463909	5164.615489	23958.261050	3523.715767	9673.687127
85.036000	0.310680	0.171055	0.322082	0.462894	5158.008343	23929.883819	3513.034692	9689.815728
85.536500	0.309465	0.169712	0.327399	0.465349	5138.091401	23745.940549	3517.999229	9650.859749
86.037000	0.312698	0.169927	0.330745	0.462521	5171.076187	23893.170946	3528.821251	9695.747960
86.537000	0.310145	0.170645	0.327725	0.462492	5157.284460	23929.461502	3523.559346	9696.212916
87.040500	0.311558	0.169759	0.328168	0.461570	5170.038412	23931.216214	3525.955692	9710.910791
87.534500	0.310777	0.170545	0.327180	0.466778	5137.460603	23717.228434	3515.135702	9628.280121
88.035000	0.312009	0.169707	0.327138	0.463030	5164.523045	23857.838148	3521.589213	9687.657294
88.535500	0.308055	0.170491	0.327537	0.469417	5108.674646	23587.921902	3511.188980	9586.786630
89.036000	0.313727	0.172604	0.328360	0.464959	5163.366196	23904.799563	3520.354710	9657.032445
89.536000	0.313713	0.172263	0.328257	0.468928	5141.716400	23696.434626	3513.278869	9594.466545
90.036000	0.315579	0.172604	0.334811	0.465245	5171.935647	23890.900513	3531.193412	9652.498754
90.536500	0.308451	0.168846	0.318864	0.468971	5113.176745	23530.631653	3497.134764	9593.786994
91.037000	0.312535	0.170572	0.329156	0.463655	5163.980640	23869.452282	3524.028473	9677.711945
91.537000	0.311279	0.170732	0.326973	0.469214	5127.037347	23609.184555	3510.567116	9589.970905
92.040500	0.312568	0.172217	0.332845	0.465471	5154.262540	23861.189258	3527.322655	9648.936395
92.535000	0.311197	0.170040	0.321783	0.470420	5120.121152	23518.489458	3499.626457	9571.093206
93.063000	0.313596	0.171413	0.324666	0.465532	5159.526566	23819.253136	3512.940103	9647.960038
93.535500	0.312619	0.170157	0.327241	0.469580	5132.280177	23564.174655	3510.398748	9584.232935
94.035500	0.314954	0.171000	0.334334	0.466044	5164.141365	23774.540327	3528.937410	9639.869792
94.536000	0.313208	0.170601	0.333955	0.472797	5118.156968	23432.046521	3516.447443	9534.011884
95.036500	0.314145	0.170299	0.329841	0.466962	5154.727178	23696.492727	3519.443275	9625.378661
95.537000	0.313015	0.170335	0.325953	0.472735	5117.453293	23422.358195	3502.782705	9534.973981
96.035500	0.315229	0.169425	0.331437	0.467436	5158.048463	23631.817579	3521.403183	9617.920139
