sample name	sample
index	895
start time	 04-08-2021  03:14:13 PM


Wavelength (nm)	Absorbance
494.344910	NaN
494.563924	NaN
494.782919	NaN
495.001897	-1.302063
495.220856	NaN
495.439797	NaN
495.658719	-0.011106
495.877624	-0.288579
496.096510	-0.122922
496.315378	-0.246734
496.534227	-0.310885
496.753059	-0.369335
496.971872	-0.216822
497.190667	0.157670
497.409444	0.171929
497.628203	0.173700
497.846943	0.174145
498.065665	0.173636
498.284369	0.175444
498.503055	0.175074
498.721723	0.176817
498.940372	0.176434
499.159003	0.176510
499.377616	0.175784
499.596210	0.175925
499.814787	0.176743
500.033345	0.176659
500.251885	0.177014
500.470406	0.177432
500.688910	0.176211
500.907395	0.177397
501.125862	0.176361
501.344311	0.177806
501.562742	0.177892
501.781154	0.178195
501.999548	0.179198
502.217924	0.179586
502.436282	0.181219
502.654621	0.182523
502.872942	0.182174
503.091245	0.182972
503.309530	0.183114
503.527797	0.184261
503.746045	0.183849
503.964275	0.184198
504.182487	0.184583
504.400681	0.184537
504.618856	0.184532
504.837013	0.184044
505.055152	0.183538
505.273273	0.183105
505.491376	0.182573
505.709460	0.182918
505.927526	0.182786
506.145574	0.182692
506.363604	0.181768
506.581615	0.181962
506.799608	0.182714
507.017583	0.182680
507.235540	0.182880
507.453478	0.183413
507.671399	0.183058
507.889301	0.183224
508.107185	0.182034
508.325050	0.181215
508.542898	0.181300
508.760727	0.181360
508.978538	0.181831
509.196330	0.181499
509.414105	0.181354
509.631861	0.182503
509.849599	0.182882
510.067319	0.183850
510.285021	0.184873
510.502704	0.184765
510.720369	0.184967
510.938016	0.185052
511.155645	0.186336
511.373255	0.186992
511.590848	0.186744
511.808422	0.187100
512.025977	0.187605
512.243515	0.187698
512.461034	0.188623
512.678536	0.188964
512.896018	0.189756
513.113483	0.189898
513.330930	0.190468
513.548358	0.191006
513.765768	0.190573
513.983160	0.190976
514.200533	0.190975
514.417889	0.190979
514.635226	0.191030
514.852545	0.191513
515.069845	0.191893
515.287128	0.192015
515.504392	0.192853
515.721638	0.193525
515.938866	0.193370
516.156075	0.194241
516.373267	0.194480
516.590440	0.194471
516.807594	0.195600
517.024731	0.195095
517.241850	0.195041
517.458950	0.195501
517.676032	0.195903
517.893095	0.197001
518.110141	0.196902
518.327168	0.196550
518.544177	0.195954
518.761168	0.195625
518.978141	0.196349
519.195095	0.196677
519.412031	0.195832
519.628949	0.195296
519.845849	0.194914
520.062731	0.194788
520.279594	0.195680
520.496439	0.197001
520.713266	0.196870
520.930074	0.198094
521.146865	0.197995
521.363637	0.199295
521.580391	0.199814
521.797127	0.199948
522.013844	0.200071
522.230543	0.200056
522.447224	0.200024
522.663887	0.200332
522.880532	0.199302
523.097158	0.199811
523.313766	0.198626
523.530356	0.198410
523.746928	0.198774
523.963481	0.199417
524.180017	0.199850
524.396534	0.200003
524.613032	0.200675
524.829513	0.201281
525.045975	0.202033
525.262420	0.202466
525.478845	0.203394
525.695253	0.203063
525.911643	0.203842
526.128014	0.203535
526.344367	0.204758
526.560702	0.204831
526.777018	0.204645
526.993316	0.203891
527.209597	0.205136
527.425858	0.205717
527.642102	0.206836
527.858328	0.207383
528.074535	0.207690
528.290724	0.207623
528.506894	0.208382
528.723047	0.209220
528.939181	0.209604
529.155297	0.209180
529.371395	0.209505
529.587475	0.209078
529.803536	0.208429
530.019579	0.209130
530.235604	0.209207
530.451611	0.208744
530.667600	0.209198
530.883570	0.210370
531.099522	0.211060
531.315456	0.211045
531.531372	0.213103
531.747269	0.213757
531.963148	0.214038
532.179009	0.214711
532.394852	0.215474
532.610676	0.215312
532.826482	0.215658
533.042271	0.215342
533.258040	0.215574
533.473792	0.214728
533.689525	0.215459
533.905240	0.215541
534.120937	0.215671
534.336616	0.215304
534.552277	0.216302
534.767919	0.215956
534.983543	0.217006
535.199149	0.216784
535.414736	0.217358
535.630306	0.217731
535.845857	0.218421
536.061390	0.218217
536.276904	0.219078
536.492401	0.218836
536.707879	0.219662
536.923339	0.220013
537.138781	0.220852
537.354204	0.221536
537.569610	0.221441
537.784997	0.221991
538.000366	0.222514
538.215716	0.222768
538.431049	0.223327
538.646363	0.223437
538.861659	0.223593
539.076937	0.224304
539.292196	0.224695
539.507438	0.225132
539.722661	0.225410
539.937866	0.226216
540.153052	0.225964
540.368221	0.225904
540.583371	0.226056
540.798503	0.226308
541.013617	0.226560
541.228712	0.226452
541.443789	0.226960
541.658848	0.227593
541.873889	0.227650
542.088912	0.228556
542.303916	0.229056
542.518902	0.229190
542.733870	0.229726
542.948820	0.229835
543.163752	0.229951
543.378665	0.230296
543.593560	0.230268
543.808437	0.230814
544.023295	0.230742
544.238136	0.231494
544.452958	0.231783
544.667762	0.231496
544.882548	0.231661
545.097315	0.231535
545.312064	0.231649
545.526795	0.232007
545.741508	0.232410
545.956203	0.232947
546.170879	0.232838
546.385537	0.233141
546.600177	0.233824
546.814799	0.234134
547.029402	0.234325
547.243988	0.234115
547.458555	0.234386
547.673103	0.234321
547.887634	0.234624
548.102146	0.235372
548.316640	0.236004
548.531116	0.236003
548.745574	0.236390
548.960013	0.237327
549.174435	0.237919
549.388838	0.238533
549.603222	0.238818
549.817589	0.238941
550.031937	0.239167
550.246267	0.239199
550.460579	0.239756
550.674873	0.239911
550.889148	0.239748
551.103405	0.239651
551.317644	0.239486
551.531865	0.239633
551.746068	0.239846
551.960252	0.239530
552.174418	0.240151
552.388566	0.240407
552.602696	0.240892
552.816807	0.241586
553.030900	0.242425
553.244975	0.242345
553.459032	0.243301
553.673070	0.243578
553.887091	0.243753
554.101093	0.243928
554.315077	0.244156
554.529042	0.244067
554.742990	0.243804
554.956919	0.243857
555.170830	0.243974
555.384722	0.243625
555.598597	0.243203
555.812453	0.243431
556.026291	0.242975
556.240111	0.242805
556.453913	0.243360
556.667696	0.243462
556.881461	0.243517
557.095208	0.244377
557.308937	0.244474
557.522647	0.245702
557.736339	0.246380
557.950013	0.247375
558.163669	0.247453
558.377307	0.247476
558.590926	0.248002
558.804527	0.248018
559.018110	0.248073
559.231675	0.248759
559.445221	0.248695
559.658749	0.248402
559.872259	0.248322
560.085751	0.248593
560.299225	0.248573
560.512680	0.248609
560.726117	0.249212
560.939536	0.249085
561.152937	0.248413
561.366319	0.248589
561.579683	0.248947
561.793029	0.249004
562.006357	0.248897
562.219667	0.248949
562.432958	0.249429
562.646231	0.249505
562.859486	0.250047
563.072723	0.250680
563.285941	0.250847
563.499141	0.251009
563.712323	0.251551
563.925487	0.252089
564.138632	0.252683
564.351760	0.252579
564.564869	0.252405
564.777960	0.252394
564.991032	0.252505
565.204087	0.252343
565.417123	0.252888
565.630141	0.252864
565.843140	0.253085
566.056122	0.253312
566.269085	0.253494
566.482030	0.253935
566.694957	0.253535
566.907866	0.253980
567.120756	0.254465
567.333628	0.254289
567.546482	0.254829
567.759318	0.254899
567.972135	0.254719
568.184935	0.255109
568.397716	0.254880
568.610478	0.255782
568.823223	0.255606
569.035949	0.255415
569.248657	0.255592
569.461347	0.255104
569.674019	0.255444
569.886672	0.255636
570.099308	0.255715
570.311925	0.256460
570.524523	0.256274
570.737104	0.256530
570.949666	0.256962
571.162210	0.257194
571.374736	0.257545
571.587244	0.257888
571.799733	0.258322
572.012205	0.258544
572.224658	0.258237
572.437092	0.258542
572.649509	0.258939
572.861907	0.259131
573.074287	0.259518
573.286649	0.260055
573.498993	0.260103
573.711318	0.260136
573.923625	0.260321
574.135914	0.260753
574.348185	0.260922
574.560438	0.260872
574.772672	0.261172
574.984888	0.261208
575.197086	0.260772
575.409266	0.260973
575.621427	0.261144
575.833570	0.261009
576.045695	0.260715
576.257802	0.260743
576.469890	0.260825
576.681961	0.260825
576.894013	0.260747
577.106046	0.261266
577.318062	0.261492
577.530059	0.262061
577.742039	0.262559
577.954000	0.262522
578.165942	0.262697
578.377867	0.263244
578.589773	0.263435
578.801661	0.263728
579.013531	0.263919
579.225382	0.263728
579.437216	0.263725
579.649031	0.264027
579.860828	0.264834
580.072606	0.265587
580.284367	0.265304
580.496109	0.265829
580.707833	0.266193
580.919539	0.266229
581.131227	0.266883
581.342896	0.266888
581.554547	0.266836
581.766180	0.267000
581.977795	0.266962
582.189391	0.267358
582.400969	0.267210
582.612529	0.267204
582.824071	0.267471
583.035595	0.267379
583.247100	0.267440
583.458587	0.267658
583.670056	0.268325
583.881506	0.268082
584.092939	0.268038
584.304353	0.268101
584.515749	0.268118
584.727127	0.267938
584.938486	0.267751
585.149828	0.268123
585.361151	0.268005
585.572456	0.267620
585.783742	0.268047
585.995011	0.268752
586.206261	0.269035
586.417493	0.269229
586.628706	0.269864
586.839902	0.270421
587.051079	0.270504
587.262238	0.270997
587.473379	0.271218
587.684502	0.271261
587.895606	0.271058
588.106692	0.271233
588.317760	0.271563
588.528810	0.271440
588.739841	0.271236
588.950855	0.271211
589.161850	0.271268
589.372827	0.271504
589.583785	0.271248
589.794726	0.271757
590.005648	0.272284
590.216552	0.271883
590.427437	0.272296
590.638305	0.272970
590.849154	0.273050
591.059985	0.273321
591.270798	0.273237
591.481592	0.273572
591.692369	0.273821
591.903127	0.273839
592.113867	0.274611
592.324588	0.274177
592.535292	0.274372
592.745977	0.274522
592.956644	0.274542
593.167293	0.275248
593.377923	0.275379
593.588536	0.274838
593.799130	0.274669
594.009706	0.274537
594.220263	0.274930
594.430803	0.274565
594.641324	0.274974
594.851827	0.275109
595.062312	0.275327
595.272778	0.275421
595.483227	0.275925
595.693657	0.276157
595.904069	0.276155
596.114462	0.276657
596.324838	0.277211
596.535195	0.277137
596.745534	0.277434
596.955855	0.277398
597.166157	0.277527
597.376441	0.277407
597.586707	0.277582
597.796955	0.278132
598.007185	0.278139
598.217396	0.278117
598.427589	0.278394
598.637764	0.278535
598.847921	0.278380
599.058060	0.279219
599.268180	0.279763
599.478282	0.279745
599.688366	0.279778
599.898431	0.279812
600.108479	0.280110
600.318508	0.280265
600.528519	0.280093
600.738511	0.279929
600.948486	0.279957
601.158442	0.280089
601.368380	0.280293
601.578300	0.280307
601.788202	0.280704
601.998085	0.280870
602.207950	0.280902
602.417797	0.280983
602.627626	0.281763
602.837436	0.281551
603.047228	0.281577
603.257002	0.281870
603.466758	0.282171
603.676496	0.282056
603.886215	0.281698
604.095916	0.281832
604.305599	0.282189
604.515264	0.282271
604.724910	0.282370
604.934538	0.282607
605.144148	0.282639
605.353740	0.282620
605.563314	0.282781
605.772869	0.282955
605.982406	0.283177
606.191925	0.283175
606.401425	0.283038
606.610908	0.283403
606.820372	0.283631
607.029818	0.283711
607.239246	0.283983
607.448655	0.284271
607.658047	0.285002
607.867420	0.284917
608.076775	0.285254
608.286111	0.285543
608.495430	0.285286
608.704730	0.285477
608.914012	0.285740
609.123275	0.285738
609.332521	0.285836
609.541748	0.285470
609.750957	0.285483
609.960148	0.285474
610.169321	0.285857
610.378475	0.286190
610.587611	0.285743
610.796729	0.285717
611.005829	0.286223
611.214910	0.286191
611.423974	0.286658
611.633019	0.287236
611.842045	0.287403
612.051054	0.287203
612.260044	0.287506
612.469017	0.287885
612.677970	0.288068
612.886906	0.288080
613.095824	0.288094
613.304723	0.288524
613.513604	0.288579
613.722467	0.288796
613.931311	0.288884
614.140138	0.289034
614.348946	0.289341
614.557736	0.289544
614.766507	0.289870
614.975261	0.289965
615.183996	0.289920
615.392713	0.290073
615.601412	0.290277
615.810092	0.290545
616.018754	0.290778
616.227399	0.290761
616.436024	0.291060
616.644632	0.291014
616.853222	0.291250
617.061793	0.290966
617.270346	0.291189
617.478880	0.291309
617.687397	0.291391
617.895895	0.291176
618.104375	0.291201
618.312837	0.290760
618.521281	0.290905
618.729706	0.291504
618.938113	0.291644
619.146502	0.291622
619.354873	0.291958
619.563226	0.291968
619.771560	0.291973
619.979876	0.292104
620.188174	0.292732
620.396453	0.292533
620.604715	0.292163
620.812958	0.292550
621.021183	0.292675
621.229390	0.292559
621.437578	0.292694
621.645748	0.292978
621.853900	0.293298
622.062034	0.293500
622.270150	0.294038
622.478247	0.294441
622.686326	0.294614
622.894387	0.294760
623.102430	0.294564
623.310454	0.294745
623.518461	0.294910
623.726449	0.294955
623.934418	0.294859
624.142370	0.294813
624.350303	0.295190
624.558218	0.295559
624.766115	0.295747
624.973994	0.296287
625.181855	0.296641
625.389697	0.296937
625.597521	0.297064
625.805327	0.297256
626.013114	0.297593
626.220883	0.297350
626.428634	0.297413
626.636367	0.297610
626.844082	0.297791
627.051778	0.297831
627.259457	0.298059
627.467117	0.298263
627.674758	0.298117
627.882382	0.297913
628.089987	0.297968
628.297574	0.297640
628.505143	0.297732
628.712694	0.297543
628.920226	0.297661
629.127740	0.297498
629.335236	0.297737
629.542714	0.298390
629.750174	0.298565
629.957615	0.298815
630.165038	0.299386
630.372443	0.299577
630.579829	0.299991
630.787198	0.300389
630.994548	0.300712
631.201880	0.300655
631.409194	0.300882
631.616489	0.301138
631.823766	0.301326
632.031025	0.301447
632.238266	0.301640
632.445489	0.301820
632.652693	0.301889
632.859879	0.301961
633.067047	0.302243
633.274197	0.302372
633.481329	0.302421
633.688442	0.302471
633.895537	0.302460
634.102614	0.302410
634.309672	0.302403
634.516713	0.302563
634.723735	0.303048
634.930739	0.303099
635.137724	0.303170
635.344692	0.303692
635.551641	0.304211
635.758572	0.304549
635.965485	0.305038
636.172379	0.305138
636.379256	0.305159
636.586114	0.304930
636.792954	0.305391
636.999775	0.305518
637.206579	0.305632
637.413364	0.305431
637.620131	0.305362
637.826880	0.305201
638.033610	0.305497
638.240323	0.305511
638.447017	0.305832
638.653692	0.306033
638.860350	0.306039
639.066990	0.306005
639.273611	0.306276
639.480214	0.306740
639.686798	0.307302
639.893365	0.307626
640.099913	0.307861
640.306443	0.307885
640.512955	0.307934
640.719449	0.307758
640.925924	0.307988
641.132381	0.308194
641.338820	0.308095
641.545241	0.307955
641.751644	0.308021
641.958028	0.308173
642.164394	0.308293
642.370742	0.308345
642.577071	0.308971
642.783383	0.309013
642.989676	0.309228
643.195951	0.309496
643.402207	0.309756
643.608446	0.309888
643.814666	0.310188
644.020868	0.310629
644.227052	0.310740
644.433218	0.311127
644.639365	0.311129
644.845494	0.311550
645.051605	0.311985
645.257698	0.312290
645.463772	0.312505
645.669828	0.312619
645.875866	0.312789
646.081886	0.312983
646.287888	0.312785
646.493871	0.313485
646.699836	0.313365
646.905783	0.313158
647.111712	0.313198
647.317622	0.313341
647.523514	0.313465
647.729388	0.313410
647.935244	0.313430
648.141082	0.313817
648.346901	0.313639
648.552702	0.314121
648.758485	0.314303
648.964250	0.314457
649.169996	0.314652
649.375724	0.314911
649.581434	0.315312
649.787126	0.315756
649.992800	0.315891
650.198455	0.316002
650.404092	0.315902
650.609711	0.316363
650.815311	0.316761
651.020894	0.317081
651.226458	0.317222
651.432004	0.317486
651.637532	0.317604
651.843041	0.317711
652.048532	0.317860
652.254006	0.317804
652.459460	0.317991
652.664897	0.317767
652.870315	0.317775
653.075716	0.318093
653.281097	0.317995
653.486461	0.318301
653.691807	0.318374
653.897134	0.318678
654.102443	0.319103
654.307734	0.318850
654.513006	0.319152
654.718261	0.319349
654.923497	0.319403
655.128715	0.319804
655.333915	0.320145
655.539096	0.320572
655.744259	0.320888
655.949404	0.321251
656.154531	0.321960
656.359640	0.322369
656.564730	0.322711
656.769802	0.323097
656.974856	0.323240
657.179892	0.323014
657.384909	0.323256
657.589908	0.323324
657.794889	0.323218
657.999852	0.323113
658.204797	0.323228
658.409723	0.323402
658.614631	0.323444
658.819521	0.323466
659.024393	0.323694
659.229246	0.323635
659.434081	0.323730
659.638898	0.323998
659.843697	0.324123
660.048478	0.324500
660.253240	0.324644
660.457984	0.324793
660.662710	0.325021
660.867417	0.325419
661.072107	0.325979
661.276778	0.326306
661.481431	0.326568
661.686066	0.326931
661.890682	0.326830
662.095281	0.327071
662.299861	0.327446
662.504422	0.327797
662.708966	0.328099
662.913491	0.328167
663.117999	0.328341
663.322488	0.328537
663.526958	0.329115
663.731411	0.329378
663.935845	0.329755
664.140261	0.330053
664.344659	0.330596
664.549038	0.330964
664.753400	0.331079
664.957743	0.331416
665.162068	0.331682
665.366375	0.331526
665.570663	0.331766
665.774933	0.331758
665.979185	0.331800
666.183419	0.331980
666.387635	0.331752
666.591832	0.332085
666.796011	0.332128
667.000172	0.332405
667.204315	0.332474
667.408439	0.332903
667.612545	0.333273
667.816634	0.333543
668.020703	0.333546
668.224755	0.333849
668.428788	0.333998
668.632803	0.334431
668.836800	0.334487
669.040779	0.334891
669.244739	0.334811
669.448681	0.335053
669.652605	0.335243
669.856511	0.335492
670.060399	0.336006
670.264268	0.336506
670.468119	0.336731
670.671952	0.337059
670.875767	0.337188
671.079563	0.337618
671.283341	0.337754
671.487101	0.337892
671.690843	0.338115
671.894567	0.338083
672.098272	0.337956
672.301959	0.338227
672.505628	0.338618
672.709278	0.338837
672.912911	0.339018
673.116525	0.339114
673.320121	0.339479
673.523699	0.339585
673.727258	0.339915
673.930799	0.340226
674.134322	0.340266
674.337827	0.340093
674.541314	0.340441
674.744782	0.340588
674.948232	0.341096
675.151664	0.341327
675.355078	0.341480
675.558474	0.341877
675.761851	0.341910
675.965210	0.342199
676.168551	0.342703
676.371873	0.342656
676.575178	0.343033
676.778464	0.343009
676.981732	0.343085
677.184981	0.343481
677.388213	0.343262
677.591426	0.343445
677.794621	0.343782
677.997798	0.343885
678.200956	0.344258
678.404097	0.344276
678.607219	0.344454
678.810323	0.344877
679.013408	0.345221
679.216476	0.345756
679.419525	0.345874
679.622556	0.346024
679.825569	0.346499
680.028563	0.346819
680.231540	0.347227
680.434498	0.347516
680.637438	0.347556
680.840359	0.347530
681.043263	0.347456
681.246148	0.347664
681.449015	0.347664
681.651864	0.347484
681.854694	0.347738
682.057506	0.347939
682.260301	0.348386
682.463076	0.348664
682.665834	0.348872
682.868573	0.349245
683.071295	0.349790
683.273998	0.350394
683.476682	0.350836
683.679349	0.350848
683.881997	0.351047
684.084627	0.351102
684.287239	0.351289
684.489833	0.351619
684.692408	0.351665
684.894965	0.351997
685.097504	0.351771
685.300025	0.352131
685.502527	0.352310
685.705012	0.352474
685.907478	0.352431
686.109925	0.352444
686.312355	0.352642
686.514766	0.352939
686.717159	0.353039
686.919534	0.353356
687.121891	0.353223
687.324230	0.353896
687.526550	0.354296
687.728852	0.354558
687.931136	0.355101
688.133401	0.355370
688.335649	0.355629
688.537878	0.355795
688.740089	0.356221
688.942281	0.356568
689.144456	0.356516
689.346612	0.356313
689.548750	0.356468
689.750870	0.356660
689.952971	0.356645
690.155055	0.356879
690.357120	0.357108
690.559167	0.357048
690.761195	0.357148
690.963206	0.357098
691.165198	0.357471
691.367172	0.357603
691.569128	0.357479
691.771065	0.357585
691.972984	0.357892
692.174885	0.357925
692.376768	0.358172
692.578633	0.358126
692.780479	0.358214
692.982308	0.358267
693.184118	0.358667
693.385909	0.359023
693.587683	0.359135
