sample name	sample
index	530
start time	 03-11-2021  04:21:50 PM


Wavelength (nm)	Absorbance
494.344910	-0.207722
494.563924	-0.207722
494.782919	-0.207722
495.001897	0.053606
495.220856	-0.132951
495.439797	NaN
495.658719	NaN
495.877624	NaN
496.096510	0.149424
496.315378	0.478545
496.534227	0.382617
496.753059	-0.636862
496.971872	-0.046978
497.190667	0.127639
497.409444	0.129063
497.628203	0.130754
497.846943	0.129596
498.065665	0.130057
498.284369	0.132788
498.503055	0.132664
498.721723	0.132004
498.940372	0.133106
499.159003	0.132985
499.377616	0.133257
499.596210	0.134028
499.814787	0.134599
500.033345	0.134707
500.251885	0.133547
500.470406	0.133209
500.688910	0.134459
500.907395	0.133187
501.125862	0.132952
501.344311	0.132407
501.562742	0.131954
501.781154	0.132093
501.999548	0.132829
502.217924	0.132688
502.436282	0.133369
502.654621	0.133927
502.872942	0.133963
503.091245	0.133629
503.309530	0.133942
503.527797	0.134325
503.746045	0.134843
503.964275	0.135112
504.182487	0.135676
504.400681	0.135321
504.618856	0.134218
504.837013	0.134411
505.055152	0.135035
505.273273	0.135875
505.491376	0.134616
505.709460	0.135409
505.927526	0.135114
506.145574	0.134188
506.363604	0.135346
506.581615	0.136016
506.799608	0.136613
507.017583	0.137000
507.235540	0.136681
507.453478	0.137935
507.671399	0.137635
507.889301	0.136745
508.107185	0.137551
508.325050	0.137476
508.542898	0.138015
508.760727	0.138087
508.978538	0.138113
509.196330	0.138448
509.414105	0.138425
509.631861	0.138115
509.849599	0.139463
510.067319	0.138383
510.285021	0.137919
510.502704	0.136952
510.720369	0.137115
510.938016	0.137161
511.155645	0.136222
511.373255	0.136779
511.590848	0.137296
511.808422	0.137169
512.025977	0.138889
512.243515	0.138483
512.461034	0.139875
512.678536	0.139616
512.896018	0.139839
513.113483	0.140945
513.330930	0.140418
513.548358	0.140852
513.765768	0.140847
513.983160	0.141192
514.200533	0.142344
514.417889	0.141534
514.635226	0.141678
514.852545	0.142104
515.069845	0.141917
515.287128	0.142586
515.504392	0.142072
515.721638	0.142504
515.938866	0.141974
516.156075	0.142050
516.373267	0.142873
516.590440	0.142943
516.807594	0.142767
517.024731	0.143444
517.241850	0.143189
517.458950	0.143947
517.676032	0.144317
517.893095	0.144788
518.110141	0.144608
518.327168	0.144095
518.544177	0.144350
518.761168	0.144423
518.978141	0.144195
519.195095	0.144579
519.412031	0.143878
519.628949	0.143618
519.845849	0.144330
520.062731	0.145226
520.279594	0.145607
520.496439	0.146187
520.713266	0.146808
520.930074	0.147004
521.146865	0.147805
521.363637	0.148096
521.580391	0.148746
521.797127	0.148491
522.013844	0.148076
522.230543	0.148927
522.447224	0.148750
522.663887	0.148810
522.880532	0.148809
523.097158	0.148563
523.313766	0.149152
523.530356	0.149456
523.746928	0.149077
523.963481	0.148936
524.180017	0.148670
524.396534	0.150062
524.613032	0.149616
524.829513	0.150041
525.045975	0.150529
525.262420	0.150902
525.478845	0.151270
525.695253	0.152390
525.911643	0.152733
526.128014	0.152820
526.344367	0.151900
526.560702	0.153010
526.777018	0.153700
526.993316	0.153797
527.209597	0.153994
527.425858	0.154245
527.642102	0.154496
527.858328	0.155599
528.074535	0.156009
528.290724	0.156766
528.506894	0.156728
528.723047	0.156409
528.939181	0.156848
529.155297	0.157221
529.371395	0.157210
529.587475	0.157350
529.803536	0.156865
530.019579	0.157031
530.235604	0.157028
530.451611	0.158255
530.667600	0.159535
530.883570	0.160537
531.099522	0.161598
531.315456	0.162132
531.531372	0.162405
531.747269	0.163774
531.963148	0.164344
532.179009	0.164838
532.394852	0.164468
532.610676	0.164050
532.826482	0.163172
533.042271	0.162720
533.258040	0.162830
533.473792	0.162690
533.689525	0.162085
533.905240	0.162566
534.120937	0.162667
534.336616	0.162973
534.552277	0.163172
534.767919	0.163421
534.983543	0.163631
535.199149	0.163853
535.414736	0.164799
535.630306	0.165472
535.845857	0.165761
536.061390	0.166784
536.276904	0.166851
536.492401	0.167559
536.707879	0.168211
536.923339	0.168510
537.138781	0.168996
537.354204	0.169124
537.569610	0.169169
537.784997	0.169420
538.000366	0.169227
538.215716	0.169817
538.431049	0.169425
538.646363	0.170132
538.861659	0.170481
539.076937	0.170368
539.292196	0.170731
539.507438	0.171076
539.722661	0.171287
539.937866	0.171823
540.153052	0.172245
540.368221	0.173359
540.583371	0.173484
540.798503	0.173722
541.013617	0.174101
541.228712	0.174130
541.443789	0.174025
541.658848	0.173918
541.873889	0.174035
542.088912	0.174187
542.303916	0.174263
542.518902	0.174525
542.733870	0.174689
542.948820	0.175200
543.163752	0.175433
543.378665	0.176027
543.593560	0.176880
543.808437	0.177510
544.023295	0.177703
544.238136	0.177929
544.452958	0.178011
544.667762	0.178630
544.882548	0.178877
545.097315	0.179571
545.312064	0.179990
545.526795	0.179842
545.741508	0.179188
545.956203	0.179476
546.170879	0.179597
546.385537	0.179865
546.600177	0.180176
546.814799	0.180362
547.029402	0.180788
547.243988	0.180849
547.458555	0.181729
547.673103	0.182167
547.887634	0.181994
548.102146	0.182574
548.316640	0.182856
548.531116	0.182563
548.745574	0.182889
548.960013	0.182676
549.174435	0.182869
549.388838	0.182758
549.603222	0.182637
549.817589	0.183164
550.031937	0.182792
550.246267	0.183306
550.460579	0.183895
550.674873	0.183857
550.889148	0.183988
551.103405	0.184086
551.317644	0.184410
551.531865	0.184972
551.746068	0.185168
551.960252	0.185313
552.174418	0.184898
552.388566	0.184888
552.602696	0.185204
552.816807	0.185246
553.030900	0.185390
553.244975	0.185287
553.459032	0.185351
553.673070	0.185207
553.887091	0.185720
554.101093	0.186182
554.315077	0.186186
554.529042	0.186512
554.742990	0.187048
554.956919	0.187593
555.170830	0.187902
555.384722	0.188274
555.598597	0.188386
555.812453	0.188069
556.026291	0.188081
556.240111	0.188862
556.453913	0.188957
556.667696	0.188658
556.881461	0.188631
557.095208	0.188578
557.308937	0.188821
557.522647	0.189534
557.736339	0.189885
557.950013	0.190247
558.163669	0.189976
558.377307	0.190026
558.590926	0.190694
558.804527	0.190741
559.018110	0.191206
559.231675	0.191497
559.445221	0.191386
559.658749	0.192344
559.872259	0.192234
560.085751	0.192627
560.299225	0.192758
560.512680	0.192618
560.726117	0.193134
560.939536	0.193158
561.152937	0.193083
561.366319	0.193346
561.579683	0.192970
561.793029	0.193630
562.006357	0.193654
562.219667	0.193773
562.432958	0.193635
562.646231	0.193196
562.859486	0.193648
563.072723	0.193923
563.285941	0.194051
563.499141	0.194609
563.712323	0.194725
563.925487	0.195015
564.138632	0.195380
564.351760	0.195943
564.564869	0.196753
564.777960	0.196727
564.991032	0.196901
565.204087	0.196972
565.417123	0.196842
565.630141	0.196540
565.843140	0.196866
566.056122	0.196826
566.269085	0.196983
566.482030	0.196779
566.694957	0.196919
566.907866	0.197362
567.120756	0.197558
567.333628	0.197889
567.546482	0.198901
567.759318	0.198935
567.972135	0.199007
568.184935	0.198831
568.397716	0.199235
568.610478	0.199240
568.823223	0.198757
569.035949	0.199105
569.248657	0.199179
569.461347	0.198713
569.674019	0.199058
569.886672	0.199291
570.099308	0.199690
570.311925	0.199594
570.524523	0.200316
570.737104	0.201067
570.949666	0.200934
571.162210	0.200766
571.374736	0.200679
571.587244	0.200671
571.799733	0.200778
572.012205	0.200843
572.224658	0.201117
572.437092	0.201278
572.649509	0.201603
572.861907	0.201800
573.074287	0.201803
573.286649	0.202062
573.498993	0.202358
573.711318	0.202567
573.923625	0.202987
574.135914	0.202943
574.348185	0.202691
574.560438	0.202612
574.772672	0.202652
574.984888	0.203212
575.197086	0.203846
575.409266	0.203557
575.621427	0.204280
575.833570	0.204046
576.045695	0.204250
576.257802	0.204328
576.469890	0.204013
576.681961	0.204381
576.894013	0.204427
577.106046	0.204158
577.318062	0.204280
577.530059	0.203695
577.742039	0.204195
577.954000	0.204592
578.165942	0.204818
578.377867	0.205403
578.589773	0.205438
578.801661	0.205536
579.013531	0.205903
579.225382	0.206341
579.437216	0.206900
579.649031	0.207023
579.860828	0.207293
580.072606	0.207404
580.284367	0.207450
580.496109	0.207824
580.707833	0.207819
580.919539	0.207852
581.131227	0.208042
581.342896	0.208309
581.554547	0.208453
581.766180	0.208063
581.977795	0.208522
582.189391	0.209050
582.400969	0.209127
582.612529	0.209164
582.824071	0.209369
583.035595	0.209598
583.247100	0.209364
583.458587	0.209756
583.670056	0.210183
583.881506	0.210239
584.092939	0.209833
584.304353	0.210098
584.515749	0.210239
584.727127	0.210564
584.938486	0.210699
585.149828	0.211389
585.361151	0.211359
585.572456	0.212011
585.783742	0.212190
585.995011	0.212491
586.206261	0.212643
586.417493	0.212945
586.628706	0.212852
586.839902	0.212686
587.051079	0.212294
587.262238	0.212547
587.473379	0.211998
587.684502	0.212019
587.895606	0.212212
588.106692	0.212330
588.317760	0.212897
588.528810	0.212943
588.739841	0.213378
588.950855	0.213764
589.161850	0.213672
589.372827	0.214184
589.583785	0.214421
589.794726	0.214571
590.005648	0.214722
590.216552	0.214809
590.427437	0.214782
590.638305	0.215126
590.849154	0.215353
591.059985	0.215594
591.270798	0.215821
591.481592	0.215867
591.692369	0.215958
591.903127	0.215912
592.113867	0.216065
592.324588	0.216617
592.535292	0.216504
592.745977	0.216370
592.956644	0.216658
593.167293	0.216765
593.377923	0.217000
593.588536	0.217561
593.799130	0.218255
594.009706	0.218264
594.220263	0.218381
594.430803	0.218589
594.641324	0.219016
594.851827	0.219107
595.062312	0.218962
595.272778	0.219081
595.483227	0.219174
595.693657	0.219163
595.904069	0.219459
596.114462	0.219516
596.324838	0.219561
596.535195	0.219469
596.745534	0.219181
596.955855	0.219591
597.166157	0.219492
597.376441	0.219372
597.586707	0.219403
597.796955	0.219518
598.007185	0.219691
598.217396	0.219982
598.427589	0.220179
598.637764	0.220748
598.847921	0.220881
599.058060	0.221327
599.268180	0.221766
599.478282	0.221841
599.688366	0.221809
599.898431	0.222180
600.108479	0.222403
600.318508	0.222796
600.528519	0.222993
600.738511	0.223161
600.948486	0.222948
601.158442	0.222899
601.368380	0.222848
601.578300	0.223340
601.788202	0.223207
601.998085	0.222593
602.207950	0.222829
602.417797	0.222896
602.627626	0.222717
602.837436	0.223185
603.047228	0.223249
603.257002	0.223556
603.466758	0.223777
603.676496	0.224310
603.886215	0.225084
604.095916	0.224891
604.305599	0.225108
604.515264	0.225824
604.724910	0.225532
604.934538	0.225615
605.144148	0.225851
605.353740	0.226072
605.563314	0.225851
605.772869	0.225661
605.982406	0.226147
606.191925	0.226234
606.401425	0.226278
606.610908	0.226680
606.820372	0.226903
607.029818	0.227078
607.239246	0.226861
607.448655	0.227047
607.658047	0.227490
607.867420	0.226979
608.076775	0.226874
608.286111	0.226773
608.495430	0.226977
608.704730	0.227173
608.914012	0.227350
609.123275	0.227560
609.332521	0.227664
609.541748	0.227760
609.750957	0.228730
609.960148	0.229188
610.169321	0.229424
610.378475	0.229774
610.587611	0.229638
610.796729	0.229580
611.005829	0.229667
611.214910	0.229804
611.423974	0.229785
611.633019	0.229437
611.842045	0.229534
612.051054	0.229573
612.260044	0.229486
612.469017	0.229959
612.677970	0.230090
612.886906	0.230204
613.095824	0.230253
613.304723	0.230521
613.513604	0.230579
613.722467	0.230907
613.931311	0.231038
614.140138	0.230974
614.348946	0.230893
614.557736	0.231042
614.766507	0.231261
614.975261	0.231441
615.183996	0.231662
615.392713	0.231782
615.601412	0.231683
615.810092	0.231763
616.018754	0.232071
616.227399	0.232388
616.436024	0.232043
616.644632	0.232049
616.853222	0.232367
617.061793	0.232569
617.270346	0.232806
617.478880	0.232822
617.687397	0.232828
617.895895	0.233144
618.104375	0.232964
618.312837	0.233750
618.521281	0.234094
618.729706	0.234104
618.938113	0.234036
619.146502	0.234172
619.354873	0.234564
619.563226	0.235107
619.771560	0.235075
619.979876	0.235312
620.188174	0.235331
620.396453	0.235548
620.604715	0.235551
620.812958	0.235925
621.021183	0.236046
621.229390	0.235975
621.437578	0.235814
621.645748	0.236040
621.853900	0.236377
622.062034	0.236149
622.270150	0.236008
622.478247	0.236394
622.686326	0.236427
622.894387	0.236518
623.102430	0.236675
623.310454	0.236818
623.518461	0.236953
623.726449	0.236979
623.934418	0.237387
624.142370	0.237475
624.350303	0.237534
624.558218	0.237643
624.766115	0.237865
624.973994	0.238017
625.181855	0.238413
625.389697	0.238440
625.597521	0.238580
625.805327	0.239018
626.013114	0.239373
626.220883	0.239558
626.428634	0.239435
626.636367	0.239503
626.844082	0.239835
627.051778	0.239859
627.259457	0.240121
627.467117	0.240328
627.674758	0.240305
627.882382	0.240361
628.089987	0.240449
628.297574	0.240500
628.505143	0.240659
628.712694	0.240392
628.920226	0.240326
629.127740	0.240345
629.335236	0.240378
629.542714	0.240436
629.750174	0.240422
629.957615	0.240647
630.165038	0.241151
630.372443	0.241414
630.579829	0.242003
630.787198	0.242499
630.994548	0.242605
631.201880	0.242857
631.409194	0.242991
631.616489	0.243339
631.823766	0.243303
632.031025	0.243511
632.238266	0.243532
632.445489	0.243448
632.652693	0.243217
632.859879	0.243435
633.067047	0.243585
633.274197	0.243745
633.481329	0.243823
633.688442	0.244027
633.895537	0.244099
634.102614	0.243964
634.309672	0.244184
634.516713	0.244484
634.723735	0.244728
634.930739	0.244900
635.137724	0.245202
635.344692	0.245239
635.551641	0.245697
635.758572	0.245968
635.965485	0.246461
636.172379	0.246683
636.379256	0.246654
636.586114	0.246881
636.792954	0.246966
636.999775	0.247019
637.206579	0.247351
637.413364	0.247409
637.620131	0.247286
637.826880	0.247493
638.033610	0.247724
638.240323	0.248269
638.447017	0.248273
638.653692	0.248522
638.860350	0.248586
639.066990	0.248887
639.273611	0.248595
639.480214	0.248873
639.686798	0.248920
639.893365	0.248989
640.099913	0.249124
640.306443	0.249371
640.512955	0.249497
640.719449	0.249539
640.925924	0.249276
641.132381	0.249636
641.338820	0.250096
641.545241	0.250214
641.751644	0.250144
641.958028	0.249856
642.164394	0.249945
642.370742	0.249995
642.577071	0.250304
642.783383	0.250565
642.989676	0.250839
643.195951	0.250631
643.402207	0.250938
643.608446	0.251190
643.814666	0.251542
644.020868	0.251666
644.227052	0.251884
644.433218	0.252289
644.639365	0.252789
644.845494	0.252774
645.051605	0.252810
645.257698	0.252971
645.463772	0.253320
645.669828	0.253583
645.875866	0.253760
646.081886	0.253852
646.287888	0.253730
646.493871	0.253545
646.699836	0.253741
646.905783	0.254001
647.111712	0.254123
647.317622	0.254114
647.523514	0.254210
647.729388	0.254384
647.935244	0.254677
648.141082	0.254941
648.346901	0.255314
648.552702	0.255524
648.758485	0.255814
648.964250	0.256026
649.169996	0.256142
649.375724	0.256483
649.581434	0.256395
649.787126	0.256424
649.992800	0.256547
650.198455	0.256744
650.404092	0.256858
650.609711	0.257041
650.815311	0.257227
651.020894	0.257467
651.226458	0.257422
651.432004	0.258023
651.637532	0.258342
651.843041	0.258581
652.048532	0.258623
652.254006	0.258907
652.459460	0.259130
652.664897	0.259242
652.870315	0.259427
653.075716	0.259605
653.281097	0.259378
653.486461	0.259540
653.691807	0.259685
653.897134	0.259952
654.102443	0.260047
654.307734	0.260020
654.513006	0.260115
654.718261	0.260365
654.923497	0.260683
655.128715	0.261072
655.333915	0.261205
655.539096	0.261212
655.744259	0.261235
655.949404	0.261538
656.154531	0.261916
656.359640	0.262248
656.564730	0.262572
656.769802	0.262615
656.974856	0.262905
657.179892	0.263248
657.384909	0.263571
657.589908	0.263931
657.794889	0.264103
657.999852	0.264263
658.204797	0.264264
658.409723	0.264308
658.614631	0.264534
658.819521	0.264795
659.024393	0.265027
659.229246	0.265220
659.434081	0.265367
659.638898	0.265728
659.843697	0.265950
660.048478	0.266417
660.253240	0.266623
660.457984	0.266925
660.662710	0.266884
660.867417	0.266965
661.072107	0.267308
661.276778	0.267529
661.481431	0.267698
661.686066	0.267665
661.890682	0.267797
662.095281	0.268007
662.299861	0.268199
662.504422	0.268308
662.708966	0.268602
662.913491	0.268635
663.117999	0.268806
663.322488	0.268903
663.526958	0.269227
663.731411	0.269542
663.935845	0.269934
664.140261	0.270193
664.344659	0.270722
664.549038	0.270830
664.753400	0.271239
664.957743	0.271259
665.162068	0.271451
665.366375	0.271818
665.570663	0.271841
665.774933	0.271872
665.979185	0.272097
666.183419	0.272095
666.387635	0.272072
666.591832	0.272090
666.796011	0.272468
667.000172	0.272747
667.204315	0.272926
667.408439	0.273224
667.612545	0.273391
667.816634	0.273520
668.020703	0.273775
668.224755	0.274254
668.428788	0.274367
668.632803	0.274838
668.836800	0.274864
669.040779	0.275048
669.244739	0.275420
669.448681	0.275921
669.652605	0.276001
669.856511	0.276051
670.060399	0.276059
670.264268	0.276382
670.468119	0.276007
670.671952	0.276376
670.875767	0.276310
671.079563	0.276301
671.283341	0.276211
671.487101	0.276638
671.690843	0.276924
671.894567	0.277395
672.098272	0.277722
672.301959	0.278139
672.505628	0.278256
672.709278	0.278991
672.912911	0.279370
673.116525	0.279449
673.320121	0.279540
673.523699	0.279591
673.727258	0.279620
673.930799	0.279890
674.134322	0.280355
674.337827	0.280576
674.541314	0.280489
674.744782	0.280530
674.948232	0.280698
675.151664	0.280947
675.355078	0.281422
675.558474	0.281524
675.761851	0.281427
675.965210	0.281519
676.168551	0.281993
676.371873	0.282208
676.575178	0.282403
676.778464	0.282525
676.981732	0.282706
677.184981	0.282966
677.388213	0.283257
677.591426	0.283533
677.794621	0.283737
677.997798	0.283669
678.200956	0.283689
678.404097	0.283969
678.607219	0.284451
678.810323	0.284962
679.013408	0.285153
679.216476	0.285725
679.419525	0.286179
679.622556	0.286533
679.825569	0.286885
680.028563	0.287201
680.231540	0.287196
680.434498	0.287430
680.637438	0.287324
680.840359	0.287433
681.043263	0.287149
681.246148	0.287143
681.449015	0.287192
681.651864	0.287252
681.854694	0.287508
682.057506	0.287885
682.260301	0.287997
682.463076	0.288214
682.665834	0.288447
682.868573	0.288853
683.071295	0.289088
683.273998	0.289224
683.476682	0.289463
683.679349	0.289716
683.881997	0.289878
684.084627	0.289977
684.287239	0.290025
684.489833	0.290170
684.692408	0.290358
684.894965	0.290428
685.097504	0.290547
685.300025	0.290652
685.502527	0.290734
685.705012	0.290803
685.907478	0.291248
686.109925	0.291568
686.312355	0.291759
686.514766	0.292097
686.717159	0.292470
686.919534	0.292778
687.121891	0.292991
687.324230	0.293426
687.526550	0.293564
687.728852	0.293684
687.931136	0.293942
688.133401	0.294367
688.335649	0.294526
688.537878	0.294632
688.740089	0.294772
688.942281	0.294985
689.144456	0.295155
689.346612	0.295718
689.548750	0.295701
689.750870	0.295996
689.952971	0.295848
690.155055	0.295946
690.357120	0.296280
690.559167	0.296339
690.761195	0.296506
690.963206	0.296459
691.165198	0.296253
691.367172	0.296431
691.569128	0.296157
691.771065	0.296492
691.972984	0.296551
692.174885	0.296782
692.376768	0.297118
692.578633	0.297490
692.780479	0.297395
692.982308	0.297683
693.184118	0.297837
693.385909	0.298015
693.587683	0.298235
