sample name	sample
index	651
start time	 03-19-2021  04:12:43 PM
880	0.281170
Peak Time (s)	91.037
Peak Height 	0.2812
calc peak height	90,93
Baseline Time (s)	9.537
Baseline Value 	-0.003235
subtract baseline	10,4
Abs	0.179928
Peak Time (s)	92.537
Peak Height 	0.1799
calc peak height	90,93
Baseline Time (s)	10.037
Baseline Value 	0.003444
subtract baseline	10,3
PK_550	0.087599
Peak Time (s)	91.537
Peak Height 	0.0876
calc peak height	90,93
Baseline Time (s)	11.034
Baseline Value 	4.8928E-4
subtract baseline	10,2
PK_880	0.175620
Peak Time (s)	91.537
Peak Height 	0.1756
calc peak height	90,93
Baseline Time (s)	11.535
Baseline Value 	0.001672
subtract baseline	10,1


Time (s)	A880-A510	A880-A775	A880-A975	A880	I510	I775	I975	I880	
0.036000	-0.001404	-0.000169	-0.001316	0.003236	7355.003237	45290.158157	4055.337138	24089.464517
0.537000	-0.002620	-0.000830	-0.001498	0.003508	7340.100413	45199.507793	4054.196467	24076.273952
1.037000	-0.003611	-0.000121	0.000189	0.003893	7326.359577	45230.969017	4057.477205	24057.585911
1.538000	-0.003679	-0.000265	-0.001414	0.004966	7315.005119	45112.960833	4050.742472	24005.641689
2.035000	0.000294	0.000325	-0.001094	0.001814	7386.419947	45476.853230	4059.487446	24158.621564
2.535000	-0.001158	-0.000035	-0.000011	0.001344	7376.511428	45487.641662	4063.423271	24181.562528
3.041000	-0.000491	-0.000786	-0.006917	-0.002044	7417.596285	45745.931066	4054.530362	24347.422116
3.535500	-0.003295	-0.000749	-0.000669	0.004103	7327.419585	45149.703334	4054.785505	24047.430511
4.037000	-0.002136	-0.000843	0.000853	0.000090	7379.294606	45531.178504	4068.811112	24242.781960
4.536500	-0.000109	-0.000330	-0.002749	-0.000083	7401.540416	45598.295088	4060.099103	24251.223995
5.037000	-0.001658	-0.000309	-0.002553	-0.000499	7390.083337	45641.206803	4061.651871	24271.632771
5.536500	-0.000098	-0.000624	-0.003356	-0.000423	7405.112993	45602.847195	4059.426974	24267.911977
6.037500	-0.000906	-0.000632	-0.003194	-0.000650	7399.217428	45624.240422	4060.409777	24279.009264
6.537500	-0.000519	-0.000852	0.000888	-0.000429	7400.895784	45580.994481	4070.222693	24268.158756
7.035000	0.001059	-0.000104	-0.000238	0.000019	7412.371638	45610.462405	4066.213847	24246.266682
7.535500	-0.000680	-0.000325	-0.000511	-0.000494	7399.935481	45639.130574	4066.825504	24271.387581
8.035500	0.001015	0.000318	0.001417	-0.000338	7415.554086	45686.806270	4071.342397	24263.704657
8.535500	0.000062	-0.000344	-0.003142	-0.000408	7406.579930	45628.751788	4059.928032	24267.156233
9.036000	-0.001008	-0.000842	0.001921	-0.001034	7402.073829	45641.332305	4074.416139	24297.825327
9.536500	-0.000002	0.000230	-0.000650	0.000000	7401.795116	45645.006031	4065.213296	24247.185399
10.037000	0.000401	0.000665	0.000000	0.000624	7399.550342	45626.569942	4065.280103	24216.697782
10.536500	0.000316	0.000431	0.003210	0.000506	7399.891112	45615.132159	4073.771656	24222.458404
11.034500	-0.000590	0.000000	0.000838	0.001596	7379.696741	45466.355242	4064.937945	24169.236116
11.535000	0.000000	-0.000166	-0.001513	-0.000231	7404.155655	45628.894026	4063.608698	24258.487115
12.035500	0.001681	0.000516	0.001161	0.000505	7413.755173	45623.515062	4068.536122	24222.477957
12.538000	0.000142	0.000186	-0.001733	0.000074	7402.499829	45633.438516	4062.275698	24243.550038
13.035500	0.000565	-0.000174	-0.002290	-0.001776	7425.618686	45779.764201	4065.557417	24334.225625
13.536000	-0.001219	-0.000167	-0.003809	0.000233	7387.106478	45583.260574	4056.622420	24235.767459
14.050000	-0.001620	-0.000318	0.000139	0.000291	7382.473447	45562.811574	4066.480041	24232.945141
14.536000	-0.002244	-0.000783	-0.002912	0.002325	7355.714472	45319.007730	4053.615089	24133.743895
15.036500	-0.001580	0.000106	0.000181	0.002681	7358.814556	45370.964994	4060.520823	24116.461674
15.550500	-0.001045	0.000135	0.004096	0.001321	7377.873570	45506.408350	4073.952727	24182.638748
16.036500	-0.000063	0.000473	0.000731	0.001280	7388.216439	45543.495988	4065.470109	24184.671449
16.540500	0.001219	-0.000456	0.001344	0.000338	7410.766456	45544.821370	4069.431100	24230.681935
17.038000	-0.003118	0.000142	0.001726	0.002638	7343.816867	45378.593186	4064.546504	24118.525653
17.535500	0.002330	0.000519	0.001848	-0.001545	7441.292628	45825.237800	4075.539303	24322.916690
18.036000	0.003029	0.000502	-0.001723	-0.001573	7448.726130	45826.233480	4066.484395	24324.249984
18.536000	-0.000933	-0.000369	0.000893	0.001189	7380.342658	45470.131600	4066.113008	24189.101726
19.036500	-0.001093	-0.000514	0.002005	0.001659	7373.991795	45410.120841	4067.749177	24166.192527
19.536500	-0.000740	-0.000482	-0.002541	0.001169	7382.485305	45460.959579	4057.461574	24190.053597
20.037000	-0.000517	-0.000390	0.003264	0.001800	7378.376597	45408.505345	4070.599485	24159.327617
20.537500	-0.000984	-0.000098	-0.004553	0.001709	7374.588105	45445.762394	4051.039324	24163.748118
21.035000	-0.001410	-0.000541	-0.000822	0.001410	7373.303535	45431.688056	4061.199803	24178.314151
21.535000	0.001164	0.000307	0.000309	0.001986	7393.485109	45458.231765	4062.603878	24150.240561
22.035000	-0.001833	-0.000914	0.002181	0.001133	7371.837438	45422.470369	4069.540270	24191.855154
22.536000	-0.000882	0.000025	0.002260	0.001663	7376.070952	45462.286078	4068.385932	24165.972701
23.036000	-0.002056	-0.000784	-0.001686	0.001062	7370.304590	45442.014033	4059.892193	24195.286842
23.536000	0.000043	0.000185	-0.000269	0.002025	7381.754060	45442.595873	4061.042400	24148.363499
24.036500	-0.001338	-0.000802	-0.004411	0.001277	7375.363027	45419.198635	4052.480443	24184.792704
24.537000	-0.000258	-0.000364	0.000789	0.001126	7387.791081	45476.693341	4066.009330	24192.157643
25.037500	-0.002383	-0.000110	-0.001228	0.001684	7360.751169	45447.033887	4059.477393	24164.957087
25.537500	-0.001137	0.000207	-0.003378	0.001963	7370.485820	45450.824894	4053.353629	24151.383113
26.035000	-0.001995	-0.000287	-0.001027	0.001538	7366.127748	45444.023886	4060.355984	24172.068027
26.538000	-0.001645	-0.000003	0.001126	0.001716	7367.847310	45454.323954	4065.363349	24163.385583
27.035000	-0.003150	-0.000361	0.002484	0.001437	7355.531216	45446.688438	4069.535984	24177.007926
27.536000	-0.002983	-0.000049	0.002400	0.003141	7340.143695	45311.062910	4064.982873	24094.109992
28.041500	0.001523	-0.000403	0.004529	-0.001635	7433.958833	45743.387658	4082.669763	24327.318266
28.536500	-0.000830	0.000585	0.002314	0.001429	7378.967720	45539.959720	4069.122234	24177.415340
29.052500	-0.000621	-0.000028	0.002577	0.001025	7385.145604	45519.461666	4070.825708	24197.102841
29.537000	-0.001212	0.000502	-0.000662	0.004738	7341.884849	45209.406893	4053.205762	24016.678273
30.037500	0.000421	0.000078	0.000726	0.001228	7393.632247	45509.958717	4065.589349	24187.203339
30.535000	0.000619	0.000833	0.003917	0.002053	7387.301789	45503.206691	4071.624376	24147.014051
31.035000	-0.000004	0.000004	0.000543	0.001466	7386.923073	45479.443697	4064.519530	24175.569836
31.535500	-0.002218	-0.000300	-0.001534	0.005714	7322.096022	45037.214189	4048.568511	23969.485467
32.035500	-0.001654	-0.000719	-0.001430	0.002588	7358.998997	45299.700859	4056.685612	24120.977226
32.544000	-0.001608	-0.000508	0.004547	0.000934	7376.111516	45481.434946	4076.104070	24201.552518
33.036500	-0.001220	-0.001088	0.001259	0.000351	7385.903530	45481.688915	4069.180003	24230.016582
33.536500	-0.003150	-0.000015	-0.003402	0.006666	7303.377334	44972.913770	4041.530919	23923.600537
34.036500	-0.000247	-0.000643	0.000094	0.000927	7389.917176	45468.875084	4064.747182	24201.876216
34.537000	0.000055	-0.000114	0.002558	0.001016	7392.084676	45511.991166	4070.801213	24197.561870
35.034500	0.001091	-0.000273	0.003443	0.000154	7411.327192	45580.692648	4075.271818	24239.668433
35.535000	-0.001264	0.000862	-0.002253	0.005108	7337.654941	45208.447139	4048.286463	23998.776359
36.038000	0.000952	0.000000	-0.000940	0.002742	7383.689735	45354.656734	4057.531221	24113.455503
36.535500	-0.001166	-0.000538	0.001156	0.002103	7368.781278	45364.489441	4064.459351	24144.554603
37.036000	-0.001716	-0.001243	0.001722	0.001581	7368.497031	45346.606042	4067.226102	24169.974927
37.536500	-0.001587	-0.000174	-0.004655	0.002897	7356.573586	45322.663420	4047.808695	24105.950506
38.036000	0.000446	0.000539	0.002954	0.002922	7376.773639	45389.693613	4066.948720	24104.735008
38.536500	-0.000914	0.000697	0.000239	0.003244	7359.846698	45373.722619	4059.244473	24089.101714
39.037000	-0.001711	0.000395	0.001719	0.002717	7357.135311	45395.535324	4064.329593	24114.693021
39.537500	-0.000802	0.000257	0.005728	0.003566	7357.725149	45299.470639	4072.383055	24073.437527
40.034500	0.000289	-0.000038	-0.002565	0.002530	7379.143614	45371.604348	4053.972051	24123.797765
40.535500	-0.001287	0.000611	-0.000970	0.003262	7355.914181	45363.468968	4056.143981	24088.202726
41.035000	-0.001399	-0.000673	0.001352	0.002490	7362.543165	45313.685255	4063.971667	24125.716064
41.535500	-0.001971	-0.000097	0.004538	0.002614	7355.555821	45357.707111	4071.775237	24119.700634
42.035500	0.000415	0.000320	-0.000466	0.003224	7373.408824	45338.827959	4057.511236	24090.035568
42.536000	-0.000075	-0.000019	0.001478	0.002909	7371.653490	45336.518964	4063.230029	24105.361919
43.037000	-0.000227	0.000047	0.003903	0.002801	7371.211038	45353.542365	4069.677309	24110.621063
43.536500	-0.000426	0.000573	0.004025	0.003461	7362.567029	45340.426261	4068.303960	24078.541306
44.037000	0.000189	0.000052	-0.002236	0.002862	7374.787814	45347.980423	4053.964752	24107.628402
44.534500	-0.000017	0.000548	-0.001391	0.003603	7365.252329	45324.201261	4054.226367	24071.667948
45.035000	0.000874	0.000516	0.000227	0.000846	7402.102684	45590.198234	4065.291826	24205.853505
45.538000	0.000908	-0.000057	0.003915	0.002041	7390.333591	45417.401350	4071.647064	24147.570514
46.035000	0.001069	-0.000340	0.006064	0.001565	7396.781048	45436.177010	4078.379609	24170.756028
46.536000	0.000943	-0.000851	-0.000504	0.001353	7397.657603	45407.079877	4062.149848	24181.119798
47.036000	-0.003135	-0.000112	-0.000367	0.004275	7327.289938	45194.780525	4055.110380	24039.066350
47.536000	-0.001311	0.000309	0.000983	0.003555	7352.741022	45305.591752	4060.338477	24073.990469
48.036500	-0.000404	-0.000344	-0.005550	0.001082	7386.770797	45482.972054	4050.111277	24194.326157
48.558500	-0.000744	0.000179	0.001437	0.001778	7376.315919	45466.137363	4066.000465	24160.400323
49.034500	-0.002438	-0.000336	0.004327	0.004189	7335.112975	45181.407687	4067.219200	24043.254056
49.537500	-0.002113	-0.000773	-0.001859	0.003356	7346.689376	45219.821018	4053.668589	24083.642533
50.061000	0.000470	0.000506	0.002661	0.002104	7385.267297	45466.136668	4068.285696	24144.501927
50.535000	0.001020	0.000361	0.004466	0.001932	7392.570361	45468.763206	4073.335889	24152.863530
51.035500	-0.002484	-0.000708	0.001465	0.003074	7345.802445	45253.531032	4062.776154	24097.326902
51.536000	0.000008	-0.000003	0.000353	0.000850	7393.279421	45538.950673	4065.600761	24205.638880
52.036000	0.002162	0.000915	0.004712	0.002646	7396.908423	45453.219638	4072.139928	24118.162820
52.536500	0.003129	-0.001772	0.009936	0.004315	7389.802450	45030.268399	4081.270490	24037.157522
53.036500	-0.054949	-0.020169	0.004426	0.076463	6251.780193	37133.199295	3897.879154	20817.525113
53.536500	-0.029489	-0.013638	0.016016	0.006159	7054.709091	43726.148777	4092.248486	23948.028113
54.037000	-0.017540	-0.015222	0.004051	-0.080616	8090.318793	52537.767292	4304.851744	28580.495697
54.534500	0.008695	-0.007754	0.002517	-0.081089	8413.376698	53450.763096	4301.577685	28608.420354
55.035000	0.018654	-0.006073	0.010780	-0.082635	8558.767244	53826.518085	4332.193614	28699.695777
55.535500	0.046333	-0.002567	0.020403	-0.094168	9084.278158	55614.943158	4400.629623	29391.243815
56.035500	0.042588	-0.002608	0.028519	-0.062692	8610.107566	51936.724656	4325.254520	27546.380624
56.536000	0.040829	0.001548	0.042135	-0.015056	8006.678140	47280.977000	4222.482617	24996.608357
57.036000	0.046130	0.007643	0.046989	0.020835	7665.980825	44349.318659	4135.495620	23252.048866
57.536500	0.058561	0.013679	0.062832	0.057664	7410.919326	41523.632527	4080.102106	21605.637413
58.036500	0.069017	0.021446	0.085580	0.094912	7146.862722	38999.705807	4043.363996	20076.598821
58.537000	0.082655	0.030763	0.094551	0.129784	6948.854743	36946.400877	3980.713948	18759.207918
59.037500	0.097066	0.039969	0.114355	0.161422	6795.168271	35240.792567	3953.307991	17652.116341
59.537500	0.110434	0.050243	0.123850	0.191720	6649.964934	33791.110393	3906.909790	16664.957910
60.035000	0.124529	0.058820	0.134747	0.212705	6592.468021	32925.656654	3885.196324	16020.450559
60.535000	0.140911	0.068449	0.146916	0.226281	6615.772951	32655.588045	3882.207480	15619.819763
61.035500	0.145669	0.074499	0.154768	0.248089	6476.464634	31601.261251	3853.084363	15001.881878
61.536000	0.143529	0.075541	0.151784	0.253118	6419.507856	31340.509445	3836.781495	14863.736805
62.036000	0.148651	0.077827	0.159974	0.240263	6564.131533	32343.501758	3880.249224	15220.053723
62.537000	0.149101	0.079155	0.157813	0.250756	6482.602992	31732.210086	3853.860636	14928.418398
63.037000	0.150949	0.081974	0.168452	0.264709	6386.793877	31006.705594	3847.075931	14551.351019
63.537000	0.148946	0.081671	0.163810	0.267565	6349.078924	30804.167848	3831.911255	14475.629656
64.037500	0.159019	0.085533	0.165044	0.264585	6451.358026	31244.610471	3840.402962	14554.646382
64.534500	0.158676	0.086429	0.160173	0.263249	6459.254337	31389.781155	3833.273707	14590.227825
65.035500	0.157773	0.086012	0.166725	0.261047	6469.626406	31506.461009	3851.030468	14649.134177
65.582500	0.158992	0.086658	0.166326	0.257426	6508.543665	31787.236037	3857.656099	14746.655182
66.036000	0.163744	0.089017	0.168094	0.257780	6544.279464	31920.131626	3860.579893	14737.070802
66.536500	0.162353	0.087376	0.168292	0.255461	6551.871073	31965.241558	3865.807009	14799.913536
67.068000	0.163350	0.088398	0.167089	0.256869	6548.502997	31939.499820	3860.384688	14761.709963
67.537000	0.161905	0.088526	0.169988	0.255889	6544.714753	32013.344589	3868.451681	14788.292726
68.040000	0.164085	0.089766	0.170462	0.257062	6552.941457	32017.769273	3866.992229	14756.495309
68.534500	0.163558	0.089576	0.171114	0.257638	6543.924464	31966.692166	3867.150613	14740.904397
69.040500	0.163984	0.089125	0.171754	0.259632	6531.143535	31804.548655	3864.332460	14687.149054
69.535000	0.165801	0.090553	0.169514	0.259717	6545.266645	31893.508358	3859.509248	14684.853060
70.035500	0.164680	0.089502	0.165186	0.259151	6540.739003	31861.352774	3851.762776	14700.098193
70.535500	0.166594	0.090464	0.176824	0.260546	6544.968712	31832.683030	3873.014931	14662.581030
71.036000	0.165967	0.091420	0.169704	0.263219	6518.119912	31719.201466	3852.685555	14591.043914
71.536000	0.164583	0.089959	0.174017	0.262045	6516.409392	31700.180004	3864.019084	14622.397645
72.036500	0.167385	0.091132	0.173489	0.263661	6526.030551	31670.989340	3859.573042	14579.236364
72.537000	0.167561	0.090944	0.177055	0.263689	6527.241305	31656.817424	3866.922358	14578.496621
73.037000	0.166503	0.090658	0.171924	0.266486	6496.041696	31454.592882	3850.539549	14504.183875
73.535000	0.166624	0.091600	0.173493	0.266229	6499.086393	31533.074701	3854.285885	14510.992625
74.035000	0.166868	0.091852	0.172028	0.265936	6503.421392	31568.748169	3851.878780	14518.752582
74.535500	0.167714	0.091579	0.171499	0.267084	6500.989705	31475.721116	3848.446957	14488.364834
75.035500	0.167907	0.089266	0.169442	0.265418	6516.022178	31433.427990	3847.649115	14532.511523
75.538500	0.168848	0.091763	0.171059	0.268671	6497.334913	31384.101091	3844.316547	14446.469077
76.036500	0.166818	0.090383	0.170534	0.267243	6492.481817	31387.218923	3846.153755	14484.154750
76.542000	0.167724	0.090502	0.173378	0.267795	6495.330412	31358.933979	3850.835798	14469.553461
77.037000	0.169739	0.091523	0.179365	0.271080	6485.122033	31211.862317	3856.388392	14383.163312
77.537500	0.169774	0.090484	0.174843	0.268601	6505.371741	31305.312512	3852.185633	14448.301406
78.037000	0.169552	0.090592	0.172176	0.268893	6501.219998	31293.347876	3846.136559	14440.603987
78.537500	0.169639	0.090326	0.173270	0.269710	6495.328287	31223.044319	3846.700120	14419.103045
79.035000	0.172624	0.091467	0.174551	0.271161	6507.713998	31202.966568	3846.355639	14381.032160
79.535500	0.169871	0.091470	0.171629	0.271571	6482.237617	31176.673002	3839.590472	14370.306611
80.036000	0.168910	0.089778	0.172849	0.270228	6485.305536	31154.073798	3844.790408	14405.514032
80.538500	0.170778	0.090146	0.177094	0.270925	6494.722243	31132.779394	3852.037766	14387.228770
81.036000	0.169146	0.090730	0.177946	0.272283	6470.722681	31082.817683	3850.999432	14351.668742
81.536000	0.169567	0.090723	0.169817	0.272269	6474.205334	31083.275981	3834.527971	14352.036479
82.037000	0.171572	0.092132	0.179832	0.274096	6475.631262	31056.352160	3851.150379	14304.400285
82.537000	0.170447	0.089360	0.176926	0.272068	6482.871675	31008.412662	3849.353055	14357.305192
83.037500	0.172880	0.090903	0.179550	0.274444	6483.333990	30954.892728	3849.859071	14295.348034
83.535000	0.171923	0.090159	0.179379	0.274446	6475.634177	30906.974012	3849.503848	14295.276500
84.035500	0.170352	0.090126	0.180480	0.274302	6464.227989	30914.083152	3852.054602	14299.023736
84.535500	0.169766	0.089394	0.172833	0.274116	6461.041341	30879.145846	3836.883899	14303.883439
85.035500	0.171263	0.088834	0.182498	0.274236	6472.033635	30835.574671	3856.340761	14300.746091
85.536500	0.173651	0.088936	0.178077	0.275427	6481.626731	30766.089931	3844.848108	14269.817431
86.036500	0.172577	0.088916	0.178209	0.275155	6475.191527	30782.103041	3845.670203	14276.856509
86.536000	0.171793	0.087892	0.177747	0.275336	6467.475162	30705.346361	3844.360649	14272.161825
87.037000	0.171930	0.088006	0.180827	0.275873	6464.284413	30678.409632	3849.549223	14258.242432
87.534500	0.173849	0.088466	0.175107	0.276247	6476.646013	30683.907945	3837.172265	14248.560985
88.037500	0.174283	0.088789	0.175226	0.277031	6473.843862	30654.657533	3835.831897	14228.278130
88.535000	0.173707	0.087327	0.178190	0.276838	6470.774115	30574.089980	3842.211699	14233.260234
89.035500	0.174119	0.087135	0.179211	0.277438	6469.270023	30523.973928	3843.064607	14217.752197
89.535500	0.173691	0.088578	0.177819	0.278850	6454.590969	30525.960801	3837.392549	14181.361975
90.036000	0.172163	0.086326	0.178647	0.277126	6456.150893	30492.585177	3842.553857	14225.806676
90.536500	0.174148	0.087000	0.179726	0.278298	6462.628440	30461.115932	3842.363920	14195.557086
91.037000	0.175146	0.086684	0.176411	0.281170	6447.711386	30260.799509	3829.901685	14121.797068
91.537000	0.175620	0.087599	0.177236	0.280077	6460.180449	30386.795525	3833.746518	14149.803699
92.037000	0.174887	0.086522	0.175701	0.279694	6457.388673	30343.207542	3831.434760	14159.635401
92.537000	0.174443	0.087120	0.179928	0.280008	6451.360200	30361.024344	3839.310456	14151.578212
93.035000	0.174627	0.086317	0.175316	0.280999	6444.949157	30248.583155	3828.055904	14126.176868
93.534500	0.174928	0.086035	0.176745	0.280272	6453.114892	30276.365197	3832.368435	14144.795032
94.035500	0.173879	0.086823	0.180536	0.281174	6437.634433	30269.279020	3838.185123	14121.701322
94.536000	0.175902	0.085588	0.178080	0.281129	6454.048514	30194.812860	3833.328705	14122.840956
95.036000	0.174111	0.086250	0.179774	0.284869	6410.303407	30003.259268	3829.231346	14027.496195
95.536500	0.177202	0.085998	0.183005	0.282606	6452.637211	30128.280131	3840.279970	14085.081917
96.033500	0.175547	0.085159	0.177680	0.282266	6442.192956	30097.214289	3830.246993	14093.762735
96.537000	0.174665	0.085955	0.178185	0.283285	6427.149367	30083.371049	3829.222034	14067.780832
97.036500	0.174356	0.084408	0.173815	0.284074	6418.488510	29938.378071	3818.971096	14047.692417
97.534500	0.175349	0.083961	0.175808	0.282767	6436.655998	29991.653155	3825.513637	14080.982227
