sample name	sample
index	845
start time	 04-08-2021  10:27:22 AM
880	0.384086
Peak Time (s)	92.037
Peak Height 	0.3841
calc peak height	90,93
Baseline Time (s)	11.537
Baseline Value 	-0.007774
subtract baseline	10,4
Abs	0.274598
Peak Time (s)	92.537
Peak Height 	0.2746
calc peak height	90,93
Baseline Time (s)	9.537
Baseline Value 	0.005589
subtract baseline	10,3
PK_550	0.150542
Peak Time (s)	91.537
Peak Height 	0.1505
calc peak height	90,93
Baseline Time (s)	9.036
Baseline Value 	6.6793E-4
subtract baseline	10,2
PK_880	0.261646
Peak Time (s)	92.537
Peak Height 	0.2616
calc peak height	90,93
Baseline Time (s)	11.537
Baseline Value 	0.003829
subtract baseline	10,1


Time (s)	A880-A510	A880-A775	A880-A975	A880	I510	I775	I975	I880	
0.039000	-0.002208	-0.000426	-0.001713	0.005137	6789.177991	42169.681309	3792.754404	22415.575102
0.536500	-0.003683	-0.000765	-0.004206	0.006745	6760.244549	41993.259368	3782.198731	22342.667207
1.037000	-0.001880	-0.000063	-0.000124	0.005682	6787.138558	42153.191096	3795.457224	22390.830023
1.534500	-0.000185	-0.000046	0.002079	0.001009	6847.537031	42581.380543	3813.426610	22604.031319
2.037500	-0.001033	-0.000087	-0.003466	0.000742	6841.985250	42602.043429	3799.608824	22616.270763
2.535000	-0.004424	0.000176	-0.002349	0.006479	6755.802136	42102.580747	3787.652381	22354.713204
3.034500	0.001010	0.000321	-0.000115	0.001596	6853.339658	42561.106594	3806.124769	22577.112555
3.535500	-0.001210	-0.000824	-0.002274	0.000823	6839.527723	42527.078761	3802.503612	22612.562455
4.036000	-0.002749	-0.000506	-0.001182	0.000692	6826.122666	42568.257079	3805.700123	22618.587241
4.535500	-0.000195	-0.000305	0.000729	0.001701	6840.833687	42494.142813	3808.062592	22572.325944
5.036500	-0.001208	-0.000651	-0.001538	0.000241	6845.092301	42596.252659	3805.947536	22639.277480
5.537000	-0.001821	-0.000513	0.000837	0.000175	6839.877584	42615.014879	3812.353417	22642.321427
6.037000	-0.002400	-0.000669	-0.009494	-0.000312	6839.001869	42645.411594	3786.738983	22664.699582
6.537500	-0.001388	0.000226	-0.001760	-0.000047	6846.130372	42703.362089	3806.120569	22652.515092
7.034500	0.000560	0.000334	0.001911	0.000037	6863.974679	42705.642465	3815.546399	22648.663419
7.535500	0.000130	0.001000	-0.000994	0.000785	6852.686182	42698.074222	3805.947692	22614.299880
8.035500	-0.001100	-0.000777	-0.002986	-0.000210	6850.443779	42626.149877	3803.343592	22660.030858
8.538500	-0.002031	-0.000437	0.002177	-0.000169	6841.159536	42653.689357	3816.792848	22658.142545
9.036000	0.000134	0.000000	-0.001367	0.000399	6856.424030	42641.605701	3805.982015	22632.032231
9.536500	0.000205	-0.000840	0.000000	-0.001057	6871.069189	42698.324511	3813.393852	22699.025941
10.036500	-0.000011	0.000870	0.000810	0.000797	6851.227200	42684.991425	3810.648204	22613.768506
10.539500	0.000037	0.001070	0.002525	0.000518	6854.350012	42729.165791	3815.899746	22626.574761
11.040000	-0.001831	-0.000352	-0.000089	-0.000737	6848.482511	42713.731189	3812.314652	22684.258786
11.537500	0.000000	0.000537	-0.004037	0.000000	6858.956707	42727.720382	3800.054058	22650.360746
12.034500	-0.001677	-0.000159	-0.002584	-0.000675	6849.360944	42725.727777	3805.607565	22681.397638
12.538000	-0.001353	0.000510	0.002303	-0.000289	6848.774910	42751.852245	3817.443270	22663.665470
13.035500	0.000742	0.000486	0.002328	-0.000797	6873.720793	42796.483315	3818.852011	22687.019920
13.537000	0.001629	0.000483	0.002434	-0.000908	6883.337654	42806.472651	3819.428345	22692.158534
14.036000	-0.000063	-0.000001	-0.003909	0.002092	6838.365686	42486.193269	3794.953687	22554.437716
14.535500	-0.001144	0.000570	-0.005330	-0.000112	6849.076203	42741.017139	3796.982950	22655.488231
15.037000	-0.004600	-0.000212	-0.000783	0.004850	6769.399491	42215.206508	3795.905316	22428.615084
15.540000	-0.000515	0.000635	-0.004195	-0.000832	6861.998934	42813.505838	3801.810809	22688.646048
16.037500	-0.000176	0.000249	-0.002083	-0.000887	6865.778335	42782.921127	3807.473486	22691.181062
16.538000	-0.000516	0.000316	-0.005562	-0.000771	6861.397139	42778.454731	3798.094529	22685.837721
17.035000	-0.003401	-0.000042	-0.000612	0.003180	6796.384460	42382.880905	3800.691415	22504.681859
17.536000	-0.000635	-0.000326	-0.002688	0.000718	6846.018956	42582.362490	3801.696992	22617.378602
18.036000	-0.000865	-0.000006	0.002818	0.001370	6837.598471	42551.845272	3814.422719	22587.470367
18.536000	0.001206	-0.000291	0.002706	0.001173	6859.274453	42543.844696	3814.648408	22596.520159
19.036500	-0.003379	-0.000355	0.000893	0.002478	6803.225604	42418.493179	3806.456186	22536.768085
19.539500	-0.002178	-0.000189	0.004423	0.000312	6835.161844	42632.198096	3821.464442	22636.001791
20.044500	-0.002311	0.000406	0.002974	0.001091	6826.490265	42615.283094	3815.570292	22600.258574
20.537000	0.000996	0.001085	-0.001891	0.001839	6850.894631	42608.986546	3800.855049	22566.005704
21.037500	-0.003710	-0.000068	-0.004230	0.002656	6798.421818	42428.478010	3792.662362	22528.647999
21.535000	-0.000726	0.000570	-0.000664	0.001336	6839.254642	42607.843795	3805.369171	22589.043643
22.035500	-0.000980	0.001080	-0.004818	0.001682	6833.531958	42622.987879	3793.663360	22573.203004
22.535500	-0.001294	-0.000310	0.004149	0.001048	6836.575222	42553.577902	3818.789645	22602.236858
23.035500	-0.002251	0.000040	0.001252	0.001971	6818.706063	42501.025632	3808.724892	22559.976581
23.539000	-0.002239	0.000501	-0.002182	0.001166	6826.457804	42617.118501	3801.848077	22596.816057
24.036000	-0.001267	0.000244	-0.001795	0.001284	6834.582085	42582.654143	3802.550640	22591.398173
24.537000	-0.003031	0.000129	0.000752	0.000952	6820.978999	42602.678499	3810.087947	22606.665898
25.037500	-0.002438	0.000719	-0.004158	0.001931	6817.308643	42566.966743	3794.726035	22561.796880
25.534500	0.000586	0.000438	-0.003208	0.001228	6852.807628	42605.684819	3799.016034	22593.972712
26.037500	-0.000783	0.000122	0.002241	0.001108	6840.887246	42587.679636	3813.594375	22599.505236
26.535000	-0.000950	-0.000178	0.000852	0.001054	6839.798135	42565.104437	3810.082835	22601.965769
27.035500	0.002223	0.000097	-0.001976	-0.000990	6889.856012	42778.494520	3808.026529	22695.939849
27.535500	0.002258	0.000907	0.004058	-0.001044	6890.712705	42858.140057	3824.096857	22698.400625
28.036500	0.000034	0.000812	0.002009	-0.000303	6862.189601	42781.024067	3816.703595	22664.304563
28.536500	0.001908	0.000732	0.001767	-0.000366	6880.792081	42779.361329	3816.230182	22667.178704
29.036500	-0.001046	0.000325	-0.002461	-0.001114	6859.604156	42810.834383	3807.077156	22701.620094
29.539500	0.001748	0.001026	-0.004347	-0.000642	6881.920817	42832.037837	3800.920341	22679.914631
30.037000	0.000254	0.000404	0.002952	-0.001089	6871.847620	42815.920833	3821.278791	22700.494688
30.534500	-0.001943	0.000153	-0.003749	0.002017	6821.193333	42507.117906	3795.563244	22557.838333
31.035000	-0.003822	0.000288	-0.001169	0.001768	6805.745978	42542.290504	3802.920443	22569.236422
31.534500	0.000531	0.000107	-0.002626	-0.000935	6873.020230	42774.267500	3806.177891	22693.383626
32.035500	0.000438	0.000862	-0.003443	-0.000552	6868.453061	42808.609250	3803.042988	22675.755024
32.536000	-0.000858	0.000415	0.000116	0.000354	6847.368449	42683.951763	3809.987264	22634.111163
33.036000	-0.001614	0.000013	-0.004907	0.004598	6799.876798	42258.678512	3785.910726	22440.117464
33.536500	-0.000262	0.000349	0.002137	0.000957	6847.300315	42622.358248	3813.718504	22606.421433
34.039000	-0.001372	-0.000262	-0.000472	0.001071	6835.617736	42555.879884	3806.567611	22601.200370
34.537000	-0.001282	0.000108	0.001477	0.001831	6829.240686	42520.110871	3809.681771	22566.364413
35.034500	-0.001972	0.000842	0.001479	0.001740	6823.549227	42595.738422	3809.925501	22570.523211
35.537500	-0.000966	0.000360	0.002060	0.001549	6834.924535	42569.038816	3811.954316	22579.257752
36.035000	-0.001810	0.000010	-0.003222	0.001030	6831.839422	42584.542706	3799.495833	22603.082634
36.535000	-0.000637	0.000192	-0.002491	0.001132	6842.046615	42591.912461	3801.132363	22598.391020
37.035500	0.000216	0.000448	-0.001718	0.002266	6839.357906	42511.318907	3800.192904	22546.450830
37.536000	-0.002178	-0.000082	0.001705	0.001146	6827.226698	42565.382760	3812.080458	22597.725935
38.036500	-0.001012	-0.000193	0.001464	0.000906	6840.622515	42577.309127	3812.079340	22608.762038
38.542000	-0.000795	-0.000131	0.001088	0.000715	6844.517038	42600.560063	3811.592999	22617.538809
39.036500	-0.000848	0.000716	-0.001821	0.002247	6829.415246	42537.702269	3799.975099	22547.342631
39.537500	-0.001581	0.000784	-0.000533	0.001701	6827.629278	42594.013098	3804.757359	22572.310722
40.039500	-0.001939	0.000024	-0.003417	0.000927	6831.587142	42595.348862	3799.255029	22607.797169
40.534500	-0.000844	0.000418	0.002667	0.001792	6833.783249	42552.087028	3812.913984	22568.156255
41.035000	0.000574	-0.000534	-0.001038	0.001388	6851.173937	42501.915861	3804.256456	22586.673503
41.535500	-0.002733	-0.000333	0.002532	0.000828	6824.983209	42571.623332	3815.098686	22612.343347
42.035500	-0.001375	-0.000185	0.001516	0.000976	6836.494835	42571.557487	3812.032604	22605.528579
42.538500	-0.002488	-0.000210	0.000998	0.001251	6823.293440	42544.071163	3809.947070	22592.926119
43.037000	-0.000714	-0.000144	-0.000053	0.001430	6838.466281	42533.760291	3806.722982	22584.732124
43.536500	0.002762	0.000732	0.002427	-0.001605	6901.005721	42893.941700	3821.256998	22724.292313
44.037500	-0.000363	0.000700	0.001043	-0.001218	6867.161425	42855.189877	3816.568880	22706.447070
44.537500	0.001007	0.000059	0.000435	-0.000849	6876.775026	42761.963035	3813.991755	22689.446854
45.034500	-0.001916	0.000402	0.000352	0.003409	6808.260127	42402.599583	3802.610751	22494.273661
45.535000	-0.000005	0.000516	0.001873	-0.000652	6865.165620	42785.911810	3817.265572	22680.366565
46.035500	0.001764	0.000497	0.002876	-0.000735	6882.966448	42791.842748	3820.140686	22684.198747
46.535500	-0.000504	0.000795	0.002899	-0.000115	6855.232496	42762.086797	3818.560720	22655.654158
47.036000	-0.002228	-0.000145	-0.002850	0.004108	6798.702013	42288.923101	3792.478072	22462.416776
47.536000	-0.000665	0.000178	0.000239	0.002216	6831.444401	42491.226471	3805.428816	22548.742853
48.036500	0.001760	0.000525	-0.000034	0.000100	6874.889550	42717.404933	3810.261273	22645.766473
48.536500	-0.000776	-0.000242	0.004408	-0.001057	6861.650209	42753.370585	3825.063445	22699.016226
49.037000	-0.004092	-0.000394	-0.000738	0.002873	6792.765291	42378.833531	3801.162866	22518.715617
49.537500	0.001047	0.000181	0.002587	-0.002623	6894.262307	42937.019438	3824.382744	22771.289954
50.037500	0.000876	0.000438	0.004888	-0.000095	6868.265704	42727.359845	3823.781828	22654.732213
50.535500	0.002664	0.000645	0.001101	0.000306	6881.605344	42709.474395	3812.702409	22636.296794
51.038500	-0.045237	-0.011239	0.037337	0.305057	4555.552016	22009.575975	3285.549631	12575.515239
51.536000	-0.069286	-0.016928	0.011160	0.203851	4916.632936	26754.531755	3401.721799	15171.066639
52.036000	-0.043814	-0.020550	-0.017346	-0.141412	7907.356084	55499.619355	4187.920947	30334.646573
52.539000	-0.058129	-0.086585	-0.023343	-0.281517	9657.332158	65314.331313	4737.255493	40861.403006
53.039500	-0.032105	-0.120309	-0.013204	-0.316770	10711.855465	65535.000000	4965.066566	44089.482720
53.536000	-0.013599	-0.115007	-0.007287	-0.311467	10959.233801	65535.000000	4968.314391	43587.019827
54.040000	-0.011361	-0.054449	-0.007056	-0.242767	9787.000688	64368.140024	4633.021522	37602.578936
54.540000	-0.005642	-0.014481	-0.001840	-0.155170	8568.987926	57964.998743	4293.759243	31224.561282
55.035000	-0.002705	-0.016658	-0.001656	-0.170586	8822.393352	59674.917057	4353.165976	32255.831116
55.535500	0.014564	-0.004181	0.009547	-0.130355	8507.027010	56149.191185	4244.311484	29639.590349
56.035500	0.007942	0.001246	0.020641	-0.067780	7651.470254	49561.500732	4068.273010	26022.640731
56.536000	0.033756	0.009733	0.024798	-0.084693	8163.549876	52382.697983	4137.807602	26949.432426
57.039000	0.045275	0.015853	0.031520	-0.070566	8130.834909	51475.583770	4112.985828	26172.868744
57.536500	0.057787	0.025027	0.048962	-0.011258	7575.897704	46160.061794	3980.331372	23174.676255
58.040000	0.061720	0.030025	0.066406	0.040278	7069.532318	41746.000646	3881.369152	20881.962180
58.597000	0.078402	0.038365	0.081012	0.066060	6978.894934	40209.818224	3850.583048	19833.157443
59.034500	0.085260	0.043575	0.090340	0.092116	6793.791653	38452.821874	3805.957004	18834.574391
59.537500	0.098419	0.052865	0.110672	0.117112	6683.672121	37183.669787	3793.816098	17931.319105
60.038000	0.111670	0.059014	0.122074	0.133182	6657.880958	36405.314361	3781.796617	17377.459486
60.535500	0.122125	0.064960	0.130168	0.141371	6678.601974	36231.777652	3781.552664	17103.012743
61.035500	0.123923	0.070309	0.139696	0.154330	6577.611098	35649.716196	3772.801373	16679.147698
61.536500	0.136849	0.080357	0.149646	0.197440	6317.158099	33236.024338	3691.700866	15356.765365
62.036500	0.140955	0.082535	0.160255	0.211971	6231.326675	32380.239131	3682.509298	14939.791374
62.537000	0.146214	0.085943	0.157762	0.209334	6296.144635	32796.028898	3682.847618	15014.431187
63.036500	0.152173	0.088427	0.164355	0.216950	6282.442436	32442.675596	3680.460877	14800.078226
63.542500	0.160803	0.091208	0.171884	0.215922	6363.036564	32704.474443	3700.576578	14828.793645
64.039500	0.163578	0.093721	0.169259	0.224172	6317.133444	32311.002281	3675.079732	14600.296233
64.537500	0.169184	0.094149	0.172741	0.225003	6357.142976	32283.570339	3681.237907	14577.512894
65.035000	0.168953	0.096701	0.171031	0.235127	6270.932935	31772.623712	3654.041338	14303.486167
65.535500	0.174841	0.097530	0.175152	0.235042	6320.409373	31833.816516	3663.622316	14305.770278
66.036000	0.175704	0.099877	0.176004	0.245058	6244.872447	31324.230684	3642.866262	14040.821702
66.535500	0.179105	0.100927	0.187771	0.246722	6259.086567	31283.884807	3665.774863	13997.405460
67.036500	0.176201	0.101186	0.182086	0.257145	6151.470017	30623.130957	3629.498376	13729.120705
67.536000	0.181180	0.102912	0.182030	0.257428	6189.015599	30716.004055	3628.749680	13721.935825
68.034000	0.179592	0.103555	0.192632	0.265859	6109.407021	30218.450041	3633.558467	13509.738471
68.537500	0.187164	0.106721	0.193841	0.269938	6136.958360	30160.737016	3627.207963	13408.556505
69.039500	0.182340	0.106839	0.195545	0.278592	6031.874488	29626.625459	3612.004280	13196.965640
69.535000	0.189282	0.107924	0.195054	0.277698	6092.572079	29749.504979	3612.879204	13218.641621
70.056000	0.190885	0.110236	0.200430	0.287858	6026.348449	29265.486933	3602.544487	12975.073031
70.535500	0.194774	0.112270	0.201577	0.287234	6061.105170	29428.431939	3606.355823	12989.856187
71.042000	0.196641	0.112597	0.209099	0.291050	6046.055603	29214.742477	3614.386666	12899.723583
71.536000	0.199721	0.114330	0.208005	0.295416	6036.156323	29054.615283	3602.582134	12797.541797
72.182500	0.199792	0.115713	0.210066	0.302926	5979.467881	28685.649344	3590.946572	12624.165091
72.540000	0.203073	0.117681	0.220153	0.304273	5994.109730	28722.848238	3609.679233	12593.390894
73.037500	0.204411	0.117539	0.212918	0.309136	5967.470076	28424.947856	3583.851504	12483.072296
73.575500	0.209055	0.119274	0.215580	0.310766	5990.239813	28431.094202	3586.025689	12446.355190
74.056000	0.206447	0.120822	0.216887	0.319147	5907.982794	28029.742313	3571.216906	12259.782382
74.535500	0.211798	0.122419	0.220718	0.318201	5954.870180	28178.420627	3581.190909	12280.676026
75.035500	0.213691	0.122370	0.224164	0.320696	5950.354297	28029.692581	3583.189738	12225.692399
75.538500	0.215067	0.123181	0.227905	0.323064	5942.931863	27939.163818	3586.081444	12173.817335
76.036000	0.216591	0.124865	0.224561	0.332156	5886.884100	27512.655145	3560.209837	11977.242713
76.536500	0.222500	0.127040	0.227861	0.329504	5950.361906	27789.753882	3572.500400	12034.155895
77.036500	0.218019	0.126956	0.231024	0.336727	5863.888764	27371.457127	3564.096672	11879.935676
77.536500	0.225874	0.129087	0.232061	0.334520	5938.088056	27618.900293	3570.805635	11926.787668
78.042000	0.223209	0.128524	0.235442	0.341010	5870.507669	27217.848865	3564.375483	11789.703568
78.537500	0.229064	0.130583	0.237899	0.338604	5931.427055	27470.967901	3574.452200	11840.286850
79.035000	0.228718	0.131705	0.232560	0.345106	5880.850044	27166.323440	3550.112395	11704.244775
79.535000	0.230833	0.132906	0.241333	0.341853	5920.432242	27418.321405	3574.838753	11772.064076
80.038500	0.229273	0.133957	0.238375	0.349518	5852.707039	27044.980716	3552.961945	11613.073308
80.535500	0.234804	0.135132	0.245659	0.346388	5916.243986	27287.339208	3574.402315	11677.652809
81.036000	0.232091	0.135322	0.242040	0.351392	5859.571652	27016.546503	3556.612486	11574.637696
81.539500	0.237127	0.137565	0.245956	0.349656	5909.247848	27240.146052	3568.233846	11610.240495
82.037000	0.236176	0.136352	0.238386	0.355325	5860.678105	26854.633889	3541.250213	11494.489699
82.537500	0.235743	0.137805	0.249657	0.351321	5886.788841	27159.860502	3572.457727	11576.097660
83.037500	0.236089	0.138048	0.249248	0.356209	5853.612350	26899.846617	3561.510010	11476.581950
83.534500	0.242344	0.140643	0.251548	0.355766	5902.654784	27069.532058	3567.160946	11485.552715
84.035000	0.239131	0.138855	0.247488	0.361277	5838.930134	26663.793810	3547.595828	11374.586331
84.535500	0.245455	0.141810	0.261346	0.358913	5902.388473	26958.842341	3581.015329	11422.017645
85.035500	0.245066	0.141884	0.252977	0.362512	5873.102403	26762.904825	3556.239085	11349.915703
85.536000	0.245186	0.141650	0.260821	0.360229	5890.721754	26876.579677	3577.159444	11395.581105
86.036000	0.250227	0.143979	0.260019	0.362908	5908.125239	26857.134432	3569.913136	11342.016383
86.536000	0.248281	0.144279	0.260795	0.364244	5883.961343	26799.633903	3568.753393	11315.424081
87.039500	0.250526	0.145039	0.258348	0.369521	5861.803481	26550.479733	3552.901921	11211.197777
87.537000	0.251674	0.144802	0.268549	0.365732	5897.966663	26746.141820	3581.821278	11285.903197
88.035000	0.249708	0.146597	0.268434	0.374789	5817.774423	26347.799310	3562.756304	11108.393409
88.535000	0.253867	0.145924	0.265288	0.369189	5888.670167	26617.349067	3567.817686	11217.713991
89.035500	0.255235	0.147313	0.265849	0.370678	5887.782396	26611.825065	3565.900606	11188.509374
89.535000	0.255250	0.147015	0.278747	0.371195	5884.092869	26567.046814	3591.821341	11178.393047
90.036000	0.258300	0.149866	0.268191	0.374212	5884.331660	26557.892207	3563.442789	11119.585809
90.539000	0.257240	0.149220	0.269169	0.375098	5870.093429	26473.995407	3563.632726	11102.400236
91.036500	0.256347	0.150101	0.272675	0.376388	5854.193838	26451.637794	3568.207251	11077.437949
91.536500	0.260646	0.150542	0.270946	0.377842	5874.929923	26396.355438	3561.643142	11049.383040
92.037000	0.255480	0.149776	0.274132	0.384086	5792.560203	26017.224492	3555.383320	10929.977295
92.537000	0.261646	0.150500	0.274598	0.379596	5869.415841	26298.612744	3565.551390	11015.667257
93.035000	0.262094	0.151956	0.272261	0.381731	5857.124550	26261.779478	3556.372664	10974.815480
93.551000	0.262415	0.151664	0.275537	0.383028	5850.040366	26175.845761	3560.424114	10950.105266
94.035500	0.262972	0.152450	0.275325	0.390789	5798.187085	25802.167442	3544.216816	10803.713108
94.581500	0.264281	0.152728	0.279977	0.385112	5848.454701	26120.803679	3565.268516	10910.528729
95.036500	0.267455	0.154159	0.278794	0.387545	5853.828314	26066.861995	3557.839931	10864.569225
95.536000	0.268463	0.154232	0.284610	0.388912	5851.230912	25997.427444	3566.989429	10838.877361
96.036500	0.265897	0.154031	0.279445	0.395374	5786.359443	25643.069931	3543.280973	10718.447554
96.537000	0.265810	0.153556	0.280483	0.389751	5825.977956	25916.364680	3556.785295	10823.136110
97.055000	0.267022	0.155450	0.284198	0.396654	5785.260994	25650.420405	3550.296169	10694.809923
