sample name	sample
index	528
start time	 03-11-2021  04:17:07 PM


Wavelength (nm)	Absorbance
494.344910	NaN
494.563924	NaN
494.782919	NaN
495.001897	0.737723
495.220856	NaN
495.439797	NaN
495.658719	NaN
495.877624	NaN
496.096510	NaN
496.315378	0.121160
496.534227	-0.479340
496.753059	NaN
496.971872	0.727903
497.190667	0.115630
497.409444	0.115648
497.628203	0.115013
497.846943	0.115863
498.065665	0.115708
498.284369	0.114287
498.503055	0.115802
498.721723	0.116376
498.940372	0.115971
499.159003	0.115902
499.377616	0.116251
499.596210	0.116625
499.814787	0.115925
500.033345	0.115953
500.251885	0.116201
500.470406	0.115308
500.688910	0.115356
500.907395	0.116095
501.125862	0.116759
501.344311	0.116323
501.562742	0.116537
501.781154	0.116382
501.999548	0.117022
502.217924	0.117299
502.436282	0.118120
502.654621	0.118275
502.872942	0.117338
503.091245	0.116905
503.309530	0.116888
503.527797	0.116816
503.746045	0.118072
503.964275	0.117861
504.182487	0.118664
504.400681	0.117585
504.618856	0.117376
504.837013	0.117847
505.055152	0.118070
505.273273	0.118968
505.491376	0.119782
505.709460	0.119961
505.927526	0.120406
506.145574	0.120054
506.363604	0.119495
506.581615	0.118776
506.799608	0.118949
507.017583	0.118852
507.235540	0.118253
507.453478	0.118236
507.671399	0.118354
507.889301	0.117783
508.107185	0.117619
508.325050	0.119111
508.542898	0.120502
508.760727	0.121043
508.978538	0.121602
509.196330	0.121985
509.414105	0.122026
509.631861	0.121307
509.849599	0.122017
510.067319	0.121724
510.285021	0.121429
510.502704	0.121413
510.720369	0.120821
510.938016	0.120672
511.155645	0.121014
511.373255	0.120553
511.590848	0.121109
511.808422	0.120379
512.025977	0.120732
512.243515	0.120981
512.461034	0.120795
512.678536	0.121035
512.896018	0.121155
513.113483	0.121181
513.330930	0.122744
513.548358	0.122633
513.765768	0.123360
513.983160	0.124418
514.200533	0.125022
514.417889	0.125419
514.635226	0.125706
514.852545	0.125577
515.069845	0.125844
515.287128	0.124708
515.504392	0.124397
515.721638	0.123846
515.938866	0.123537
516.156075	0.123273
516.373267	0.122844
516.590440	0.122872
516.807594	0.123909
517.024731	0.123810
517.241850	0.124887
517.458950	0.125393
517.676032	0.126419
517.893095	0.126910
518.110141	0.127357
518.327168	0.127719
518.544177	0.128525
518.761168	0.128444
518.978141	0.128387
519.195095	0.127816
519.412031	0.128327
519.628949	0.128621
519.845849	0.128335
520.062731	0.127687
520.279594	0.128437
520.496439	0.127433
520.713266	0.128024
520.930074	0.128868
521.146865	0.129771
521.363637	0.129665
521.580391	0.129274
521.797127	0.129755
522.013844	0.130813
522.230543	0.130531
522.447224	0.131197
522.663887	0.131186
522.880532	0.130363
523.097158	0.130276
523.313766	0.130661
523.530356	0.131698
523.746928	0.132363
523.963481	0.132166
524.180017	0.132424
524.396534	0.132945
524.613032	0.133325
524.829513	0.134189
525.045975	0.134656
525.262420	0.134977
525.478845	0.134952
525.695253	0.134321
525.911643	0.134523
526.128014	0.134624
526.344367	0.134929
526.560702	0.135045
526.777018	0.135392
526.993316	0.135343
527.209597	0.135626
527.425858	0.135300
527.642102	0.136318
527.858328	0.137289
528.074535	0.138382
528.290724	0.138786
528.506894	0.139143
528.723047	0.139875
528.939181	0.140230
529.155297	0.140463
529.371395	0.141257
529.587475	0.141442
529.803536	0.141533
530.019579	0.141208
530.235604	0.141578
530.451611	0.142179
530.667600	0.142407
530.883570	0.142971
531.099522	0.143422
531.315456	0.143550
531.531372	0.143547
531.747269	0.143475
531.963148	0.144014
532.179009	0.143796
532.394852	0.143697
532.610676	0.143558
532.826482	0.143516
533.042271	0.143852
533.258040	0.144499
533.473792	0.144894
533.689525	0.145470
533.905240	0.146186
534.120937	0.146681
534.336616	0.147114
534.552277	0.147493
534.767919	0.147404
534.983543	0.147864
535.199149	0.148169
535.414736	0.149010
535.630306	0.149381
535.845857	0.149707
536.061390	0.150006
536.276904	0.150480
536.492401	0.150171
536.707879	0.151046
536.923339	0.151222
537.138781	0.150903
537.354204	0.150534
537.569610	0.150526
537.784997	0.150136
538.000366	0.150472
538.215716	0.150717
538.431049	0.151637
538.646363	0.151679
538.861659	0.152104
539.076937	0.152591
539.292196	0.152793
539.507438	0.153469
539.722661	0.153491
539.937866	0.153901
540.153052	0.154107
540.368221	0.154203
540.583371	0.154499
540.798503	0.154390
541.013617	0.154262
541.228712	0.154807
541.443789	0.154422
541.658848	0.154752
541.873889	0.154323
542.088912	0.153883
542.303916	0.154138
542.518902	0.154328
542.733870	0.154599
542.948820	0.155468
543.163752	0.155696
543.378665	0.156325
543.593560	0.156983
543.808437	0.157636
544.023295	0.158408
544.238136	0.158842
544.452958	0.159417
544.667762	0.159308
544.882548	0.159555
545.097315	0.160226
545.312064	0.160687
545.526795	0.161426
545.741508	0.161726
545.956203	0.162012
546.170879	0.162017
546.385537	0.161601
546.600177	0.162294
546.814799	0.162787
547.029402	0.162007
547.243988	0.162165
547.458555	0.161479
547.673103	0.161507
547.887634	0.161773
548.102146	0.162041
548.316640	0.162804
548.531116	0.163291
548.745574	0.163377
548.960013	0.164321
549.174435	0.163875
549.388838	0.164345
549.603222	0.164677
549.817589	0.164540
550.031937	0.164561
550.246267	0.164824
550.460579	0.164734
550.674873	0.164770
550.889148	0.164914
551.103405	0.165705
551.317644	0.165761
551.531865	0.166103
551.746068	0.166505
551.960252	0.167062
552.174418	0.167189
552.388566	0.167615
552.602696	0.167968
552.816807	0.168239
553.030900	0.168383
553.244975	0.168575
553.459032	0.168634
553.673070	0.168675
553.887091	0.168803
554.101093	0.168863
554.315077	0.169099
554.529042	0.168978
554.742990	0.168805
554.956919	0.168993
555.170830	0.169358
555.384722	0.169688
555.598597	0.169645
555.812453	0.169849
556.026291	0.170272
556.240111	0.170423
556.453913	0.170661
556.667696	0.170986
556.881461	0.170963
557.095208	0.170725
557.308937	0.170879
557.522647	0.171314
557.736339	0.171673
557.950013	0.171784
558.163669	0.171542
558.377307	0.171843
558.590926	0.171822
558.804527	0.171880
559.018110	0.172918
559.231675	0.173089
559.445221	0.172964
559.658749	0.172957
559.872259	0.172685
560.085751	0.172512
560.299225	0.172598
560.512680	0.173153
560.726117	0.173296
560.939536	0.172973
561.152937	0.172959
561.366319	0.173697
561.579683	0.173993
561.793029	0.174589
562.006357	0.175367
562.219667	0.175828
562.432958	0.175905
562.646231	0.176339
562.859486	0.176703
563.072723	0.177284
563.285941	0.177438
563.499141	0.177439
563.712323	0.178195
563.925487	0.178080
564.138632	0.178262
564.351760	0.178028
564.564869	0.178092
564.777960	0.178429
564.991032	0.178039
565.204087	0.177879
565.417123	0.178324
565.630141	0.177740
565.843140	0.178138
566.056122	0.178372
566.269085	0.178666
566.482030	0.178853
566.694957	0.178755
566.907866	0.179095
567.120756	0.179611
567.333628	0.179088
567.546482	0.179202
567.759318	0.179305
567.972135	0.178883
568.184935	0.179223
568.397716	0.179268
568.610478	0.179504
568.823223	0.179542
569.035949	0.179800
569.248657	0.180133
569.461347	0.180487
569.674019	0.180410
569.886672	0.180980
570.099308	0.181261
570.311925	0.181630
570.524523	0.181765
570.737104	0.182198
570.949666	0.182350
571.162210	0.182948
571.374736	0.183033
571.587244	0.183968
571.799733	0.184146
572.012205	0.184681
572.224658	0.184961
572.437092	0.185197
572.649509	0.185306
572.861907	0.185193
573.074287	0.185218
573.286649	0.185436
573.498993	0.184970
573.711318	0.184826
573.923625	0.184741
574.135914	0.185021
574.348185	0.185200
574.560438	0.185499
574.772672	0.185400
574.984888	0.185454
575.197086	0.185412
575.409266	0.186055
575.621427	0.186334
575.833570	0.186130
576.045695	0.185780
576.257802	0.185940
576.469890	0.185941
576.681961	0.186683
576.894013	0.187167
577.106046	0.187811
577.318062	0.187538
577.530059	0.187902
577.742039	0.188284
577.954000	0.188467
578.165942	0.188422
578.377867	0.188843
578.589773	0.188709
578.801661	0.188390
579.013531	0.188322
579.225382	0.188393
579.437216	0.188391
579.649031	0.188397
579.860828	0.188840
580.072606	0.188956
580.284367	0.188718
580.496109	0.188685
580.707833	0.188882
580.919539	0.189100
581.131227	0.189414
581.342896	0.189272
581.554547	0.189728
581.766180	0.190165
581.977795	0.190178
582.189391	0.190698
582.400969	0.190934
582.612529	0.191225
582.824071	0.190955
583.035595	0.191201
583.247100	0.191634
583.458587	0.191711
583.670056	0.191619
583.881506	0.191825
584.092939	0.191764
584.304353	0.191713
584.515749	0.191870
584.727127	0.192252
584.938486	0.192199
585.149828	0.192572
585.361151	0.192654
585.572456	0.192954
585.783742	0.193232
585.995011	0.193452
586.206261	0.193777
586.417493	0.194191
586.628706	0.194413
586.839902	0.194533
587.051079	0.194136
587.262238	0.194128
587.473379	0.193920
587.684502	0.194228
587.895606	0.194533
588.106692	0.194575
588.317760	0.194461
588.528810	0.194454
588.739841	0.195116
588.950855	0.195559
589.161850	0.195735
589.372827	0.196213
589.583785	0.195947
589.794726	0.195823
590.005648	0.196214
590.216552	0.196381
590.427437	0.196708
590.638305	0.196424
590.849154	0.196719
591.059985	0.196794
591.270798	0.196923
591.481592	0.197606
591.692369	0.197886
591.903127	0.198162
592.113867	0.198386
592.324588	0.198526
592.535292	0.198880
592.745977	0.198799
592.956644	0.199208
593.167293	0.199261
593.377923	0.199189
593.588536	0.199632
593.799130	0.199492
594.009706	0.199767
594.220263	0.200243
594.430803	0.200554
594.641324	0.200926
594.851827	0.201004
595.062312	0.201152
595.272778	0.201615
595.483227	0.201641
595.693657	0.202293
595.904069	0.202469
596.114462	0.202665
596.324838	0.202774
596.535195	0.202599
596.745534	0.202687
596.955855	0.202576
597.166157	0.202309
597.376441	0.202298
597.586707	0.202425
597.796955	0.202516
598.007185	0.202534
598.217396	0.202601
598.427589	0.203198
598.637764	0.203440
598.847921	0.203960
599.058060	0.204301
599.268180	0.204397
599.478282	0.204435
599.688366	0.204257
599.898431	0.204165
600.108479	0.204028
600.318508	0.203998
600.528519	0.204039
600.738511	0.204143
600.948486	0.204326
601.158442	0.204776
601.368380	0.204762
601.578300	0.205315
601.788202	0.205707
601.998085	0.206088
602.207950	0.206302
602.417797	0.206630
602.627626	0.206870
602.837436	0.206918
603.047228	0.206519
603.257002	0.206961
603.466758	0.207190
603.676496	0.207229
603.886215	0.207502
604.095916	0.207478
604.305599	0.207543
604.515264	0.207535
604.724910	0.207651
604.934538	0.208721
605.144148	0.208576
605.353740	0.208937
605.563314	0.209110
605.772869	0.209066
605.982406	0.209746
606.191925	0.209957
606.401425	0.210134
606.610908	0.210295
606.820372	0.210140
607.029818	0.210266
607.239246	0.210134
607.448655	0.210174
607.658047	0.210141
607.867420	0.210118
608.076775	0.210310
608.286111	0.210671
608.495430	0.210842
608.704730	0.210771
608.914012	0.210819
609.123275	0.210737
609.332521	0.210842
609.541748	0.211154
609.750957	0.211480
609.960148	0.211618
610.169321	0.211595
610.378475	0.211928
610.587611	0.212167
610.796729	0.212424
611.005829	0.212568
611.214910	0.212990
611.423974	0.213407
611.633019	0.213026
611.842045	0.212714
612.051054	0.212748
612.260044	0.212482
612.469017	0.212561
612.677970	0.212828
612.886906	0.213091
613.095824	0.212992
613.304723	0.213039
613.513604	0.213397
613.722467	0.213862
613.931311	0.214198
614.140138	0.214574
614.348946	0.214476
614.557736	0.214368
614.766507	0.214548
614.975261	0.214456
615.183996	0.214347
615.392713	0.214413
615.601412	0.214483
615.810092	0.214444
616.018754	0.214565
616.227399	0.214724
616.436024	0.214878
616.644632	0.215042
616.853222	0.215402
617.061793	0.215816
617.270346	0.215899
617.478880	0.216202
617.687397	0.216314
617.895895	0.216796
618.104375	0.217185
618.312837	0.217523
618.521281	0.217448
618.729706	0.217760
618.938113	0.217738
619.146502	0.217804
619.354873	0.217794
619.563226	0.218147
619.771560	0.218185
619.979876	0.218295
620.188174	0.218282
620.396453	0.218471
620.604715	0.218515
620.812958	0.218480
621.021183	0.218990
621.229390	0.219439
621.437578	0.219514
621.645748	0.219454
621.853900	0.219690
622.062034	0.220146
622.270150	0.220462
622.478247	0.220708
622.686326	0.220920
622.894387	0.220837
623.102430	0.220702
623.310454	0.220505
623.518461	0.220703
623.726449	0.220852
623.934418	0.220749
624.142370	0.220870
624.350303	0.220883
624.558218	0.221151
624.766115	0.221273
624.973994	0.221596
625.181855	0.222032
625.389697	0.222272
625.597521	0.222329
625.805327	0.222452
626.013114	0.222522
626.220883	0.222798
626.428634	0.222840
626.636367	0.222934
626.844082	0.222879
627.051778	0.223117
627.259457	0.223113
627.467117	0.223129
627.674758	0.223172
627.882382	0.223574
628.089987	0.223516
628.297574	0.223686
628.505143	0.223837
628.712694	0.224041
628.920226	0.224137
629.127740	0.224274
629.335236	0.224438
629.542714	0.224978
629.750174	0.224965
629.957615	0.225437
630.165038	0.225725
630.372443	0.225893
630.579829	0.226169
630.787198	0.226220
630.994548	0.226539
631.201880	0.226646
631.409194	0.226827
631.616489	0.226887
631.823766	0.226833
632.031025	0.226945
632.238266	0.227203
632.445489	0.227309
632.652693	0.227513
632.859879	0.227651
633.067047	0.228028
633.274197	0.227877
633.481329	0.228025
633.688442	0.228460
633.895537	0.228516
634.102614	0.228776
634.309672	0.228865
634.516713	0.229265
634.723735	0.229093
634.930739	0.229041
635.137724	0.229063
635.344692	0.229273
635.551641	0.229044
635.758572	0.229140
635.965485	0.228911
636.172379	0.228942
636.379256	0.228870
636.586114	0.229026
636.792954	0.229299
636.999775	0.229441
637.206579	0.229567
637.413364	0.229775
637.620131	0.230160
637.826880	0.230398
638.033610	0.230797
638.240323	0.231078
638.447017	0.231167
638.653692	0.231211
638.860350	0.231702
639.066990	0.231751
639.273611	0.231900
639.480214	0.231921
639.686798	0.232235
639.893365	0.232494
640.099913	0.232489
640.306443	0.232983
640.512955	0.233367
640.719449	0.233433
640.925924	0.233538
641.132381	0.233850
641.338820	0.234188
641.545241	0.234289
641.751644	0.234233
641.958028	0.234403
642.164394	0.234287
642.370742	0.234273
642.577071	0.234348
642.783383	0.234499
642.989676	0.234423
643.195951	0.234504
643.402207	0.234631
643.608446	0.234786
643.814666	0.234597
644.020868	0.234997
644.227052	0.235295
644.433218	0.235403
644.639365	0.235924
644.845494	0.236244
645.051605	0.236278
645.257698	0.236381
645.463772	0.236471
645.669828	0.236798
645.875866	0.237082
646.081886	0.237234
646.287888	0.237443
646.493871	0.237225
646.699836	0.237240
646.905783	0.237359
647.111712	0.237646
647.317622	0.237657
647.523514	0.237973
647.729388	0.237923
647.935244	0.238134
648.141082	0.238111
648.346901	0.238514
648.552702	0.238727
648.758485	0.239053
648.964250	0.239263
649.169996	0.239484
649.375724	0.239495
649.581434	0.239506
649.787126	0.239682
649.992800	0.240020
650.198455	0.240143
650.404092	0.240311
650.609711	0.240456
650.815311	0.240547
651.020894	0.240951
651.226458	0.241325
651.432004	0.241961
651.637532	0.241779
651.843041	0.241829
652.048532	0.241983
652.254006	0.242301
652.459460	0.242261
652.664897	0.242308
652.870315	0.242077
653.075716	0.242148
653.281097	0.242284
653.486461	0.242769
653.691807	0.243210
653.897134	0.243459
654.102443	0.243392
654.307734	0.243941
654.513006	0.244291
654.718261	0.244765
654.923497	0.245009
655.128715	0.244928
655.333915	0.245168
655.539096	0.245354
655.744259	0.245500
655.949404	0.246037
656.154531	0.245962
656.359640	0.246144
656.564730	0.246123
656.769802	0.246367
656.974856	0.246574
657.179892	0.246716
657.384909	0.246777
657.589908	0.247058
657.794889	0.246985
657.999852	0.247260
658.204797	0.247578
658.409723	0.248092
658.614631	0.248236
658.819521	0.248536
659.024393	0.248670
659.229246	0.248993
659.434081	0.249046
659.638898	0.249442
659.843697	0.249598
660.048478	0.249555
660.253240	0.249617
660.457984	0.249897
660.662710	0.250211
660.867417	0.250101
661.072107	0.250447
661.276778	0.250696
661.481431	0.250892
661.686066	0.251190
661.890682	0.251514
662.095281	0.251881
662.299861	0.251976
662.504422	0.251966
662.708966	0.252577
662.913491	0.252618
663.117999	0.252707
663.322488	0.252744
663.526958	0.252912
663.731411	0.252916
663.935845	0.253031
664.140261	0.253310
664.344659	0.253470
664.549038	0.253428
664.753400	0.253430
664.957743	0.253748
665.162068	0.254032
665.366375	0.254051
665.570663	0.254305
665.774933	0.254423
665.979185	0.254772
666.183419	0.255119
666.387635	0.255536
666.591832	0.255960
666.796011	0.255998
667.000172	0.256270
667.204315	0.256717
667.408439	0.257020
667.612545	0.257414
667.816634	0.257501
668.020703	0.257797
668.224755	0.257844
668.428788	0.258017
668.632803	0.258307
668.836800	0.258421
669.040779	0.258641
669.244739	0.258826
669.448681	0.258893
669.652605	0.259068
669.856511	0.259067
670.060399	0.259199
670.264268	0.259611
670.468119	0.259835
670.671952	0.259921
670.875767	0.259916
671.079563	0.260112
671.283341	0.260373
671.487101	0.260784
671.690843	0.261142
671.894567	0.261225
672.098272	0.261281
672.301959	0.261797
672.505628	0.261928
672.709278	0.262456
672.912911	0.262481
673.116525	0.262816
673.320121	0.262946
673.523699	0.263177
673.727258	0.263476
673.930799	0.263734
674.134322	0.263539
674.337827	0.263897
674.541314	0.263852
674.744782	0.264280
674.948232	0.264291
675.151664	0.264476
675.355078	0.264502
675.558474	0.264849
675.761851	0.264708
675.965210	0.264997
676.168551	0.265065
676.371873	0.265314
676.575178	0.265604
676.778464	0.265744
676.981732	0.265727
677.184981	0.265773
677.388213	0.265952
677.591426	0.266181
677.794621	0.266499
677.997798	0.266953
678.200956	0.267195
678.404097	0.267578
678.607219	0.268076
678.810323	0.268352
679.013408	0.268897
679.216476	0.269162
679.419525	0.269849
679.622556	0.270061
679.825569	0.270390
680.028563	0.270756
680.231540	0.270867
680.434498	0.271007
680.637438	0.271280
680.840359	0.271429
681.043263	0.271551
681.246148	0.271526
681.449015	0.271385
681.651864	0.271289
681.854694	0.271374
682.057506	0.271537
682.260301	0.271655
682.463076	0.271667
682.665834	0.271847
682.868573	0.272209
683.071295	0.272400
683.273998	0.272892
683.476682	0.273320
683.679349	0.273661
683.881997	0.273959
684.084627	0.274140
684.287239	0.274599
684.489833	0.274666
684.692408	0.274912
684.894965	0.275051
685.097504	0.275378
685.300025	0.275810
685.502527	0.275870
685.705012	0.275961
685.907478	0.276186
686.109925	0.276190
686.312355	0.276477
686.514766	0.276563
686.717159	0.276881
686.919534	0.277089
687.121891	0.277090
687.324230	0.277307
687.526550	0.277530
687.728852	0.277717
687.931136	0.278153
688.133401	0.278302
688.335649	0.278530
688.537878	0.278611
688.740089	0.278691
688.942281	0.278690
689.144456	0.278641
689.346612	0.278712
689.548750	0.279058
689.750870	0.279070
689.952971	0.279067
690.155055	0.279457
690.357120	0.279296
690.559167	0.279399
690.761195	0.279727
690.963206	0.279997
691.165198	0.280172
691.367172	0.280111
691.569128	0.280263
691.771065	0.280945
691.972984	0.280825
692.174885	0.281323
692.376768	0.281517
692.578633	0.281705
692.780479	0.281918
692.982308	0.282010
693.184118	0.282372
693.385909	0.282639
693.587683	0.282449
693.789438	0.282765
