sample name	sample
index	1094
start time	 04-22-2021  11:52:21 AM
880	0.483839
Peak Time (s)	102.538
Peak Height 	0.4838
calc peak height	100,103
Baseline Time (s)	8.536
Baseline Value 	-0.005435
subtract baseline	10,4
Abs	0.334046
Peak Time (s)	100.538
Peak Height 	0.334
calc peak height	100,103
Baseline Time (s)	11.037
Baseline Value 	0.003315
subtract baseline	10,3
PK_550	0.188781
Peak Time (s)	102.037
Peak Height 	0.1888
calc peak height	100,103
Baseline Time (s)	8.536
Baseline Value 	4.7894E-4
subtract baseline	10,2
PK_880	0.322387
Peak Time (s)	102.538
Peak Height 	0.3224
calc peak height	100,103
Baseline Time (s)	8.536
Baseline Value 	0.001623
subtract baseline	10,1


Time (s)	A880-A510	A880-A775	A880-A975	A880	I510	I775	I975	I880	
0.035500	-0.001261	-0.000224	0.001122	0.002439	6248.992370	43198.345632	3899.643341	22667.288831
0.536000	-0.001104	0.000198	-0.001077	0.006101	6222.077561	42899.253371	3885.835402	22501.332443
1.039500	-0.001102	-0.001318	-0.003883	0.003757	6240.065894	42975.423486	3884.753947	22607.394781
1.539500	-0.001084	-0.000020	-0.001064	0.001997	6253.771749	43258.318194	3895.515858	22687.453348
2.037000	-0.000401	-0.000428	0.001874	0.001473	6263.107328	43269.001889	3903.726431	22711.322628
2.537500	-0.001083	-0.000332	-0.006116	0.003104	6245.237378	43126.702484	3881.066293	22637.044297
3.035500	0.001374	0.000919	0.000363	0.000239	6286.486765	43509.322256	3903.067212	22767.672696
3.535000	-0.000583	-0.000336	-0.000893	-0.000055	6273.544369	43419.639391	3900.779949	22781.138054
4.035500	-0.001103	-0.000674	-0.000502	-0.000343	6271.746643	43415.039803	3902.393878	22794.322692
4.536000	0.001467	-0.000057	-0.001742	0.000125	6288.106670	43428.900566	3898.339794	22772.914280
5.036000	-0.001298	0.000427	-0.000085	0.000129	6266.567155	43473.628408	3902.263966	22772.712288
5.536000	0.002454	-0.000036	0.000739	-0.000069	6297.325892	43448.935011	3904.694584	22781.766738
6.036000	0.001852	0.000032	0.001811	-0.000176	6293.466894	43465.305234	3907.511911	22786.705735
6.537000	0.001632	0.000397	0.001228	0.000267	6288.288395	43458.003448	3905.061307	22766.427211
7.034500	0.000713	0.000300	0.001141	-0.000275	6285.347110	43499.584710	3906.147874	22791.235187
7.534500	-0.000347	0.000821	-0.000599	0.000622	6270.126589	43464.440165	3899.872801	22750.199855
8.035000	-0.001184	-0.000220	0.000240	-0.000410	6271.639229	43463.597250	3904.319823	22797.404935
8.535500	0.000000	0.000000	0.001996	0.000000	6277.650755	43445.881065	3907.533238	22778.628902
9.035500	0.001853	0.000515	-0.003559	0.000202	6290.522101	43475.108680	3893.863698	22769.402245
9.536000	-0.000908	-0.000196	-0.001388	-0.000878	6277.416707	43509.453415	3901.559750	22818.838735
10.036000	-0.000236	-0.000286	0.001104	-0.000312	6278.244447	43448.307926	3906.146290	22792.913144
10.536500	0.000127	0.000841	0.003173	0.000853	6272.013596	43444.802236	3908.308908	22739.645618
11.036500	-0.001454	0.000177	0.000000	0.000311	6263.950434	43433.351324	3902.033008	22764.398183
11.537000	0.001861	-0.000525	-0.000457	-0.000442	6295.608109	43438.134440	3902.738429	22798.876928
12.034500	0.001622	-0.000017	0.001612	-0.000180	6291.699307	43461.098722	3907.045934	22786.881828
12.538000	-0.000823	0.000081	0.001743	-0.000375	6274.166619	43488.332359	3907.821827	22795.780372
13.035000	0.000239	0.001136	0.004490	0.000021	6279.347343	43549.962294	3913.458114	22777.652186
13.535500	0.001377	0.000249	-0.001763	0.000133	6287.339505	43456.674880	3898.270750	22772.521820
14.035500	-0.002200	-0.000254	-0.002171	0.001856	6246.251387	43249.620567	3893.235963	22693.876589
14.536000	-0.001191	0.000143	-0.002908	0.001898	6253.707123	43282.584970	3891.399874	22691.931605
15.036000	0.001647	0.000601	0.001407	0.001189	6281.212808	43391.062940	3903.290733	22724.268667
15.539500	0.001213	-0.000231	-0.004215	-0.000500	6290.998498	43470.946004	3893.972041	22801.524475
16.039500	0.000147	0.000230	-0.002013	-0.000160	6280.035997	43482.184786	3898.372931	22785.937657
16.537500	-0.000744	-0.000096	0.000838	-0.000224	6273.607513	43457.820799	3905.303452	22788.897018
17.035000	0.003160	0.000269	0.002277	-0.003176	6327.292613	43768.354506	3915.829088	22924.529218
17.535000	-0.001030	-0.000010	0.004710	0.000481	6265.923461	43400.166369	3912.883433	22756.646284
18.035500	-0.000100	0.000579	0.000852	0.001241	6267.236837	43384.132733	3901.846153	22721.889079
18.535500	-0.000523	0.000049	-0.005635	0.001016	6265.696923	43355.761381	3887.069612	22732.172776
19.035500	0.000868	0.000067	0.001340	0.000530	6280.279828	43402.784228	3904.702244	22754.386989
19.536000	0.001234	0.000006	-0.000035	0.000703	6281.778535	43380.908589	3901.017448	22746.458218
20.036000	-0.001082	-0.000014	-0.000579	0.000838	6262.749413	43366.517220	3899.405550	22740.295511
20.536500	0.000411	0.000366	0.003060	0.000867	6274.106044	43399.215257	3908.004017	22739.000055
21.036500	-0.003394	-0.000073	0.001553	0.000910	6244.335871	43354.258733	3904.302317	22737.006854
21.537000	-0.000746	0.000190	-0.004480	0.000913	6264.769132	43378.533328	3890.019467	22736.864780
22.034000	0.000486	0.001065	0.002928	0.001740	6267.904888	43382.945414	3905.602714	22699.131944
22.535500	-0.001512	0.000377	0.000640	0.001008	6258.102943	43387.005093	3901.895591	22732.526283
23.035500	0.000869	-0.000169	-0.000792	0.000975	6276.829438	43339.434884	3898.578635	22734.067794
23.535500	-0.001355	0.000033	0.000178	0.000990	6259.466962	43356.803167	3900.842539	22733.384814
24.036000	-0.000487	0.000216	0.003068	0.001053	6265.693712	43367.908136	3907.577203	22730.491541
24.536500	0.000791	0.000338	0.004703	0.000702	6278.342177	43411.959947	3912.335123	22746.514377
25.039000	0.000655	0.000295	0.001301	0.001192	6273.482954	43362.330721	3903.032199	22724.160800
25.537000	-0.000208	0.000332	-0.000030	0.000980	6268.422146	43385.440262	3900.370554	22733.802723
26.037500	-0.001343	0.000970	0.000356	0.001436	6256.106644	43402.406113	3900.205337	22712.997095
26.534500	0.000151	-0.000725	-0.000694	0.001831	6264.608159	43208.282526	3896.782000	22695.003919
27.035000	0.001333	0.000581	0.002919	-0.000785	6294.162170	43573.415636	3911.622404	22814.592250
27.535000	0.000744	0.000339	-0.002390	-0.001671	6296.482539	43633.698985	3901.064097	22855.250343
28.035500	-0.000069	0.000890	-0.002353	0.000322	6274.612234	43498.805664	3896.428274	22763.882269
28.536000	-0.002399	-0.000322	-0.002931	0.004397	6225.207833	43008.329954	3885.486186	22578.402352
29.036000	0.001293	-0.000443	0.000242	-0.000564	6292.125751	43457.160645	3904.692708	22804.453667
29.537000	-0.000215	0.000110	0.001166	-0.000887	6282.880393	43538.973177	3907.669382	22819.283085
30.036500	0.002486	0.000789	-0.000102	-0.000336	6299.669236	43550.861623	3903.329343	22793.995053
30.539500	-0.002453	-0.000477	-0.001697	0.003405	6232.400963	43085.540537	3890.706400	22623.406701
31.037500	-0.001914	-0.000174	0.001553	0.001162	6253.810881	43321.508364	3903.703364	22725.517496
31.535000	0.000057	0.000682	-0.001083	-0.000071	6278.649596	43516.218918	3900.369194	22781.900565
32.035000	0.002255	0.000352	0.002309	-0.000449	6298.740555	43520.634996	3909.354834	22799.174666
32.535500	-0.002678	-0.000339	-0.001965	0.003284	6231.603659	43109.555559	3890.360936	22628.906583
33.036000	0.000410	0.000183	0.001860	-0.001076	6289.227007	43563.428736	3909.780238	22827.915893
33.536000	0.000454	-0.000235	0.001560	0.000192	6279.688014	43406.138562	3906.032628	22769.852071
34.036500	-0.001933	-0.000256	-0.001204	0.001024	6254.728346	43326.680874	3897.484855	22731.816862
34.539500	-0.000675	0.000094	-0.000970	0.003545	6244.984357	43125.370493	3892.087340	22617.030539
35.037000	-0.002249	-0.000530	0.000716	0.001160	6251.234230	43288.598508	3901.716482	22725.584279
35.537500	-0.000755	0.000748	0.001308	0.001838	6257.545023	43344.406453	3901.512344	22694.671979
36.040500	-0.000939	-0.000241	-0.003005	0.001257	6260.617735	43306.452225	3892.683969	22721.195391
36.535500	-0.000031	0.000461	0.001659	0.003222	6252.440339	43189.301493	3899.060242	22631.697343
37.035000	-0.000270	0.000782	-0.005402	0.002192	6258.559477	43314.617872	3884.862514	22678.552490
37.538500	0.001094	0.000073	-0.002213	0.001522	6274.325665	43311.017352	3893.924480	22709.083878
38.035500	-0.000462	0.000736	0.001575	0.001668	6261.121849	43359.029031	3902.551573	22702.423488
38.536000	-0.001811	-0.000904	-0.001683	0.001012	6255.769629	43267.679913	3896.381762	22732.370796
39.039000	0.001056	-0.000263	0.000019	0.000912	6278.768177	43336.462420	3900.649744	22736.923260
39.537000	0.000256	0.000858	0.000356	0.001890	6264.971558	43349.810648	3899.131542	22692.330083
40.037000	-0.001922	0.000689	0.008915	0.001987	6247.383829	43325.041904	3919.387363	22687.871141
40.537500	-0.001513	-0.000441	-0.000249	0.001164	6256.899353	43296.536334	3899.417876	22725.442624
41.034500	-0.002176	-0.001021	0.002898	0.000878	6253.982180	43269.174193	3907.589062	22738.476022
41.535500	0.002290	-0.000079	0.003584	0.001308	6285.290883	43316.708384	3908.200719	22718.831115
42.035000	0.000645	0.000807	-0.002511	0.002289	6264.892208	43307.946267	3891.416554	22674.152931
42.536000	-0.001837	0.000474	0.000940	0.001740	6249.945657	43328.029419	3900.871234	22699.145539
43.036000	-0.000666	0.000232	0.000843	0.001447	6261.254412	43332.749033	3901.335782	22712.488375
43.536000	0.002653	0.000157	0.002978	-0.003740	6327.744947	43810.861611	3918.880590	22950.554343
44.036500	-0.000730	0.000279	0.000907	-0.000523	6276.039150	43520.692912	3906.178979	22802.559459
44.538000	-0.000786	-0.000327	0.000948	0.000228	6269.774257	43394.134099	3904.485712	22768.189274
45.036500	0.001658	0.000871	0.001427	0.000731	6284.871010	43458.901569	3904.428614	22745.192845
45.537000	0.000062	0.000398	0.002512	-0.000221	6279.847010	43503.602256	3909.295481	22788.731816
46.034500	0.001082	0.000505	0.002692	0.000245	6284.165507	43470.080824	3908.610493	22767.408496
46.534500	-0.002873	-0.000098	-0.001513	0.004485	6220.908804	43020.885714	3888.602309	22574.429180
47.035000	-0.000921	0.000530	0.000323	0.002212	6253.371590	43289.372043	3898.289909	22677.663340
47.535500	-0.001232	0.000311	0.001503	0.001797	6254.179467	43307.614880	3902.073358	22696.568832
48.036000	0.000508	-0.000057	-0.004046	-0.000847	6288.212059	43519.654935	3895.190759	22817.450244
48.539000	-0.001907	0.000385	0.003869	0.004269	6229.955640	43085.330971	3901.821210	22584.174645
49.036500	0.000579	0.000633	0.002029	0.000217	6280.466987	43484.710800	3907.093874	22768.705998
49.537000	0.001274	0.000409	0.005079	-0.003221	6312.795629	43785.720060	3922.710550	22926.610855
50.037000	0.005474	0.000671	0.004393	0.007126	6264.825803	42848.514920	3896.290478	22455.129322
50.537000	0.025106	-0.013691	0.071412	0.524088	3970.528177	14692.256531	3233.889748	8847.814045
51.035000	0.009591	-0.013464	-0.017155	0.064413	5877.084922	36798.824756	3725.847873	20038.693017
51.535500	-0.010255	-0.035270	-0.040118	-0.162221	7692.753289	57193.616168	4238.219067	31780.134352
52.035500	0.000079	-0.086591	-0.014182	-0.272734	9230.458696	65113.650635	4743.462124	40148.504098
52.536000	-0.001133	-0.074555	-0.011949	-0.256358	8979.212469	64495.587675	4683.418275	38770.147346
53.036000	0.006440	-0.073886	-0.006023	-0.257607	9103.965598	64767.991755	4713.633966	38873.476618
53.539500	-0.000358	-0.047116	-0.004803	-0.216728	8458.932921	62792.073777	4552.694051	35641.954753
54.037000	-0.007511	-0.042612	-0.010364	-0.212381	8313.653593	62813.718555	4514.730235	35315.850543
54.537000	-0.007994	-0.041346	-0.011493	-0.211571	8297.560421	62876.546026	4507.399097	35255.441273
55.037500	-0.002111	-0.059141	-0.003315	-0.239188	8730.404400	64247.281673	4648.117464	37379.760325
55.534500	0.004656	-0.039898	0.002570	-0.207625	8406.836748	62533.099260	4546.004849	34962.863670
56.035000	0.005025	-0.020348	0.008363	-0.155761	7791.093747	58260.907180	4377.269849	31353.797372
56.535500	0.013627	-0.008972	0.012956	-0.103323	7321.486322	53271.347360	4219.986414	28117.610808
57.035500	0.023729	-0.002592	0.023011	-0.079261	7181.619937	51263.891087	4177.127036	26758.489204
57.536000	0.032563	0.004724	0.029217	-0.051189	6996.095548	49009.412317	4112.922344	25265.203788
58.039500	0.045980	0.014682	0.043715	-0.003818	6688.036666	45208.021635	4022.281501	22954.156105
58.539000	0.056736	0.020554	0.057250	0.023078	6549.842263	43211.214377	3987.354762	21749.919836
59.037000	0.074875	0.029283	0.077841	0.040214	6558.275643	42439.415070	3996.283820	21020.684230
59.540500	0.091000	0.041120	0.093283	0.079688	6366.783010	40005.002446	3935.628692	19446.385452
60.037500	0.105895	0.052130	0.109341	0.135893	6052.211550	36343.169694	3841.493730	17437.920883
60.540500	0.125873	0.061135	0.125595	0.173427	5927.323634	34220.419666	3795.018376	16234.356611
61.035000	0.141441	0.073473	0.149171	0.215452	5748.397299	32154.542789	3756.524652	15004.591091
61.541500	0.142984	0.076336	0.150562	0.267941	5433.097657	29001.506917	3658.070480	13626.715778
62.036000	0.147213	0.080293	0.159251	0.268220	5456.240823	29223.019471	3673.487906	13619.822350
62.539000	0.153459	0.086160	0.161120	0.270487	5479.777478	29441.706961	3672.753257	13564.028111
63.055500	0.162585	0.091812	0.171745	0.271624	5527.672154	29718.473048	3690.493337	13536.135334
63.536500	0.168016	0.096688	0.182136	0.274692	5542.005744	29830.163884	3704.453343	13461.276023
64.037000	0.175326	0.100528	0.183028	0.279329	5558.324466	29780.898930	3697.284565	13349.134361
64.540000	0.180053	0.104338	0.193785	0.282835	5565.803670	29799.633831	3711.220007	13265.113481
65.037500	0.186041	0.110205	0.197796	0.291142	5551.607782	29649.257640	3702.936569	13068.776862
65.534500	0.191111	0.111851	0.200464	0.298277	5539.029230	29313.956599	3694.407973	12903.085034
66.035000	0.195858	0.116437	0.208938	0.303968	5533.300024	29246.961763	3699.710295	12772.874659
66.541500	0.200192	0.118237	0.211184	0.312419	5508.451525	28847.413660	3687.933942	12582.633428
67.038500	0.209595	0.121406	0.221788	0.313738	5557.463869	28957.928052	3705.618199	12553.277983
67.539000	0.214627	0.126209	0.221792	0.318824	5557.129028	28940.978919	3695.893262	12440.901661
68.036000	0.216587	0.127816	0.231170	0.322524	5546.510411	28816.088667	3706.768474	12359.981012
68.539500	0.222219	0.131443	0.239252	0.331368	5527.004942	28507.268894	3705.299710	12169.302800
69.036500	0.228847	0.132604	0.236821	0.331445	5566.934136	28571.101366	3700.486723	12167.658502
69.534000	0.230168	0.136820	0.244098	0.338574	5531.501852	28399.898885	3700.770646	12016.790409
70.038500	0.235607	0.138462	0.244970	0.343317	5535.725386	28218.834382	3693.394425	11917.774155
70.534500	0.237890	0.139145	0.250767	0.350935	5503.539831	27818.619147	3689.947420	11760.993504
71.035500	0.241089	0.142148	0.258296	0.355008	5498.311527	27757.473017	3696.502217	11678.302970
71.536000	0.242893	0.143588	0.260260	0.360750	5474.858422	27512.989626	3689.340049	11563.019055
72.039000	0.248728	0.145451	0.260946	0.366268	5476.738710	27307.133911	3680.268840	11453.661263
72.539000	0.251549	0.148316	0.271842	0.376262	5434.520225	26910.653012	3681.952863	11259.083759
73.037000	0.253468	0.149116	0.266000	0.377342	5439.426732	26895.226540	3669.107673	11238.336368
73.536500	0.256654	0.151185	0.268065	0.381835	5431.793768	26761.974606	3664.650735	11152.530987
74.037500	0.260248	0.154166	0.275978	0.387396	5420.349684	26620.961123	3668.969050	11047.543998
74.537000	0.261415	0.154109	0.274964	0.393463	5392.075549	26289.591988	3656.040391	10934.539053
75.035000	0.266663	0.157912	0.280946	0.396542	5404.550442	26328.501118	3661.315447	10877.781450
75.535000	0.264915	0.158911	0.285315	0.399670	5376.586048	26214.163639	3663.579798	10820.525834
76.035500	0.265420	0.160195	0.286577	0.403572	5357.293678	26074.408887	3658.767551	10749.698499
76.535500	0.268587	0.162308	0.289074	0.410172	5337.942413	25836.755105	3651.345731	10631.322955
77.036500	0.270507	0.162804	0.284558	0.412197	5337.353218	25756.391369	3639.659991	10595.371131
77.536500	0.274595	0.166641	0.292103	0.417818	5328.763311	25662.874889	3643.078818	10496.424364
78.037000	0.276327	0.167189	0.295348	0.420307	5324.535430	25561.597885	3644.427448	10453.019251
78.537000	0.276602	0.167831	0.292507	0.427813	5284.500898	25207.126919	3626.183830	10323.622588
79.038000	0.277088	0.168632	0.300243	0.427564	5288.539100	25261.000798	3640.223329	10327.873251
79.534500	0.278858	0.170359	0.297010	0.430845	5280.240852	25181.294213	3628.750506	10271.976646
80.035000	0.283304	0.172131	0.292482	0.433045	5292.581947	25159.389131	3617.079192	10234.729068
80.535500	0.283717	0.173945	0.304749	0.437537	5270.216964	25022.952457	3630.584117	10159.280537
81.036000	0.283151	0.172467	0.300867	0.435702	5277.148031	25041.032604	3627.003825	10190.002124
81.538500	0.286260	0.172934	0.310752	0.437539	5284.127815	24971.507416	3641.172703	10159.243448
82.036000	0.288253	0.174420	0.305984	0.440408	5279.321953	24901.519571	3627.721794	10111.453303
82.536500	0.290463	0.174849	0.306877	0.442015	5282.626786	24842.047037	3626.476774	10084.824004
83.037000	0.289215	0.174598	0.315483	0.444010	5264.900367	24729.180071	3638.087909	10051.898081
83.537000	0.292153	0.176733	0.312252	0.447428	5262.291552	24664.926820	3626.411103	9995.846890
84.034500	0.295357	0.176941	0.313502	0.449942	5266.043975	24549.935741	3624.210099	9954.892417
84.535000	0.296219	0.178497	0.307794	0.451732	5260.989145	24538.311994	3611.291578	9925.868881
85.035500	0.297279	0.179474	0.313150	0.454857	5249.797192	24431.841020	3615.114395	9875.515928
85.535500	0.295325	0.179473	0.319380	0.456690	5229.390859	24341.289754	3622.698575	9846.128688
86.036000	0.299476	0.179928	0.308386	0.457594	5246.873792	24319.218922	3602.345995	9831.690829
86.536500	0.299254	0.180172	0.315863	0.460555	5229.735878	24186.009048	3610.007035	9784.606944
87.036500	0.300173	0.179811	0.316862	0.460074	5237.260242	24191.858504	3612.534722	9792.238221
87.537000	0.302581	0.181466	0.312559	0.462448	5237.442756	24156.711358	3601.198199	9754.670344
88.037000	0.303326	0.181161	0.318721	0.463420	5236.218316	24094.446848	3609.992834	9739.337858
88.534500	0.305864	0.182361	0.320870	0.466235	5234.730183	24016.005935	3608.859686	9695.163704
89.034500	0.302274	0.181826	0.316748	0.466280	5215.268787	23987.891774	3601.799475	9694.457468
89.535500	0.307211	0.182139	0.319992	0.466470	5240.717302	23993.849922	3606.967393	9691.495793
90.035500	0.306945	0.183948	0.320273	0.468625	5227.701238	23977.094425	3603.791849	9657.870072
90.535500	0.305271	0.182676	0.316831	0.468916	5217.194432	23901.584318	3597.507755	9653.351480
91.039000	0.307082	0.184255	0.326864	0.471032	5215.566374	23875.717225	3610.900808	9620.537426
91.536500	0.309647	0.183843	0.325405	0.470291	5233.260529	23891.553911	3609.675549	9632.005635
92.036500	0.307081	0.184208	0.321485	0.471050	5215.465284	23872.568393	3601.744632	9620.257224
92.540000	0.308374	0.183814	0.320882	0.474347	5204.808869	23695.525758	3595.198253	9569.442171
93.037500	0.310066	0.185521	0.319536	0.474081	5215.221305	23789.975020	3593.396350	9573.519872
93.535000	0.313949	0.185711	0.325675	0.474597	5233.243927	23774.340722	3602.830150	9565.604483
94.035000	0.312262	0.185917	0.326419	0.475795	5217.790643	23726.826416	3602.063121	9547.246457
94.535500	0.311685	0.185869	0.322675	0.477934	5203.338622	23622.518190	3592.206775	9514.590898
95.035500	0.315433	0.187342	0.327649	0.477182	5227.331020	23728.631409	3601.798649	9526.049118
95.539000	0.314931	0.186670	0.333641	0.476946	5225.907069	23707.810520	3612.374014	9529.646343
96.036500	0.314529	0.187228	0.325033	0.477982	5218.216890	23684.991478	3596.061076	9513.859396
96.539500	0.318983	0.188238	0.331657	0.479428	5234.332939	23664.209389	3604.775254	9491.882370
97.036500	0.311342	0.185676	0.328474	0.477337	5204.688658	23641.735595	3602.928647	9523.692122
97.536500	0.317215	0.187616	0.328865	0.479249	5225.805979	23643.092562	3600.365499	9494.602742
