sample name	sample
index	260
start time	 02-25-2021  10:56:02 AM


Wavelength (nm)	Absorbance
494.344910	-0.167098
494.563924	-0.167098
494.782919	-0.167098
495.001897	0.003162
495.220856	-0.075216
495.439797	-0.038532
495.658719	-0.022719
495.877624	0.001669
496.096510	0.014638
496.315378	0.009975
496.534227	0.017446
496.753059	0.031212
496.971872	0.027331
497.190667	0.118449
497.409444	0.140701
497.628203	0.143364
497.846943	0.146885
498.065665	0.150835
498.284369	0.152262
498.503055	0.152011
498.721723	0.153806
498.940372	0.153511
499.159003	0.151803
499.377616	0.150839
499.596210	0.152150
499.814787	0.151908
500.033345	0.151667
500.251885	0.153797
500.470406	0.154776
500.688910	0.153936
500.907395	0.155834
501.125862	0.157681
501.344311	0.158254
501.562742	0.158524
501.781154	0.158634
501.999548	0.157954
502.217924	0.157330
502.436282	0.157630
502.654621	0.158267
502.872942	0.158223
503.091245	0.157580
503.309530	0.157980
503.527797	0.157434
503.746045	0.157461
503.964275	0.157568
504.182487	0.157475
504.400681	0.157288
504.618856	0.157116
504.837013	0.156947
505.055152	0.157359
505.273273	0.157711
505.491376	0.157528
505.709460	0.158146
505.927526	0.158951
506.145574	0.158774
506.363604	0.159047
506.581615	0.159330
506.799608	0.160612
507.017583	0.161209
507.235540	0.160071
507.453478	0.162164
507.671399	0.161851
507.889301	0.162005
508.107185	0.162331
508.325050	0.163011
508.542898	0.162839
508.760727	0.162578
508.978538	0.162492
509.196330	0.163241
509.414105	0.162687
509.631861	0.162718
509.849599	0.162258
510.067319	0.162264
510.285021	0.161879
510.502704	0.162449
510.720369	0.162328
510.938016	0.163468
511.155645	0.164008
511.373255	0.164817
511.590848	0.165975
511.808422	0.165866
512.025977	0.165940
512.243515	0.166915
512.461034	0.167894
512.678536	0.168311
512.896018	0.167781
513.113483	0.167757
513.330930	0.167148
513.548358	0.167148
513.765768	0.167959
513.983160	0.169215
514.200533	0.169056
514.417889	0.168832
514.635226	0.168427
514.852545	0.168577
515.069845	0.169533
515.287128	0.169186
515.504392	0.169364
515.721638	0.169482
515.938866	0.169154
516.156075	0.169493
516.373267	0.170049
516.590440	0.170313
516.807594	0.169849
517.024731	0.169622
517.241850	0.170581
517.458950	0.170799
517.676032	0.171004
517.893095	0.171285
518.110141	0.171565
518.327168	0.171055
518.544177	0.171266
518.761168	0.171499
518.978141	0.172267
519.195095	0.172789
519.412031	0.173335
519.628949	0.174210
519.845849	0.174834
520.062731	0.174845
520.279594	0.175698
520.496439	0.176509
520.713266	0.177649
520.930074	0.177516
521.146865	0.177382
521.363637	0.176900
521.580391	0.176865
521.797127	0.176812
522.013844	0.177656
522.230543	0.177779
522.447224	0.176931
522.663887	0.177048
522.880532	0.177151
523.097158	0.177720
523.313766	0.178236
523.530356	0.178707
523.746928	0.178787
523.963481	0.178412
524.180017	0.178549
524.396534	0.179360
524.613032	0.179474
524.829513	0.180175
525.045975	0.180713
525.262420	0.180827
525.478845	0.180446
525.695253	0.181053
525.911643	0.181350
526.128014	0.181793
526.344367	0.182675
526.560702	0.182663
526.777018	0.182723
526.993316	0.183185
527.209597	0.184305
527.425858	0.184616
527.642102	0.184373
527.858328	0.185297
528.074535	0.185664
528.290724	0.185715
528.506894	0.186587
528.723047	0.186390
528.939181	0.186154
529.155297	0.185950
529.371395	0.186281
529.587475	0.186935
529.803536	0.186285
530.019579	0.186886
530.235604	0.187426
530.451611	0.187651
530.667600	0.188099
530.883570	0.188937
531.099522	0.189735
531.315456	0.190393
531.531372	0.191471
531.747269	0.192285
531.963148	0.192295
532.179009	0.192857
532.394852	0.192606
532.610676	0.193503
532.826482	0.193990
533.042271	0.194317
533.258040	0.194361
533.473792	0.193964
533.689525	0.194637
533.905240	0.194568
534.120937	0.194586
534.336616	0.195295
534.552277	0.195576
534.767919	0.195546
534.983543	0.196149
535.199149	0.196555
535.414736	0.197356
535.630306	0.197430
535.845857	0.198541
536.061390	0.198663
536.276904	0.198795
536.492401	0.198686
536.707879	0.198776
536.923339	0.198739
537.138781	0.198590
537.354204	0.198381
537.569610	0.198568
537.784997	0.198199
538.000366	0.198889
538.215716	0.199274
538.431049	0.200034
538.646363	0.200333
538.861659	0.200372
539.076937	0.201175
539.292196	0.201375
539.507438	0.201895
539.722661	0.202120
539.937866	0.201999
540.153052	0.202528
540.368221	0.202529
540.583371	0.202673
540.798503	0.203110
541.013617	0.203814
541.228712	0.204603
541.443789	0.204695
541.658848	0.205228
541.873889	0.205519
542.088912	0.205588
542.303916	0.205704
542.518902	0.206687
542.733870	0.206785
542.948820	0.206801
543.163752	0.206738
543.378665	0.207410
543.593560	0.207927
543.808437	0.208714
544.023295	0.209128
544.238136	0.209557
544.452958	0.209190
544.667762	0.208947
544.882548	0.208618
545.097315	0.208569
545.312064	0.208459
545.526795	0.208524
545.741508	0.208138
545.956203	0.208683
546.170879	0.209172
546.385537	0.209507
546.600177	0.210520
546.814799	0.211701
547.029402	0.212788
547.243988	0.212635
547.458555	0.212843
547.673103	0.213469
547.887634	0.213504
548.102146	0.213619
548.316640	0.214301
548.531116	0.214473
548.745574	0.214451
548.960013	0.214380
549.174435	0.214830
549.388838	0.215078
549.603222	0.215236
549.817589	0.215853
550.031937	0.216050
550.246267	0.215555
550.460579	0.215718
550.674873	0.216070
550.889148	0.216672
551.103405	0.217339
551.317644	0.217866
551.531865	0.218267
551.746068	0.217992
551.960252	0.218128
552.174418	0.218780
552.388566	0.219050
552.602696	0.219175
552.816807	0.219037
553.030900	0.219026
553.244975	0.219366
553.459032	0.219387
553.673070	0.219815
553.887091	0.220257
554.101093	0.220169
554.315077	0.220426
554.529042	0.221010
554.742990	0.221114
554.956919	0.221696
555.170830	0.221983
555.384722	0.222194
555.598597	0.222326
555.812453	0.222269
556.026291	0.222683
556.240111	0.222950
556.453913	0.222248
556.667696	0.222072
556.881461	0.222207
557.095208	0.222318
557.308937	0.222477
557.522647	0.223055
557.736339	0.223378
557.950013	0.223963
558.163669	0.223951
558.377307	0.224651
558.590926	0.225333
558.804527	0.225438
559.018110	0.225385
559.231675	0.225772
559.445221	0.225291
559.658749	0.225869
559.872259	0.225631
560.085751	0.226698
560.299225	0.226819
560.512680	0.226792
560.726117	0.226805
560.939536	0.227340
561.152937	0.227530
561.366319	0.227968
561.579683	0.227892
561.793029	0.228003
562.006357	0.227353
562.219667	0.227648
562.432958	0.227939
562.646231	0.228071
562.859486	0.227682
563.072723	0.227250
563.285941	0.227392
563.499141	0.227467
563.712323	0.227740
563.925487	0.228101
564.138632	0.228484
564.351760	0.228653
564.564869	0.228979
564.777960	0.229391
564.991032	0.229887
565.204087	0.230186
565.417123	0.230331
565.630141	0.230504
565.843140	0.230717
566.056122	0.230681
566.269085	0.231031
566.482030	0.231501
566.694957	0.231611
566.907866	0.232248
567.120756	0.232201
567.333628	0.232790
567.546482	0.232820
567.759318	0.232812
567.972135	0.233263
568.184935	0.233504
568.397716	0.233498
568.610478	0.233970
568.823223	0.234010
569.035949	0.234515
569.248657	0.234237
569.461347	0.235017
569.674019	0.235259
569.886672	0.235381
570.099308	0.235598
570.311925	0.235718
570.524523	0.235600
570.737104	0.236060
570.949666	0.235883
571.162210	0.235920
571.374736	0.235392
571.587244	0.235517
571.799733	0.235686
572.012205	0.235799
572.224658	0.236017
572.437092	0.236029
572.649509	0.235871
572.861907	0.236432
573.074287	0.236722
573.286649	0.237134
573.498993	0.237360
573.711318	0.237084
573.923625	0.237015
574.135914	0.237332
574.348185	0.237838
574.560438	0.237902
574.772672	0.238237
574.984888	0.238280
575.197086	0.238613
575.409266	0.239288
575.621427	0.239481
575.833570	0.239786
576.045695	0.239673
576.257802	0.239628
576.469890	0.239780
576.681961	0.239837
576.894013	0.240391
577.106046	0.240558
577.318062	0.240164
577.530059	0.240540
577.742039	0.240858
577.954000	0.240866
578.165942	0.241354
578.377867	0.241774
578.589773	0.241856
578.801661	0.241785
579.013531	0.241870
579.225382	0.242229
579.437216	0.241972
579.649031	0.242123
579.860828	0.242555
580.072606	0.242539
580.284367	0.242628
580.496109	0.242871
580.707833	0.243419
580.919539	0.243469
581.131227	0.243542
581.342896	0.244157
581.554547	0.244407
581.766180	0.244948
581.977795	0.245143
582.189391	0.245533
582.400969	0.245476
582.612529	0.245750
582.824071	0.246531
583.035595	0.246932
583.247100	0.247263
583.458587	0.247530
583.670056	0.247226
583.881506	0.247383
584.092939	0.247182
584.304353	0.247745
584.515749	0.247909
584.727127	0.248015
584.938486	0.248113
585.149828	0.248193
585.361151	0.247973
585.572456	0.248088
585.783742	0.248147
585.995011	0.248288
586.206261	0.247922
586.417493	0.247501
586.628706	0.247233
586.839902	0.247313
587.051079	0.247517
587.262238	0.247561
587.473379	0.247880
587.684502	0.248193
587.895606	0.248251
588.106692	0.248826
588.317760	0.249037
588.528810	0.249259
588.739841	0.249445
588.950855	0.249647
589.161850	0.249760
589.372827	0.249846
589.583785	0.249963
589.794726	0.250410
590.005648	0.250504
590.216552	0.250930
590.427437	0.251115
590.638305	0.250998
590.849154	0.251017
591.059985	0.251509
591.270798	0.251705
591.481592	0.252138
591.692369	0.251855
591.903127	0.252279
592.113867	0.252623
592.324588	0.252694
592.535292	0.252699
592.745977	0.252889
592.956644	0.253082
593.167293	0.253401
593.377923	0.253239
593.588536	0.253960
593.799130	0.253960
594.009706	0.254088
594.220263	0.254397
594.430803	0.255023
594.641324	0.255212
594.851827	0.254880
595.062312	0.254699
595.272778	0.254925
595.483227	0.254867
595.693657	0.254866
595.904069	0.254887
596.114462	0.255311
596.324838	0.255304
596.535195	0.255261
596.745534	0.255656
596.955855	0.256433
597.166157	0.256769
597.376441	0.257231
597.586707	0.257516
597.796955	0.257739
598.007185	0.257703
598.217396	0.258184
598.427589	0.258477
598.637764	0.258748
598.847921	0.258480
599.058060	0.258861
599.268180	0.258816
599.478282	0.258773
599.688366	0.259052
599.898431	0.258933
600.108479	0.259007
600.318508	0.259547
600.528519	0.259922
600.738511	0.260292
600.948486	0.259964
601.158442	0.259911
601.368380	0.260654
601.578300	0.260428
601.788202	0.261120
601.998085	0.261082
602.207950	0.260929
602.417797	0.260988
602.627626	0.260868
602.837436	0.261165
603.047228	0.261237
603.257002	0.260990
603.466758	0.261347
603.676496	0.260971
603.886215	0.260973
604.095916	0.261262
604.305599	0.261548
604.515264	0.261791
604.724910	0.261560
604.934538	0.262083
605.144148	0.262290
605.353740	0.262586
605.563314	0.263184
605.772869	0.263270
605.982406	0.263275
606.191925	0.263301
606.401425	0.263486
606.610908	0.263930
606.820372	0.263624
607.029818	0.263769
607.239246	0.263653
607.448655	0.263761
607.658047	0.264081
607.867420	0.263743
608.076775	0.263805
608.286111	0.263871
608.495430	0.264063
608.704730	0.264504
608.914012	0.264286
609.123275	0.264568
609.332521	0.264372
609.541748	0.264596
609.750957	0.265266
609.960148	0.265355
610.169321	0.265541
610.378475	0.265631
610.587611	0.265833
610.796729	0.265946
611.005829	0.266114
611.214910	0.266413
611.423974	0.266724
611.633019	0.266573
611.842045	0.266850
612.051054	0.267039
612.260044	0.267297
612.469017	0.267519
612.677970	0.267909
612.886906	0.267991
613.095824	0.268186
613.304723	0.268517
613.513604	0.268886
613.722467	0.268931
613.931311	0.269174
614.140138	0.269384
614.348946	0.269609
614.557736	0.269670
614.766507	0.269743
614.975261	0.269865
615.183996	0.269685
615.392713	0.270002
615.601412	0.270068
615.810092	0.270195
616.018754	0.270209
616.227399	0.270062
616.436024	0.270351
616.644632	0.270633
616.853222	0.270992
617.061793	0.271234
617.270346	0.271458
617.478880	0.271756
617.687397	0.271982
617.895895	0.272057
618.104375	0.272514
618.312837	0.272666
618.521281	0.272946
618.729706	0.273231
618.938113	0.273378
619.146502	0.273380
619.354873	0.273553
619.563226	0.273379
619.771560	0.273662
619.979876	0.273911
620.188174	0.273728
620.396453	0.273701
620.604715	0.273613
620.812958	0.273548
621.021183	0.273640
621.229390	0.273854
621.437578	0.274203
621.645748	0.274135
621.853900	0.274204
622.062034	0.274816
622.270150	0.275343
622.478247	0.275717
622.686326	0.276145
622.894387	0.276335
623.102430	0.276614
623.310454	0.276601
623.518461	0.277362
623.726449	0.277579
623.934418	0.277832
624.142370	0.277733
624.350303	0.277907
624.558218	0.277974
624.766115	0.278076
624.973994	0.278185
625.181855	0.278628
625.389697	0.278556
625.597521	0.278493
625.805327	0.278654
626.013114	0.279067
626.220883	0.278901
626.428634	0.279170
626.636367	0.279657
626.844082	0.279725
627.051778	0.279872
627.259457	0.279945
627.467117	0.280198
627.674758	0.280120
627.882382	0.279971
628.089987	0.280235
628.297574	0.280204
628.505143	0.280103
628.712694	0.280030
628.920226	0.279901
629.127740	0.280015
629.335236	0.280060
629.542714	0.280293
629.750174	0.280529
629.957615	0.280562
630.165038	0.280809
630.372443	0.280959
630.579829	0.281503
630.787198	0.281932
630.994548	0.282243
631.201880	0.282516
631.409194	0.282778
631.616489	0.282629
631.823766	0.282969
632.031025	0.283056
632.238266	0.283182
632.445489	0.283223
632.652693	0.283378
632.859879	0.283590
633.067047	0.283678
633.274197	0.283770
633.481329	0.284300
633.688442	0.284268
633.895537	0.284657
634.102614	0.284901
634.309672	0.284874
634.516713	0.285244
634.723735	0.285185
634.930739	0.285408
635.137724	0.285638
635.344692	0.285631
635.551641	0.285883
635.758572	0.285899
635.965485	0.286188
636.172379	0.286442
636.379256	0.286215
636.586114	0.286403
636.792954	0.286175
636.999775	0.286033
637.206579	0.286381
637.413364	0.286613
637.620131	0.286774
637.826880	0.286619
638.033610	0.286972
638.240323	0.287436
638.447017	0.287563
638.653692	0.288219
638.860350	0.288663
639.066990	0.288780
639.273611	0.288839
639.480214	0.288879
639.686798	0.289201
639.893365	0.289294
640.099913	0.289297
640.306443	0.289390
640.512955	0.289435
640.719449	0.289440
640.925924	0.289559
641.132381	0.289755
641.338820	0.289866
641.545241	0.290246
641.751644	0.290437
641.958028	0.290806
642.164394	0.291192
642.370742	0.291500
642.577071	0.291796
642.783383	0.292007
642.989676	0.292085
643.195951	0.292463
643.402207	0.292643
643.608446	0.292829
643.814666	0.293065
644.020868	0.293240
644.227052	0.293398
644.433218	0.293484
644.639365	0.293890
644.845494	0.294154
645.051605	0.294476
645.257698	0.294461
645.463772	0.294866
645.669828	0.294867
645.875866	0.294775
646.081886	0.295002
646.287888	0.295307
646.493871	0.295390
646.699836	0.295745
646.905783	0.295762
647.111712	0.296031
647.317622	0.295867
647.523514	0.296128
647.729388	0.296746
647.935244	0.296692
648.141082	0.296645
648.346901	0.296909
648.552702	0.297137
648.758485	0.297437
648.964250	0.297648
649.169996	0.297934
649.375724	0.297897
649.581434	0.297848
649.787126	0.298308
649.992800	0.299026
650.198455	0.299116
650.404092	0.299357
650.609711	0.299520
650.815311	0.299707
651.020894	0.299919
651.226458	0.300296
651.432004	0.300856
651.637532	0.301369
651.843041	0.301305
652.048532	0.301561
652.254006	0.301621
652.459460	0.302033
652.664897	0.302527
652.870315	0.302817
653.075716	0.302860
653.281097	0.302736
653.486461	0.302539
653.691807	0.302593
653.897134	0.302483
654.102443	0.302864
654.307734	0.302908
654.513006	0.302664
654.718261	0.302713
654.923497	0.302993
655.128715	0.303267
655.333915	0.303341
655.539096	0.303448
655.744259	0.303857
655.949404	0.304010
656.154531	0.304133
656.359640	0.304196
656.564730	0.304466
656.769802	0.304882
656.974856	0.304939
657.179892	0.305084
657.384909	0.305482
657.589908	0.305619
657.794889	0.305671
657.999852	0.306011
658.204797	0.306412
658.409723	0.306582
658.614631	0.306776
658.819521	0.307152
659.024393	0.307353
659.229246	0.307443
659.434081	0.307576
659.638898	0.307811
659.843697	0.308035
660.048478	0.308380
660.253240	0.308585
660.457984	0.308626
660.662710	0.308789
660.867417	0.309158
661.072107	0.309529
661.276778	0.309741
661.481431	0.310043
661.686066	0.310037
661.890682	0.310243
662.095281	0.310605
662.299861	0.310809
662.504422	0.311071
662.708966	0.311399
662.913491	0.311565
663.117999	0.311832
663.322488	0.311851
663.526958	0.312172
663.731411	0.312517
663.935845	0.312811
664.140261	0.313157
664.344659	0.313369
664.549038	0.313382
664.753400	0.313729
664.957743	0.313814
665.162068	0.314154
665.366375	0.314233
665.570663	0.314174
665.774933	0.314452
665.979185	0.314616
666.183419	0.314842
666.387635	0.315076
666.591832	0.315131
666.796011	0.315441
667.000172	0.315528
667.204315	0.315907
667.408439	0.316184
667.612545	0.316266
667.816634	0.316553
668.020703	0.316743
668.224755	0.317053
668.428788	0.317309
668.632803	0.317604
668.836800	0.317843
669.040779	0.317902
669.244739	0.318189
669.448681	0.318157
669.652605	0.318239
669.856511	0.318239
670.060399	0.318417
670.264268	0.318668
670.468119	0.319048
670.671952	0.319295
670.875767	0.319697
671.079563	0.319869
671.283341	0.320307
671.487101	0.320349
671.690843	0.320790
671.894567	0.321101
672.098272	0.321201
672.301959	0.321057
672.505628	0.321182
672.709278	0.321455
672.912911	0.321664
673.116525	0.321854
673.320121	0.322563
673.523699	0.322715
673.727258	0.323201
673.930799	0.323578
674.134322	0.324360
674.337827	0.324737
674.541314	0.324863
674.744782	0.325246
674.948232	0.325498
675.151664	0.325494
675.355078	0.325924
675.558474	0.326173
675.761851	0.326369
675.965210	0.326422
676.168551	0.326698
676.371873	0.326976
676.575178	0.327254
676.778464	0.327599
676.981732	0.327981
677.184981	0.328189
677.388213	0.328236
677.591426	0.328444
677.794621	0.328434
677.997798	0.328794
678.200956	0.328829
678.404097	0.329016
678.607219	0.329153
678.810323	0.329328
679.013408	0.329457
679.216476	0.329673
679.419525	0.329813
679.622556	0.330261
679.825569	0.330502
680.028563	0.330948
680.231540	0.331084
680.434498	0.331021
680.637438	0.331324
680.840359	0.331588
681.043263	0.331745
681.246148	0.332238
681.449015	0.332304
681.651864	0.332237
681.854694	0.332374
682.057506	0.332686
682.260301	0.333481
682.463076	0.333572
682.665834	0.333828
682.868573	0.334107
683.071295	0.334253
683.273998	0.334650
683.476682	0.334893
683.679349	0.335500
683.881997	0.335726
684.084627	0.335635
684.287239	0.335804
684.489833	0.335768
684.692408	0.335712
684.894965	0.335869
685.097504	0.335867
685.300025	0.336172
685.502527	0.336046
685.705012	0.335990
685.907478	0.335921
686.109925	0.335957
686.312355	0.336347
686.514766	0.336793
686.717159	0.337089
686.919534	0.337326
687.121891	0.337483
687.324230	0.337673
687.526550	0.338045
687.728852	0.338351
687.931136	0.338583
688.133401	0.338845
688.335649	0.338922
688.537878	0.339119
688.740089	0.339166
688.942281	0.339575
689.144456	0.339829
689.346612	0.339866
689.548750	0.340261
689.750870	0.340549
689.952971	0.340528
690.155055	0.340811
690.357120	0.340737
690.559167	0.340965
690.761195	0.340866
690.963206	0.340725
691.165198	0.340878
691.367172	0.340844
691.569128	0.340838
691.771065	0.341159
691.972984	0.341129
692.174885	0.341347
692.376768	0.341647
692.578633	0.341843
692.780479	0.342120
692.982308	0.342209
693.184118	0.342502
693.385909	0.342558
