sample name	sample
index	812
start time	 03-31-2021  03:25:16 PM


Wavelength (nm)	Absorbance
494.344910	NaN
494.563924	NaN
494.782919	NaN
495.001897	NaN
495.220856	NaN
495.439797	NaN
495.658719	0.205932
495.877624	-0.449298
496.096510	-0.498480
496.315378	-0.608725
496.534227	-0.539087
496.753059	-0.462370
496.971872	-0.244780
497.190667	0.064481
497.409444	0.080938
497.628203	0.086102
497.846943	0.088294
498.065665	0.086502
498.284369	0.086731
498.503055	0.085652
498.721723	0.086321
498.940372	0.084554
499.159003	0.083990
499.377616	0.082910
499.596210	0.082537
499.814787	0.081989
500.033345	0.082030
500.251885	0.081490
500.470406	0.082749
500.688910	0.083424
500.907395	0.083611
501.125862	0.083970
501.344311	0.084410
501.562742	0.083922
501.781154	0.084344
501.999548	0.084810
502.217924	0.084279
502.436282	0.083470
502.654621	0.082307
502.872942	0.082873
503.091245	0.083169
503.309530	0.082265
503.527797	0.082007
503.746045	0.083041
503.964275	0.081907
504.182487	0.082678
504.400681	0.082516
504.618856	0.083058
504.837013	0.082524
505.055152	0.081632
505.273273	0.082208
505.491376	0.083018
505.709460	0.082625
505.927526	0.082800
506.145574	0.082798
506.363604	0.082527
506.581615	0.082229
506.799608	0.082248
507.017583	0.082015
507.235540	0.082221
507.453478	0.083248
507.671399	0.082583
507.889301	0.083170
508.107185	0.082074
508.325050	0.082462
508.542898	0.081857
508.760727	0.082196
508.978538	0.082302
509.196330	0.082551
509.414105	0.081075
509.631861	0.081383
509.849599	0.082253
510.067319	0.083473
510.285021	0.083342
510.502704	0.083321
510.720369	0.082951
510.938016	0.082921
511.155645	0.082686
511.373255	0.082304
511.590848	0.081670
511.808422	0.081519
512.025977	0.082101
512.243515	0.082453
512.461034	0.083277
512.678536	0.083520
512.896018	0.083282
513.113483	0.083600
513.330930	0.083629
513.548358	0.084019
513.765768	0.083837
513.983160	0.082390
514.200533	0.082380
514.417889	0.082232
514.635226	0.082697
514.852545	0.083520
515.069845	0.083379
515.287128	0.084129
515.504392	0.084755
515.721638	0.084762
515.938866	0.085513
516.156075	0.085169
516.373267	0.085577
516.590440	0.086062
516.807594	0.086188
517.024731	0.086288
517.241850	0.086703
517.458950	0.086802
517.676032	0.086713
517.893095	0.087412
518.110141	0.087550
518.327168	0.087514
518.544177	0.086131
518.761168	0.086645
518.978141	0.086697
519.195095	0.086290
519.412031	0.085919
519.628949	0.085891
519.845849	0.084759
520.062731	0.085318
520.279594	0.085594
520.496439	0.086456
520.713266	0.086303
520.930074	0.086018
521.146865	0.086724
521.363637	0.086179
521.580391	0.086764
521.797127	0.086785
522.013844	0.086551
522.230543	0.086364
522.447224	0.086389
522.663887	0.085584
522.880532	0.085723
523.097158	0.085135
523.313766	0.086076
523.530356	0.085049
523.746928	0.085806
523.963481	0.086626
524.180017	0.086266
524.396534	0.086482
524.613032	0.087266
524.829513	0.087405
525.045975	0.087376
525.262420	0.087590
525.478845	0.088532
525.695253	0.088072
525.911643	0.087865
526.128014	0.088437
526.344367	0.088499
526.560702	0.088076
526.777018	0.088269
526.993316	0.088745
527.209597	0.088568
527.425858	0.088715
527.642102	0.089135
527.858328	0.088950
528.074535	0.089225
528.290724	0.090088
528.506894	0.090865
528.723047	0.091424
528.939181	0.091521
529.155297	0.091530
529.371395	0.091861
529.587475	0.091977
529.803536	0.092534
530.019579	0.092284
530.235604	0.092071
530.451611	0.092191
530.667600	0.091344
530.883570	0.091446
531.099522	0.091728
531.315456	0.091949
531.531372	0.092209
531.747269	0.091445
531.963148	0.091399
532.179009	0.091027
532.394852	0.090956
532.610676	0.091603
532.826482	0.092002
533.042271	0.091960
533.258040	0.090973
533.473792	0.090689
533.689525	0.091267
533.905240	0.092024
534.120937	0.092723
534.336616	0.092948
534.552277	0.093041
534.767919	0.092816
534.983543	0.093235
535.199149	0.093848
535.414736	0.094610
535.630306	0.094584
535.845857	0.094410
536.061390	0.094146
536.276904	0.094471
536.492401	0.094594
536.707879	0.094559
536.923339	0.094599
537.138781	0.094600
537.354204	0.094969
537.569610	0.095171
537.784997	0.095289
538.000366	0.095640
538.215716	0.095917
538.431049	0.095848
538.646363	0.096200
538.861659	0.096760
539.076937	0.097207
539.292196	0.096957
539.507438	0.097063
539.722661	0.096905
539.937866	0.097156
540.153052	0.097067
540.368221	0.098450
540.583371	0.098780
540.798503	0.098445
541.013617	0.098612
541.228712	0.098746
541.443789	0.099156
541.658848	0.099478
541.873889	0.099491
542.088912	0.099036
542.303916	0.098246
542.518902	0.098292
542.733870	0.098504
542.948820	0.099017
543.163752	0.099714
543.378665	0.100160
543.593560	0.100343
543.808437	0.100466
544.023295	0.101029
544.238136	0.101323
544.452958	0.101692
544.667762	0.102355
544.882548	0.101501
545.097315	0.101532
545.312064	0.101188
545.526795	0.101381
545.741508	0.101148
545.956203	0.101317
546.170879	0.101995
546.385537	0.101782
546.600177	0.101325
546.814799	0.102104
547.029402	0.101886
547.243988	0.101681
547.458555	0.102052
547.673103	0.102604
547.887634	0.102416
548.102146	0.101968
548.316640	0.102511
548.531116	0.102888
548.745574	0.102893
548.960013	0.102864
549.174435	0.103282
549.388838	0.103191
549.603222	0.103753
549.817589	0.104483
550.031937	0.104940
550.246267	0.105010
550.460579	0.105234
550.674873	0.105778
550.889148	0.105984
551.103405	0.105999
551.317644	0.106337
551.531865	0.106120
551.746068	0.105679
551.960252	0.105849
552.174418	0.105505
552.388566	0.105500
552.602696	0.105421
552.816807	0.105595
553.030900	0.106142
553.244975	0.105797
553.459032	0.105565
553.673070	0.106107
553.887091	0.106173
554.101093	0.106750
554.315077	0.106695
554.529042	0.107027
554.742990	0.107029
554.956919	0.106738
555.170830	0.107040
555.384722	0.107158
555.598597	0.106919
555.812453	0.106774
556.026291	0.106706
556.240111	0.106809
556.453913	0.106402
556.667696	0.106325
556.881461	0.106950
557.095208	0.106963
557.308937	0.107271
557.522647	0.107465
557.736339	0.107563
557.950013	0.107577
558.163669	0.107633
558.377307	0.107737
558.590926	0.107836
558.804527	0.107747
559.018110	0.107821
559.231675	0.107843
559.445221	0.108023
559.658749	0.108182
559.872259	0.108375
560.085751	0.108829
560.299225	0.108857
560.512680	0.109460
560.726117	0.109594
560.939536	0.109674
561.152937	0.109779
561.366319	0.110092
561.579683	0.110336
561.793029	0.110383
562.006357	0.110425
562.219667	0.110258
562.432958	0.110062
562.646231	0.110368
562.859486	0.110496
563.072723	0.110725
563.285941	0.110843
563.499141	0.110697
563.712323	0.111042
563.925487	0.111145
564.138632	0.111912
564.351760	0.111556
564.564869	0.111015
564.777960	0.111286
564.991032	0.110981
565.204087	0.111292
565.417123	0.111742
565.630141	0.111746
565.843140	0.112054
566.056122	0.111834
566.269085	0.112384
566.482030	0.112771
566.694957	0.112884
566.907866	0.113390
567.120756	0.112857
567.333628	0.113151
567.546482	0.113080
567.759318	0.112733
567.972135	0.112981
568.184935	0.113188
568.397716	0.113597
568.610478	0.113649
568.823223	0.113217
569.035949	0.113751
569.248657	0.112894
569.461347	0.113251
569.674019	0.113549
569.886672	0.113541
570.099308	0.113580
570.311925	0.113434
570.524523	0.113958
570.737104	0.114611
570.949666	0.114199
571.162210	0.114990
571.374736	0.114691
571.587244	0.115149
571.799733	0.115173
572.012205	0.115155
572.224658	0.115268
572.437092	0.115413
572.649509	0.115121
572.861907	0.115662
573.074287	0.115604
573.286649	0.116097
573.498993	0.115754
573.711318	0.116001
573.923625	0.116076
574.135914	0.116461
574.348185	0.116427
574.560438	0.116977
574.772672	0.116656
574.984888	0.116723
575.197086	0.117265
575.409266	0.117329
575.621427	0.117747
575.833570	0.118030
576.045695	0.118118
576.257802	0.118136
576.469890	0.118078
576.681961	0.118670
576.894013	0.118780
577.106046	0.118322
577.318062	0.118459
577.530059	0.118083
577.742039	0.118524
577.954000	0.118913
578.165942	0.118882
578.377867	0.119270
578.589773	0.119356
578.801661	0.119662
579.013531	0.119600
579.225382	0.119765
579.437216	0.120184
579.649031	0.120220
579.860828	0.120174
580.072606	0.120611
580.284367	0.120719
580.496109	0.120566
580.707833	0.120502
580.919539	0.120993
581.131227	0.120766
581.342896	0.121075
581.554547	0.121043
581.766180	0.120542
581.977795	0.120345
582.189391	0.120490
582.400969	0.121031
582.612529	0.121164
582.824071	0.120874
583.035595	0.121221
583.247100	0.120922
583.458587	0.121025
583.670056	0.121664
583.881506	0.121879
584.092939	0.121883
584.304353	0.121707
584.515749	0.121953
584.727127	0.122651
584.938486	0.122788
585.149828	0.123115
585.361151	0.123349
585.572456	0.123203
585.783742	0.123469
585.995011	0.123329
586.206261	0.123362
586.417493	0.123150
586.628706	0.123003
586.839902	0.123418
587.051079	0.123329
587.262238	0.123402
587.473379	0.123403
587.684502	0.123477
587.895606	0.123764
588.106692	0.124191
588.317760	0.124655
588.528810	0.124774
588.739841	0.124582
588.950855	0.124893
589.161850	0.125113
589.372827	0.125372
589.583785	0.125288
589.794726	0.125518
590.005648	0.125739
590.216552	0.126165
590.427437	0.126258
590.638305	0.126682
590.849154	0.126688
591.059985	0.126710
591.270798	0.126693
591.481592	0.126982
591.692369	0.127310
591.903127	0.126921
592.113867	0.126659
592.324588	0.126869
592.535292	0.127076
592.745977	0.127318
592.956644	0.127416
593.167293	0.127623
593.377923	0.127274
593.588536	0.127072
593.799130	0.127522
594.009706	0.127420
594.220263	0.127412
594.430803	0.127596
594.641324	0.127719
594.851827	0.127798
595.062312	0.127863
595.272778	0.128460
595.483227	0.128953
595.693657	0.129027
595.904069	0.128978
596.114462	0.129022
596.324838	0.128947
596.535195	0.129400
596.745534	0.129564
596.955855	0.129865
597.166157	0.130013
597.376441	0.129813
597.586707	0.129928
597.796955	0.130417
598.007185	0.130718
598.217396	0.130892
598.427589	0.130771
598.637764	0.131238
598.847921	0.131630
599.058060	0.131652
599.268180	0.132202
599.478282	0.132300
599.688366	0.132489
599.898431	0.132318
600.108479	0.132045
600.318508	0.132229
600.528519	0.132269
600.738511	0.132112
600.948486	0.132157
601.158442	0.131931
601.368380	0.132079
601.578300	0.132192
601.788202	0.132352
601.998085	0.132591
602.207950	0.132616
602.417797	0.132475
602.627626	0.132449
602.837436	0.132710
603.047228	0.132394
603.257002	0.132587
603.466758	0.132858
603.676496	0.133324
603.886215	0.133224
604.095916	0.133265
604.305599	0.133282
604.515264	0.133522
604.724910	0.133423
604.934538	0.133713
605.144148	0.133578
605.353740	0.133779
605.563314	0.133479
605.772869	0.133878
605.982406	0.134011
606.191925	0.134377
606.401425	0.134233
606.610908	0.134456
606.820372	0.134946
607.029818	0.135454
607.239246	0.135254
607.448655	0.135553
607.658047	0.135586
607.867420	0.135760
608.076775	0.135758
608.286111	0.136267
608.495430	0.136503
608.704730	0.136589
608.914012	0.136324
609.123275	0.136606
609.332521	0.136839
609.541748	0.137132
609.750957	0.137331
609.960148	0.137428
610.169321	0.137161
610.378475	0.137472
610.587611	0.137462
610.796729	0.137629
611.005829	0.137631
611.214910	0.137706
611.423974	0.137817
611.633019	0.137709
611.842045	0.137980
612.051054	0.137916
612.260044	0.137424
612.469017	0.137495
612.677970	0.137582
612.886906	0.137721
613.095824	0.137802
613.304723	0.137990
613.513604	0.138200
613.722467	0.138194
613.931311	0.138857
614.140138	0.139420
614.348946	0.139522
614.557736	0.139858
614.766507	0.139780
614.975261	0.139982
615.183996	0.140091
615.392713	0.140477
615.601412	0.140522
615.810092	0.140380
616.018754	0.140439
616.227399	0.140462
616.436024	0.140540
616.644632	0.140801
616.853222	0.140675
617.061793	0.140669
617.270346	0.140464
617.478880	0.140639
617.687397	0.140807
617.895895	0.140637
618.104375	0.140576
618.312837	0.140760
618.521281	0.140960
618.729706	0.140965
618.938113	0.140997
619.146502	0.141278
619.354873	0.141044
619.563226	0.141049
619.771560	0.141294
619.979876	0.141828
620.188174	0.142019
620.396453	0.142056
620.604715	0.142495
620.812958	0.142792
621.021183	0.142695
621.229390	0.142736
621.437578	0.142785
621.645748	0.143005
621.853900	0.143124
622.062034	0.142902
622.270150	0.143043
622.478247	0.143144
622.686326	0.143147
622.894387	0.143427
623.102430	0.143892
623.310454	0.144511
623.518461	0.144525
623.726449	0.144426
623.934418	0.144691
624.142370	0.144654
624.350303	0.144690
624.558218	0.144759
624.766115	0.144823
624.973994	0.144715
625.181855	0.144425
625.389697	0.144603
625.597521	0.144667
625.805327	0.144769
626.013114	0.145198
626.220883	0.145072
626.428634	0.145181
626.636367	0.145291
626.844082	0.145655
627.051778	0.145477
627.259457	0.145649
627.467117	0.145771
627.674758	0.145702
627.882382	0.145821
628.089987	0.146008
628.297574	0.146170
628.505143	0.146136
628.712694	0.146213
628.920226	0.146753
629.127740	0.146717
629.335236	0.146664
629.542714	0.146847
629.750174	0.146888
629.957615	0.147259
630.165038	0.147282
630.372443	0.147358
630.579829	0.147558
630.787198	0.147661
630.994548	0.147717
631.201880	0.148092
631.409194	0.148438
631.616489	0.148282
631.823766	0.148648
632.031025	0.148806
632.238266	0.148956
632.445489	0.149216
632.652693	0.149325
632.859879	0.149584
633.067047	0.149646
633.274197	0.149560
633.481329	0.149631
633.688442	0.149652
633.895537	0.149842
634.102614	0.149981
634.309672	0.149709
634.516713	0.149796
634.723735	0.149715
634.930739	0.149828
635.137724	0.150015
635.344692	0.150462
635.551641	0.150440
635.758572	0.150552
635.965485	0.150840
636.172379	0.151054
636.379256	0.151147
636.586114	0.151365
636.792954	0.151309
636.999775	0.151351
637.206579	0.151366
637.413364	0.151247
637.620131	0.151268
637.826880	0.151111
638.033610	0.151305
638.240323	0.151296
638.447017	0.151373
638.653692	0.151641
638.860350	0.151885
639.066990	0.151571
639.273611	0.151685
639.480214	0.151926
639.686798	0.152132
639.893365	0.152252
640.099913	0.152311
640.306443	0.152515
640.512955	0.152368
640.719449	0.152321
640.925924	0.152675
641.132381	0.152834
641.338820	0.152822
641.545241	0.153085
641.751644	0.152921
641.958028	0.153230
642.164394	0.153308
642.370742	0.153501
642.577071	0.153740
642.783383	0.153970
642.989676	0.154110
643.195951	0.154161
643.402207	0.154106
643.608446	0.154304
643.814666	0.154357
644.020868	0.154243
644.227052	0.154707
644.433218	0.154642
644.639365	0.154814
644.845494	0.154979
645.051605	0.155233
645.257698	0.155356
645.463772	0.155719
645.669828	0.155927
645.875866	0.156259
646.081886	0.156163
646.287888	0.156307
646.493871	0.156527
646.699836	0.156660
646.905783	0.156571
647.111712	0.156712
647.317622	0.156881
647.523514	0.157009
647.729388	0.157057
647.935244	0.157057
648.141082	0.157294
648.346901	0.157176
648.552702	0.157088
648.758485	0.157439
648.964250	0.157392
649.169996	0.157251
649.375724	0.157265
649.581434	0.157490
649.787126	0.157495
649.992800	0.157585
650.198455	0.157792
650.404092	0.158249
650.609711	0.158371
650.815311	0.158709
651.020894	0.158976
651.226458	0.158974
651.432004	0.159089
651.637532	0.159409
651.843041	0.159606
652.048532	0.159649
652.254006	0.159370
652.459460	0.159481
652.664897	0.159485
652.870315	0.159562
653.075716	0.159837
653.281097	0.159783
653.486461	0.160153
653.691807	0.160068
653.897134	0.160247
654.102443	0.160672
654.307734	0.160810
654.513006	0.161276
654.718261	0.161277
654.923497	0.161391
655.128715	0.161816
655.333915	0.161823
655.539096	0.162122
655.744259	0.162334
655.949404	0.162510
656.154531	0.162671
656.359640	0.162717
656.564730	0.163035
656.769802	0.163069
656.974856	0.162859
657.179892	0.162786
657.384909	0.162801
657.589908	0.163009
657.794889	0.163124
657.999852	0.163193
658.204797	0.163432
658.409723	0.163341
658.614631	0.163850
658.819521	0.164155
659.024393	0.164441
659.229246	0.164588
659.434081	0.164661
659.638898	0.164627
659.843697	0.164679
660.048478	0.164360
660.253240	0.164549
660.457984	0.164534
660.662710	0.164723
660.867417	0.164880
661.072107	0.164679
661.276778	0.164484
661.481431	0.164546
661.686066	0.164307
661.890682	0.164598
662.095281	0.164608
662.299861	0.164463
662.504422	0.164513
662.708966	0.164521
662.913491	0.164947
663.117999	0.165108
663.322488	0.165400
663.526958	0.165861
663.731411	0.166151
663.935845	0.166401
664.140261	0.166543
664.344659	0.167026
664.549038	0.167077
664.753400	0.167166
664.957743	0.167492
665.162068	0.167464
665.366375	0.167637
665.570663	0.167457
665.774933	0.167562
665.979185	0.167873
666.183419	0.167661
666.387635	0.167886
666.591832	0.168106
666.796011	0.168469
667.000172	0.168875
667.204315	0.169011
667.408439	0.169377
667.612545	0.169804
667.816634	0.170119
668.020703	0.170387
668.224755	0.170557
668.428788	0.170626
668.632803	0.170345
668.836800	0.170099
669.040779	0.170235
669.244739	0.170245
669.448681	0.170101
669.652605	0.169872
669.856511	0.169679
670.060399	0.169588
670.264268	0.169636
670.468119	0.169889
670.671952	0.170194
670.875767	0.170177
671.079563	0.170448
671.283341	0.170685
671.487101	0.170930
671.690843	0.171326
671.894567	0.171659
672.098272	0.171955
672.301959	0.172147
672.505628	0.172467
672.709278	0.172611
672.912911	0.172678
673.116525	0.172695
673.320121	0.172813
673.523699	0.172904
673.727258	0.173025
673.930799	0.173244
674.134322	0.173124
674.337827	0.172970
674.541314	0.173219
674.744782	0.173361
674.948232	0.173452
675.151664	0.173441
675.355078	0.173657
675.558474	0.173941
675.761851	0.173941
675.965210	0.174299
676.168551	0.174658
676.371873	0.174879
676.575178	0.174945
676.778464	0.175160
676.981732	0.175451
677.184981	0.175519
677.388213	0.175784
677.591426	0.176155
677.794621	0.176487
677.997798	0.176596
678.200956	0.176859
678.404097	0.177209
678.607219	0.177267
678.810323	0.177340
679.013408	0.177428
679.216476	0.177287
679.419525	0.177282
679.622556	0.177356
679.825569	0.177423
680.028563	0.177485
680.231540	0.177421
680.434498	0.177756
680.637438	0.177794
680.840359	0.177831
681.043263	0.177931
681.246148	0.178111
681.449015	0.178115
681.651864	0.178172
681.854694	0.178065
682.057506	0.178342
682.260301	0.178312
682.463076	0.178534
682.665834	0.178557
682.868573	0.178683
683.071295	0.178730
683.273998	0.178811
683.476682	0.179005
683.679349	0.179210
683.881997	0.179266
684.084627	0.179377
684.287239	0.179703
684.489833	0.180016
684.692408	0.180282
684.894965	0.180502
685.097504	0.180612
685.300025	0.180732
685.502527	0.180928
685.705012	0.181228
685.907478	0.181603
686.109925	0.181506
686.312355	0.181664
686.514766	0.181760
686.717159	0.181603
686.919534	0.181661
687.121891	0.181766
687.324230	0.181804
687.526550	0.181768
687.728852	0.181817
687.931136	0.182032
688.133401	0.182179
688.335649	0.182350
688.537878	0.182619
688.740089	0.182928
688.942281	0.183158
689.144456	0.183466
689.346612	0.183571
689.548750	0.183827
689.750870	0.184005
689.952971	0.184034
690.155055	0.183921
690.357120	0.184150
690.559167	0.184324
690.761195	0.184166
690.963206	0.184214
691.165198	0.184231
691.367172	0.184204
691.569128	0.184288
691.771065	0.184339
691.972984	0.184384
692.174885	0.184352
692.376768	0.184316
692.578633	0.184530
692.780479	0.184767
692.982308	0.184791
693.184118	0.184741
693.385909	0.184701
693.587683	0.184727
