sample name	sample
index	130
start time	 02-15-2021  01:16:26 PM


Wavelength (nm)	Absorbance
494.344910	NaN
494.563924	NaN
494.782919	NaN
495.001897	-0.033355
495.220856	0.617550
495.439797	0.192222
495.658719	0.022094
495.877624	-0.141286
496.096510	-0.195488
496.315378	0.017692
496.534227	-0.146693
496.753059	-0.082538
496.971872	0.013235
497.190667	0.105945
497.409444	0.119358
497.628203	0.128876
497.846943	0.134319
498.065665	0.138960
498.284369	0.138041
498.503055	0.139333
498.721723	0.142351
498.940372	0.142741
499.159003	0.139139
499.377616	0.142754
499.596210	0.141769
499.814787	0.141292
500.033345	0.140839
500.251885	0.139516
500.470406	0.136546
500.688910	0.133768
500.907395	0.131158
501.125862	0.132678
501.344311	0.131496
501.562742	0.131563
501.781154	0.132123
501.999548	0.131161
502.217924	0.132600
502.436282	0.134661
502.654621	0.132808
502.872942	0.133108
503.091245	0.133346
503.309530	0.132314
503.527797	0.134167
503.746045	0.135020
503.964275	0.134979
504.182487	0.134997
504.400681	0.134486
504.618856	0.137353
504.837013	0.137658
505.055152	0.138461
505.273273	0.137349
505.491376	0.134055
505.709460	0.133484
505.927526	0.134216
506.145574	0.134128
506.363604	0.134440
506.581615	0.135250
506.799608	0.137146
507.017583	0.134370
507.235540	0.138577
507.453478	0.141738
507.671399	0.141300
507.889301	0.139713
508.107185	0.137981
508.325050	0.137106
508.542898	0.134918
508.760727	0.133896
508.978538	0.137375
509.196330	0.134518
509.414105	0.134660
509.631861	0.135281
509.849599	0.137272
510.067319	0.137603
510.285021	0.139331
510.502704	0.139467
510.720369	0.141220
510.938016	0.141056
511.155645	0.142454
511.373255	0.140833
511.590848	0.140856
511.808422	0.141612
512.025977	0.141956
512.243515	0.143838
512.461034	0.143502
512.678536	0.142415
512.896018	0.142290
513.113483	0.143045
513.330930	0.143824
513.548358	0.143603
513.765768	0.143450
513.983160	0.144950
514.200533	0.144049
514.417889	0.145386
514.635226	0.144896
514.852545	0.144111
515.069845	0.143028
515.287128	0.144450
515.504392	0.145333
515.721638	0.146632
515.938866	0.143789
516.156075	0.143443
516.373267	0.141348
516.590440	0.143140
516.807594	0.144169
517.024731	0.143608
517.241850	0.142514
517.458950	0.142839
517.676032	0.143168
517.893095	0.144504
518.110141	0.144605
518.327168	0.147875
518.544177	0.146538
518.761168	0.148029
518.978141	0.148847
519.195095	0.148894
519.412031	0.147779
519.628949	0.145803
519.845849	0.147303
520.062731	0.147340
520.279594	0.147075
520.496439	0.149459
520.713266	0.146906
520.930074	0.147587
521.146865	0.148347
521.363637	0.150718
521.580391	0.151776
521.797127	0.152010
522.013844	0.150548
522.230543	0.150897
522.447224	0.147995
522.663887	0.149008
522.880532	0.149060
523.097158	0.147950
523.313766	0.146858
523.530356	0.146460
523.746928	0.146299
523.963481	0.147225
524.180017	0.147154
524.396534	0.148657
524.613032	0.150295
524.829513	0.151053
525.045975	0.152082
525.262420	0.151782
525.478845	0.150677
525.695253	0.151109
525.911643	0.151869
526.128014	0.154030
526.344367	0.153892
526.560702	0.151959
526.777018	0.151862
526.993316	0.153634
527.209597	0.154387
527.425858	0.155472
527.642102	0.155032
527.858328	0.155797
528.074535	0.155765
528.290724	0.155741
528.506894	0.156468
528.723047	0.156839
528.939181	0.157197
529.155297	0.158640
529.371395	0.158566
529.587475	0.158931
529.803536	0.158628
530.019579	0.156792
530.235604	0.157587
530.451611	0.158379
530.667600	0.159164
530.883570	0.157913
531.099522	0.157520
531.315456	0.158446
531.531372	0.158033
531.747269	0.158412
531.963148	0.160238
532.179009	0.161724
532.394852	0.163234
532.610676	0.162366
532.826482	0.163357
533.042271	0.162980
533.258040	0.163593
533.473792	0.164451
533.689525	0.164934
533.905240	0.164611
534.120937	0.164031
534.336616	0.162632
534.552277	0.163354
534.767919	0.162997
534.983543	0.164088
535.199149	0.164566
535.414736	0.165044
535.630306	0.165565
535.845857	0.166003
536.061390	0.166446
536.276904	0.167147
536.492401	0.167046
536.707879	0.166844
536.923339	0.167618
537.138781	0.168286
537.354204	0.168309
537.569610	0.168777
537.784997	0.169386
538.000366	0.169141
538.215716	0.168552
538.431049	0.168994
538.646363	0.169311
538.861659	0.168895
539.076937	0.168156
539.292196	0.169381
539.507438	0.169474
539.722661	0.169499
539.937866	0.170977
540.153052	0.172432
540.368221	0.172769
540.583371	0.174621
540.798503	0.175409
541.013617	0.176591
541.228712	0.176913
541.443789	0.177240
541.658848	0.177670
541.873889	0.177024
542.088912	0.176819
542.303916	0.177625
542.518902	0.177195
542.733870	0.176311
542.948820	0.176214
543.163752	0.175080
543.378665	0.175150
543.593560	0.175388
543.808437	0.176162
544.023295	0.176549
544.238136	0.176566
544.452958	0.176027
544.667762	0.176235
544.882548	0.176719
545.097315	0.178052
545.312064	0.177700
545.526795	0.177282
545.741508	0.175645
545.956203	0.175166
546.170879	0.175272
546.385537	0.175674
546.600177	0.176130
546.814799	0.175767
547.029402	0.176383
547.243988	0.177249
547.458555	0.176888
547.673103	0.178877
547.887634	0.179687
548.102146	0.178888
548.316640	0.178803
548.531116	0.178892
548.745574	0.179886
548.960013	0.178787
549.174435	0.178684
549.388838	0.179914
549.603222	0.179951
549.817589	0.180011
550.031937	0.181773
550.246267	0.183047
550.460579	0.182887
550.674873	0.182391
550.889148	0.183642
551.103405	0.183214
551.317644	0.183365
551.531865	0.183286
551.746068	0.183603
551.960252	0.182612
552.174418	0.182358
552.388566	0.182951
552.602696	0.183267
552.816807	0.183113
553.030900	0.183884
553.244975	0.183032
553.459032	0.183561
553.673070	0.183137
553.887091	0.183639
554.101093	0.183513
554.315077	0.182748
554.529042	0.182343
554.742990	0.182840
554.956919	0.182479
555.170830	0.182978
555.384722	0.182620
555.598597	0.183930
555.812453	0.185244
556.026291	0.186572
556.240111	0.188092
556.453913	0.188720
556.667696	0.188509
556.881461	0.189223
557.095208	0.190028
557.308937	0.189867
557.522647	0.189311
557.736339	0.188550
557.950013	0.187896
558.163669	0.187260
558.377307	0.187278
558.590926	0.187478
558.804527	0.186952
559.018110	0.186597
559.231675	0.187283
559.445221	0.187358
559.658749	0.186816
559.872259	0.186654
560.085751	0.186641
560.299225	0.186390
560.512680	0.186688
560.726117	0.187534
560.939536	0.187758
561.152937	0.187750
561.366319	0.188026
561.579683	0.188424
561.793029	0.189780
562.006357	0.190123
562.219667	0.190483
562.432958	0.190925
562.646231	0.190488
562.859486	0.191534
563.072723	0.191665
563.285941	0.192149
563.499141	0.192807
563.712323	0.191849
563.925487	0.192347
564.138632	0.192388
564.351760	0.191991
564.564869	0.192815
564.777960	0.192050
564.991032	0.192591
565.204087	0.193270
565.417123	0.193216
565.630141	0.193953
565.843140	0.193962
566.056122	0.194796
566.269085	0.194601
566.482030	0.194624
566.694957	0.195016
566.907866	0.195145
567.120756	0.195129
567.333628	0.194601
567.546482	0.194367
567.759318	0.194706
567.972135	0.195224
568.184935	0.196236
568.397716	0.195802
568.610478	0.196213
568.823223	0.196216
569.035949	0.196570
569.248657	0.196889
569.461347	0.197308
569.674019	0.197310
569.886672	0.196758
570.099308	0.196057
570.311925	0.197150
570.524523	0.197500
570.737104	0.197457
570.949666	0.196651
571.162210	0.197768
571.374736	0.197932
571.587244	0.198402
571.799733	0.198932
572.012205	0.200386
572.224658	0.200444
572.437092	0.200103
572.649509	0.200066
572.861907	0.200609
573.074287	0.200991
573.286649	0.201432
573.498993	0.201756
573.711318	0.201694
573.923625	0.201270
574.135914	0.200775
574.348185	0.201307
574.560438	0.201852
574.772672	0.202303
574.984888	0.202251
575.197086	0.201943
575.409266	0.203205
575.621427	0.203173
575.833570	0.203307
576.045695	0.204212
576.257802	0.204656
576.469890	0.204647
576.681961	0.204317
576.894013	0.204795
577.106046	0.205067
577.318062	0.204599
577.530059	0.205405
577.742039	0.205228
577.954000	0.205269
578.165942	0.205251
578.377867	0.205891
578.589773	0.207301
578.801661	0.207263
579.013531	0.207692
579.225382	0.207094
579.437216	0.206980
579.649031	0.207659
579.860828	0.208160
580.072606	0.208688
580.284367	0.209057
580.496109	0.209015
580.707833	0.209128
580.919539	0.209474
581.131227	0.209801
581.342896	0.210061
581.554547	0.211033
581.766180	0.211019
581.977795	0.211062
582.189391	0.209945
582.400969	0.209169
582.612529	0.209335
582.824071	0.209473
583.035595	0.209889
583.247100	0.209573
583.458587	0.208782
583.670056	0.209258
583.881506	0.209183
584.092939	0.210506
584.304353	0.210487
584.515749	0.209968
584.727127	0.209776
584.938486	0.209494
585.149828	0.209735
585.361151	0.209648
585.572456	0.209254
585.783742	0.209196
585.995011	0.208654
586.206261	0.209096
586.417493	0.208970
586.628706	0.208996
586.839902	0.209380
587.051079	0.209439
587.262238	0.209842
587.473379	0.210123
587.684502	0.210452
587.895606	0.211436
588.106692	0.211599
588.317760	0.212556
588.528810	0.212051
588.739841	0.211847
588.950855	0.212267
589.161850	0.212353
589.372827	0.212615
589.583785	0.212073
589.794726	0.212340
590.005648	0.212646
590.216552	0.213266
590.427437	0.213426
590.638305	0.214176
590.849154	0.214318
591.059985	0.215101
591.270798	0.215526
591.481592	0.216413
591.692369	0.215324
591.903127	0.215782
592.113867	0.215332
592.324588	0.216985
592.535292	0.216988
592.745977	0.217842
592.956644	0.217362
593.167293	0.217326
593.377923	0.217689
593.588536	0.219244
593.799130	0.219245
594.009706	0.219091
594.220263	0.218783
594.430803	0.218883
594.641324	0.218093
594.851827	0.218058
595.062312	0.217231
595.272778	0.216968
595.483227	0.216217
595.693657	0.216275
595.904069	0.216875
596.114462	0.217192
596.324838	0.216376
596.535195	0.216801
596.745534	0.217300
596.955855	0.218680
597.166157	0.218941
597.376441	0.219203
597.586707	0.219165
597.796955	0.219278
598.007185	0.218552
598.217396	0.219310
598.427589	0.219595
598.637764	0.219529
598.847921	0.219297
599.058060	0.219578
599.268180	0.219394
599.478282	0.219351
599.688366	0.219841
599.898431	0.220793
600.108479	0.220922
600.318508	0.220868
600.528519	0.220882
600.738511	0.221309
600.948486	0.221385
601.158442	0.222592
601.368380	0.223033
601.578300	0.223065
601.788202	0.222393
601.998085	0.223058
602.207950	0.223622
602.417797	0.224531
602.627626	0.224359
602.837436	0.224572
603.047228	0.223695
603.257002	0.223632
603.466758	0.223462
603.676496	0.224602
603.886215	0.224334
604.095916	0.224236
604.305599	0.223540
604.515264	0.224080
604.724910	0.224217
604.934538	0.224775
605.144148	0.224805
605.353740	0.224488
605.563314	0.223961
605.772869	0.224007
605.982406	0.224045
606.191925	0.225059
606.401425	0.225017
606.610908	0.224530
606.820372	0.224692
607.029818	0.225392
607.239246	0.226215
607.448655	0.226242
607.658047	0.227133
607.867420	0.227766
608.076775	0.227312
608.286111	0.227425
608.495430	0.227948
608.704730	0.228268
608.914012	0.228430
609.123275	0.228306
609.332521	0.229054
609.541748	0.229050
609.750957	0.228681
609.960148	0.228463
610.169321	0.228136
610.378475	0.228268
610.587611	0.227604
610.796729	0.227993
611.005829	0.228697
611.214910	0.229240
611.423974	0.228757
611.633019	0.228683
611.842045	0.229661
612.051054	0.230632
612.260044	0.230645
612.469017	0.231517
612.677970	0.231896
612.886906	0.231535
613.095824	0.231232
613.304723	0.231497
613.513604	0.231850
613.722467	0.231215
613.931311	0.230998
614.140138	0.231103
614.348946	0.231164
614.557736	0.230433
614.766507	0.230623
614.975261	0.230466
615.183996	0.230376
615.392713	0.230298
615.601412	0.231361
615.810092	0.231562
616.018754	0.231139
616.227399	0.231453
616.436024	0.231808
616.644632	0.231569
616.853222	0.231840
617.061793	0.232405
617.270346	0.233181
617.478880	0.233409
617.687397	0.233708
617.895895	0.234590
618.104375	0.234337
618.312837	0.234781
618.521281	0.235288
618.729706	0.235573
618.938113	0.235963
619.146502	0.236028
619.354873	0.235543
619.563226	0.235947
619.771560	0.235926
619.979876	0.236439
620.188174	0.236535
620.396453	0.236541
620.604715	0.236477
620.812958	0.236246
621.021183	0.236485
621.229390	0.236575
621.437578	0.235978
621.645748	0.236182
621.853900	0.236620
622.062034	0.236663
622.270150	0.237395
622.478247	0.237493
622.686326	0.237645
622.894387	0.238017
623.102430	0.237988
623.310454	0.238434
623.518461	0.238994
623.726449	0.238788
623.934418	0.239060
624.142370	0.238639
624.350303	0.238872
624.558218	0.239372
624.766115	0.239053
624.973994	0.239285
625.181855	0.239538
625.389697	0.239500
625.597521	0.239680
625.805327	0.240087
626.013114	0.240217
626.220883	0.240522
626.428634	0.240840
626.636367	0.241237
626.844082	0.241488
627.051778	0.241660
627.259457	0.242022
627.467117	0.241973
627.674758	0.242054
627.882382	0.242446
628.089987	0.243004
628.297574	0.242806
628.505143	0.242223
628.712694	0.242570
628.920226	0.242422
629.127740	0.242150
629.335236	0.242716
629.542714	0.242548
629.750174	0.242767
629.957615	0.242690
630.165038	0.243161
630.372443	0.243471
630.579829	0.243652
630.787198	0.243790
630.994548	0.244586
631.201880	0.244579
631.409194	0.244456
631.616489	0.244366
631.823766	0.244247
632.031025	0.244120
632.238266	0.244616
632.445489	0.244721
632.652693	0.245459
632.859879	0.245598
633.067047	0.245934
633.274197	0.246362
633.481329	0.247229
633.688442	0.247847
633.895537	0.248020
634.102614	0.248939
634.309672	0.249440
634.516713	0.249519
634.723735	0.249666
634.930739	0.249190
635.137724	0.249969
635.344692	0.249500
635.551641	0.249350
635.758572	0.249510
635.965485	0.249416
636.172379	0.249080
636.379256	0.249212
636.586114	0.249242
636.792954	0.249955
636.999775	0.249572
637.206579	0.249934
637.413364	0.250177
637.620131	0.250789
637.826880	0.250907
638.033610	0.251211
638.240323	0.251171
638.447017	0.250770
638.653692	0.250588
638.860350	0.250726
639.066990	0.250942
639.273611	0.251036
639.480214	0.251054
639.686798	0.250740
639.893365	0.251221
640.099913	0.251608
640.306443	0.252590
640.512955	0.252873
640.719449	0.253400
640.925924	0.253481
641.132381	0.253821
641.338820	0.253714
641.545241	0.254188
641.751644	0.254032
641.958028	0.254289
642.164394	0.254417
642.370742	0.254786
642.577071	0.254546
642.783383	0.254635
642.989676	0.254502
643.195951	0.255507
643.402207	0.255996
643.608446	0.256375
643.814666	0.255968
644.020868	0.256382
644.227052	0.256845
644.433218	0.257112
644.639365	0.257638
644.845494	0.258042
645.051605	0.257523
645.257698	0.257291
645.463772	0.257606
645.669828	0.257735
645.875866	0.257697
646.081886	0.257303
646.287888	0.257794
646.493871	0.258157
646.699836	0.258263
646.905783	0.258872
647.111712	0.258863
647.317622	0.258940
647.523514	0.259334
647.729388	0.259486
647.935244	0.259628
648.141082	0.259099
648.346901	0.258791
648.552702	0.258976
648.758485	0.258924
648.964250	0.259589
649.169996	0.259894
649.375724	0.260466
649.581434	0.260560
649.787126	0.260906
649.992800	0.261501
650.198455	0.261964
650.404092	0.262364
650.609711	0.262475
650.815311	0.262405
651.020894	0.262491
651.226458	0.262866
651.432004	0.262682
651.637532	0.262991
651.843041	0.263284
652.048532	0.263778
652.254006	0.264128
652.459460	0.264387
652.664897	0.264527
652.870315	0.264891
653.075716	0.265020
653.281097	0.265462
653.486461	0.265684
653.691807	0.265984
653.897134	0.265608
654.102443	0.264963
654.307734	0.264970
654.513006	0.265265
654.718261	0.264970
654.923497	0.264930
655.128715	0.265293
655.333915	0.265730
655.539096	0.265631
655.744259	0.266590
655.949404	0.267035
656.154531	0.267453
656.359640	0.268094
656.564730	0.268640
656.769802	0.268969
656.974856	0.269252
657.179892	0.269580
657.384909	0.270370
657.589908	0.269979
657.794889	0.270336
657.999852	0.270366
658.204797	0.270119
658.409723	0.270447
658.614631	0.270616
658.819521	0.270923
659.024393	0.270804
659.229246	0.270379
659.434081	0.270668
659.638898	0.271272
659.843697	0.271750
660.048478	0.271939
660.253240	0.272169
660.457984	0.272422
660.662710	0.272111
660.867417	0.272476
661.072107	0.272997
661.276778	0.273135
661.481431	0.273253
661.686066	0.273186
661.890682	0.273925
662.095281	0.273924
662.299861	0.273839
662.504422	0.274543
662.708966	0.274596
662.913491	0.274700
663.117999	0.275226
663.322488	0.274989
663.526958	0.275136
663.731411	0.275344
663.935845	0.275267
664.140261	0.275268
664.344659	0.275184
664.549038	0.275525
664.753400	0.275856
664.957743	0.276246
665.162068	0.276410
665.366375	0.276835
665.570663	0.276183
665.774933	0.276824
665.979185	0.277489
666.183419	0.277552
666.387635	0.277678
666.591832	0.277995
666.796011	0.277715
667.000172	0.278579
667.204315	0.278514
667.408439	0.279113
667.612545	0.279157
667.816634	0.279212
668.020703	0.279498
668.224755	0.279496
668.428788	0.279796
668.632803	0.279930
668.836800	0.280119
669.040779	0.280787
669.244739	0.281048
669.448681	0.281301
669.652605	0.281665
669.856511	0.281634
670.060399	0.282073
670.264268	0.282058
670.468119	0.282273
670.671952	0.282596
670.875767	0.282866
671.079563	0.283319
671.283341	0.283566
671.487101	0.283597
671.690843	0.284304
671.894567	0.284711
672.098272	0.285372
672.301959	0.285923
672.505628	0.285829
672.709278	0.285846
672.912911	0.286092
673.116525	0.286201
673.320121	0.286506
673.523699	0.285834
673.727258	0.285885
673.930799	0.285809
674.134322	0.286001
674.337827	0.286477
674.541314	0.286375
674.744782	0.286477
674.948232	0.286859
675.151664	0.286875
675.355078	0.288078
675.558474	0.288752
675.761851	0.288800
675.965210	0.289003
676.168551	0.289223
676.371873	0.289816
676.575178	0.289928
676.778464	0.289727
676.981732	0.290028
677.184981	0.289921
677.388213	0.289973
677.591426	0.290577
677.794621	0.290334
677.997798	0.290320
678.200956	0.290456
678.404097	0.290596
678.607219	0.291101
678.810323	0.291696
679.013408	0.292015
679.216476	0.291863
679.419525	0.291652
679.622556	0.292319
679.825569	0.292096
680.028563	0.292353
680.231540	0.292043
680.434498	0.292280
680.637438	0.292490
680.840359	0.292580
681.043263	0.292909
681.246148	0.293202
681.449015	0.293546
681.651864	0.294163
681.854694	0.294286
682.057506	0.294903
682.260301	0.294859
682.463076	0.294595
682.665834	0.294254
682.868573	0.294442
683.071295	0.294190
683.273998	0.294210
683.476682	0.293957
683.679349	0.294115
683.881997	0.294529
684.084627	0.294816
684.287239	0.295081
684.489833	0.296107
684.692408	0.296176
684.894965	0.296997
685.097504	0.297376
685.300025	0.298000
685.502527	0.298120
685.705012	0.298272
685.907478	0.298220
686.109925	0.298466
686.312355	0.298462
686.514766	0.298911
686.717159	0.298604
686.919534	0.298714
687.121891	0.298960
687.324230	0.299395
687.526550	0.299783
687.728852	0.300198
687.931136	0.300461
688.133401	0.300541
688.335649	0.300677
688.537878	0.301465
688.740089	0.301344
688.942281	0.301531
689.144456	0.301690
689.346612	0.301348
689.548750	0.301905
689.750870	0.302113
689.952971	0.302501
690.155055	0.302675
690.357120	0.302653
690.559167	0.302604
690.761195	0.302641
690.963206	0.302848
691.165198	0.303337
691.367172	0.303368
691.569128	0.303623
691.771065	0.303470
691.972984	0.303495
692.174885	0.303384
692.376768	0.303855
692.578633	0.303851
692.780479	0.303858
692.982308	0.304019
693.184118	0.304673
693.385909	0.304734
693.587683	0.305215
