sample name	sample
index	419
start time	 03-08-2021  11:29:44 AM


Wavelength (nm)	Absorbance
494.344910	-0.415466
494.563924	-0.415466
494.782919	-0.415466
495.001897	0.006109
495.220856	-0.157769
495.439797	-0.139658
495.658719	-0.090217
495.877624	-0.022719
496.096510	-0.024103
496.315378	0.025531
496.534227	-0.060167
496.753059	-0.132748
496.971872	-0.082668
497.190667	0.047437
497.409444	0.061063
497.628203	0.063374
497.846943	0.064737
498.065665	0.066994
498.284369	0.067948
498.503055	0.069949
498.721723	0.072094
498.940372	0.072134
499.159003	0.072403
499.377616	0.073413
499.596210	0.074214
499.814787	0.074661
500.033345	0.075200
500.251885	0.075412
500.470406	0.075307
500.688910	0.074528
500.907395	0.074351
501.125862	0.074786
501.344311	0.074214
501.562742	0.074282
501.781154	0.074761
501.999548	0.074890
502.217924	0.075181
502.436282	0.075536
502.654621	0.076903
502.872942	0.077009
503.091245	0.076510
503.309530	0.076562
503.527797	0.076078
503.746045	0.075693
503.964275	0.075167
504.182487	0.074552
504.400681	0.075577
504.618856	0.074494
504.837013	0.075809
505.055152	0.074748
505.273273	0.075196
505.491376	0.075269
505.709460	0.075166
505.927526	0.075322
506.145574	0.075651
506.363604	0.074016
506.581615	0.074627
506.799608	0.074049
507.017583	0.075711
507.235540	0.075040
507.453478	0.075451
507.671399	0.076124
507.889301	0.075664
508.107185	0.076300
508.325050	0.077052
508.542898	0.076650
508.760727	0.076264
508.978538	0.076144
509.196330	0.077575
509.414105	0.077852
509.631861	0.078105
509.849599	0.078821
510.067319	0.078160
510.285021	0.078548
510.502704	0.079667
510.720369	0.079691
510.938016	0.079805
511.155645	0.079061
511.373255	0.079436
511.590848	0.079280
511.808422	0.079436
512.025977	0.079412
512.243515	0.079301
512.461034	0.078032
512.678536	0.078520
512.896018	0.078964
513.113483	0.079719
513.330930	0.079462
513.548358	0.079083
513.765768	0.079067
513.983160	0.079796
514.200533	0.079589
514.417889	0.080482
514.635226	0.081425
514.852545	0.081445
515.069845	0.080716
515.287128	0.081134
515.504392	0.081313
515.721638	0.081168
515.938866	0.080440
516.156075	0.080858
516.373267	0.080712
516.590440	0.080153
516.807594	0.079894
517.024731	0.080212
517.241850	0.079352
517.458950	0.079266
517.676032	0.079767
517.893095	0.080305
518.110141	0.080412
518.327168	0.080441
518.544177	0.080324
518.761168	0.080449
518.978141	0.080408
519.195095	0.080781
519.412031	0.081815
519.628949	0.082264
519.845849	0.082614
520.062731	0.082417
520.279594	0.082353
520.496439	0.082485
520.713266	0.082407
520.930074	0.083420
521.146865	0.083585
521.363637	0.083318
521.580391	0.083030
521.797127	0.082681
522.013844	0.083091
522.230543	0.083224
522.447224	0.083338
522.663887	0.083786
522.880532	0.082971
523.097158	0.083279
523.313766	0.083387
523.530356	0.083699
523.746928	0.083775
523.963481	0.083733
524.180017	0.083904
524.396534	0.083567
524.613032	0.083512
524.829513	0.083747
525.045975	0.083908
525.262420	0.083946
525.478845	0.083759
525.695253	0.083978
525.911643	0.083929
526.128014	0.084290
526.344367	0.084621
526.560702	0.085127
526.777018	0.085430
526.993316	0.085783
527.209597	0.086082
527.425858	0.086428
527.642102	0.087302
527.858328	0.087218
528.074535	0.087690
528.290724	0.088026
528.506894	0.088467
528.723047	0.088538
528.939181	0.088640
529.155297	0.088460
529.371395	0.088496
529.587475	0.088187
529.803536	0.088728
530.019579	0.088559
530.235604	0.088587
530.451611	0.088740
530.667600	0.089010
530.883570	0.089553
531.099522	0.090295
531.315456	0.090627
531.531372	0.090249
531.747269	0.091252
531.963148	0.091402
532.179009	0.091858
532.394852	0.091763
532.610676	0.092195
532.826482	0.091995
533.042271	0.091949
533.258040	0.091730
533.473792	0.092500
533.689525	0.092189
533.905240	0.092405
534.120937	0.092427
534.336616	0.092119
534.552277	0.091716
534.767919	0.091721
534.983543	0.091518
535.199149	0.091667
535.414736	0.092206
535.630306	0.092400
535.845857	0.091872
536.061390	0.092196
536.276904	0.092794
536.492401	0.093273
536.707879	0.093730
536.923339	0.094055
537.138781	0.094507
537.354204	0.093950
537.569610	0.094456
537.784997	0.095246
538.000366	0.095333
538.215716	0.095513
538.431049	0.095606
538.646363	0.095606
538.861659	0.095834
539.076937	0.096308
539.292196	0.097068
539.507438	0.097106
539.722661	0.096912
539.937866	0.096888
540.153052	0.096956
540.368221	0.097161
540.583371	0.097399
540.798503	0.097664
541.013617	0.097476
541.228712	0.097421
541.443789	0.097224
541.658848	0.097602
541.873889	0.097629
542.088912	0.097609
542.303916	0.097996
542.518902	0.098129
542.733870	0.098465
542.948820	0.098287
543.163752	0.098220
543.378665	0.098268
543.593560	0.098541
543.808437	0.098955
544.023295	0.099265
544.238136	0.099530
544.452958	0.099787
544.667762	0.100163
544.882548	0.100369
545.097315	0.100367
545.312064	0.100847
545.526795	0.101352
545.741508	0.101298
545.956203	0.101547
546.170879	0.101637
546.385537	0.101810
546.600177	0.101462
546.814799	0.101962
547.029402	0.102286
547.243988	0.102382
547.458555	0.102252
547.673103	0.102727
547.887634	0.102567
548.102146	0.102380
548.316640	0.102692
548.531116	0.102803
548.745574	0.102578
548.960013	0.102954
549.174435	0.103106
549.388838	0.103104
549.603222	0.103373
549.817589	0.103642
550.031937	0.103474
550.246267	0.102978
550.460579	0.102989
550.674873	0.103460
550.889148	0.103116
551.103405	0.103222
551.317644	0.103756
551.531865	0.103404
551.746068	0.103332
551.960252	0.103817
552.174418	0.104277
552.388566	0.104294
552.602696	0.104254
552.816807	0.104667
553.030900	0.104745
553.244975	0.104884
553.459032	0.105069
553.673070	0.105354
553.887091	0.105313
554.101093	0.105486
554.315077	0.105773
554.529042	0.105848
554.742990	0.106000
554.956919	0.105721
555.170830	0.105257
555.384722	0.105161
555.598597	0.105413
555.812453	0.105729
556.026291	0.105814
556.240111	0.105976
556.453913	0.106327
556.667696	0.106182
556.881461	0.106523
557.095208	0.106605
557.308937	0.106926
557.522647	0.107057
557.736339	0.107078
557.950013	0.107072
558.163669	0.107259
558.377307	0.107271
558.590926	0.107615
558.804527	0.107580
559.018110	0.107715
559.231675	0.107895
559.445221	0.107864
559.658749	0.107875
559.872259	0.108092
560.085751	0.108198
560.299225	0.108389
560.512680	0.108504
560.726117	0.108802
560.939536	0.109255
561.152937	0.109456
561.366319	0.109468
561.579683	0.109384
561.793029	0.109157
562.006357	0.108515
562.219667	0.108675
562.432958	0.108431
562.646231	0.108685
562.859486	0.108343
563.072723	0.108144
563.285941	0.108524
563.499141	0.108861
563.712323	0.108830
563.925487	0.109601
564.138632	0.109422
564.351760	0.109972
564.564869	0.109613
564.777960	0.109797
564.991032	0.109754
565.204087	0.109944
565.417123	0.109908
565.630141	0.110684
565.843140	0.110635
566.056122	0.110831
566.269085	0.110730
566.482030	0.111292
566.694957	0.111601
566.907866	0.112139
567.120756	0.111636
567.333628	0.111978
567.546482	0.111785
567.759318	0.111841
567.972135	0.111972
568.184935	0.111503
568.397716	0.111335
568.610478	0.111166
568.823223	0.110829
569.035949	0.110892
569.248657	0.111048
569.461347	0.110836
569.674019	0.111007
569.886672	0.111154
570.099308	0.111880
570.311925	0.112140
570.524523	0.112140
570.737104	0.112667
570.949666	0.113060
571.162210	0.112799
571.374736	0.113128
571.587244	0.113245
571.799733	0.113371
572.012205	0.113294
572.224658	0.113113
572.437092	0.113584
572.649509	0.113599
572.861907	0.113638
573.074287	0.113788
573.286649	0.114003
573.498993	0.114135
573.711318	0.114282
573.923625	0.114140
574.135914	0.114475
574.348185	0.114604
574.560438	0.114849
574.772672	0.115146
574.984888	0.115617
575.197086	0.115788
575.409266	0.115905
575.621427	0.115419
575.833570	0.115989
576.045695	0.116298
576.257802	0.115826
576.469890	0.115545
576.681961	0.115511
576.894013	0.115388
577.106046	0.115403
577.318062	0.115278
577.530059	0.115489
577.742039	0.115620
577.954000	0.115452
578.165942	0.115890
578.377867	0.115935
578.589773	0.116210
578.801661	0.116309
579.013531	0.116433
579.225382	0.116566
579.437216	0.116937
579.649031	0.116958
579.860828	0.116968
580.072606	0.117237
580.284367	0.117652
580.496109	0.117836
580.707833	0.118076
580.919539	0.117830
581.131227	0.118006
581.342896	0.118135
581.554547	0.118053
581.766180	0.118244
581.977795	0.118376
582.189391	0.118409
582.400969	0.118434
582.612529	0.118416
582.824071	0.118957
583.035595	0.119225
583.247100	0.119279
583.458587	0.119628
583.670056	0.119792
583.881506	0.119758
584.092939	0.119690
584.304353	0.119442
584.515749	0.119515
584.727127	0.119290
584.938486	0.119365
585.149828	0.119508
585.361151	0.119415
585.572456	0.119690
585.783742	0.119894
585.995011	0.120147
586.206261	0.120380
586.417493	0.120588
586.628706	0.120833
586.839902	0.121168
587.051079	0.121414
587.262238	0.121735
587.473379	0.121739
587.684502	0.121748
587.895606	0.121885
588.106692	0.121989
588.317760	0.122018
588.528810	0.122439
588.739841	0.122143
588.950855	0.122095
589.161850	0.122101
589.372827	0.122124
589.583785	0.122367
589.794726	0.122628
590.005648	0.122535
590.216552	0.122492
590.427437	0.122017
590.638305	0.122359
590.849154	0.122232
591.059985	0.122088
591.270798	0.122245
591.481592	0.122123
591.692369	0.121920
591.903127	0.122179
592.113867	0.122605
592.324588	0.122923
592.535292	0.122899
592.745977	0.123249
592.956644	0.123601
593.167293	0.123377
593.377923	0.123293
593.588536	0.123655
593.799130	0.123739
594.009706	0.123539
594.220263	0.123695
594.430803	0.124008
594.641324	0.124085
594.851827	0.124200
595.062312	0.124756
595.272778	0.125623
595.483227	0.125681
595.693657	0.125874
595.904069	0.126232
596.114462	0.126138
596.324838	0.126025
596.535195	0.126270
596.745534	0.126234
596.955855	0.126030
597.166157	0.125678
597.376441	0.125725
597.586707	0.125807
597.796955	0.125677
598.007185	0.125869
598.217396	0.125978
598.427589	0.126220
598.637764	0.126446
598.847921	0.126662
599.058060	0.126704
599.268180	0.126828
599.478282	0.126917
599.688366	0.126929
599.898431	0.127325
600.108479	0.127220
600.318508	0.126848
600.528519	0.126948
600.738511	0.126875
600.948486	0.127087
601.158442	0.126945
601.368380	0.127205
601.578300	0.127596
601.788202	0.127244
601.998085	0.127608
602.207950	0.127704
602.417797	0.127915
602.627626	0.127951
602.837436	0.127717
603.047228	0.127782
603.257002	0.127763
603.466758	0.127588
603.676496	0.127925
603.886215	0.127749
604.095916	0.128001
604.305599	0.128120
604.515264	0.128408
604.724910	0.128748
604.934538	0.129266
605.144148	0.129253
605.353740	0.129409
605.563314	0.129616
605.772869	0.129609
605.982406	0.129698
606.191925	0.129490
606.401425	0.129168
606.610908	0.129338
606.820372	0.129095
607.029818	0.129420
607.239246	0.129756
607.448655	0.129568
607.658047	0.129937
607.867420	0.129816
608.076775	0.130069
608.286111	0.130369
608.495430	0.130340
608.704730	0.130405
608.914012	0.130341
609.123275	0.130151
609.332521	0.130429
609.541748	0.130638
609.750957	0.131058
609.960148	0.130850
610.169321	0.131082
610.378475	0.131323
610.587611	0.131696
610.796729	0.131745
611.005829	0.131685
611.214910	0.131650
611.423974	0.131648
611.633019	0.131507
611.842045	0.131513
612.051054	0.131432
612.260044	0.131127
612.469017	0.130692
612.677970	0.130600
612.886906	0.130894
613.095824	0.130844
613.304723	0.130792
613.513604	0.130984
613.722467	0.131319
613.931311	0.131323
614.140138	0.131648
614.348946	0.132172
614.557736	0.132209
614.766507	0.132189
614.975261	0.132383
615.183996	0.132425
615.392713	0.132505
615.601412	0.132783
615.810092	0.133185
616.018754	0.132984
616.227399	0.133062
616.436024	0.133418
616.644632	0.133669
616.853222	0.133866
617.061793	0.134087
617.270346	0.133777
617.478880	0.133724
617.687397	0.133675
617.895895	0.134215
618.104375	0.134227
618.312837	0.134269
618.521281	0.134268
618.729706	0.134268
618.938113	0.134300
619.146502	0.134704
619.354873	0.134652
619.563226	0.134730
619.771560	0.134666
619.979876	0.134661
620.188174	0.134555
620.396453	0.134548
620.604715	0.134323
620.812958	0.134277
621.021183	0.134393
621.229390	0.134411
621.437578	0.134367
621.645748	0.134243
621.853900	0.134209
622.062034	0.134347
622.270150	0.134186
622.478247	0.134312
622.686326	0.134411
622.894387	0.134513
623.102430	0.134715
623.310454	0.134919
623.518461	0.135155
623.726449	0.135482
623.934418	0.135697
624.142370	0.136079
624.350303	0.136226
624.558218	0.136392
624.766115	0.136224
624.973994	0.136413
625.181855	0.136416
625.389697	0.136551
625.597521	0.136555
625.805327	0.136501
626.013114	0.136546
626.220883	0.136874
626.428634	0.136678
626.636367	0.137004
626.844082	0.136933
627.051778	0.136969
627.259457	0.136920
627.467117	0.137190
627.674758	0.137504
627.882382	0.137834
628.089987	0.137840
628.297574	0.138247
628.505143	0.138482
628.712694	0.138766
628.920226	0.139017
629.127740	0.139035
629.335236	0.139026
629.542714	0.138966
629.750174	0.138945
629.957615	0.139015
630.165038	0.139057
630.372443	0.138832
630.579829	0.138741
630.787198	0.138834
630.994548	0.139013
631.201880	0.138696
631.409194	0.138637
631.616489	0.138551
631.823766	0.138416
632.031025	0.138488
632.238266	0.138746
632.445489	0.138836
632.652693	0.138848
632.859879	0.138938
633.067047	0.139252
633.274197	0.139533
633.481329	0.139530
633.688442	0.139728
633.895537	0.139785
634.102614	0.139493
634.309672	0.139482
634.516713	0.139604
634.723735	0.139725
634.930739	0.139722
635.137724	0.139797
635.344692	0.140035
635.551641	0.140111
635.758572	0.140313
635.965485	0.140709
636.172379	0.141052
636.379256	0.141174
636.586114	0.141361
636.792954	0.141545
636.999775	0.141453
637.206579	0.141731
637.413364	0.141758
637.620131	0.141551
637.826880	0.141787
638.033610	0.141742
638.240323	0.141680
638.447017	0.141810
638.653692	0.142099
638.860350	0.142086
639.066990	0.141863
639.273611	0.141905
639.480214	0.142082
639.686798	0.141865
639.893365	0.141970
640.099913	0.142010
640.306443	0.141909
640.512955	0.141849
640.719449	0.141968
640.925924	0.142065
641.132381	0.142385
641.338820	0.142487
641.545241	0.142590
641.751644	0.142651
641.958028	0.142764
642.164394	0.142998
642.370742	0.143070
642.577071	0.143220
642.783383	0.143535
642.989676	0.143721
643.195951	0.143903
643.402207	0.143984
643.608446	0.144062
643.814666	0.144117
644.020868	0.143990
644.227052	0.144086
644.433218	0.144364
644.639365	0.144339
644.845494	0.144285
645.051605	0.144399
645.257698	0.144453
645.463772	0.144654
645.669828	0.144718
645.875866	0.144988
646.081886	0.145116
646.287888	0.145149
646.493871	0.145355
646.699836	0.145489
646.905783	0.145414
647.111712	0.145787
647.317622	0.145875
647.523514	0.145999
647.729388	0.145839
647.935244	0.145895
648.141082	0.146064
648.346901	0.146105
648.552702	0.146076
648.758485	0.146307
648.964250	0.146335
649.169996	0.146384
649.375724	0.146371
649.581434	0.146660
649.787126	0.146672
649.992800	0.146799
650.198455	0.146725
650.404092	0.147068
650.609711	0.147185
650.815311	0.147293
651.020894	0.147051
651.226458	0.147331
651.432004	0.147225
651.637532	0.147430
651.843041	0.147436
652.048532	0.147478
652.254006	0.147398
652.459460	0.147442
652.664897	0.147215
652.870315	0.147464
653.075716	0.147582
653.281097	0.147709
653.486461	0.147696
653.691807	0.147613
653.897134	0.147972
654.102443	0.148018
654.307734	0.147949
654.513006	0.148242
654.718261	0.148327
654.923497	0.148377
655.128715	0.148631
655.333915	0.148955
655.539096	0.149387
655.744259	0.149358
655.949404	0.149369
656.154531	0.149564
656.359640	0.149557
656.564730	0.149721
656.769802	0.149668
656.974856	0.149681
657.179892	0.149726
657.384909	0.149600
657.589908	0.149577
657.794889	0.149714
657.999852	0.150058
658.204797	0.150384
658.409723	0.150500
658.614631	0.151059
658.819521	0.151132
659.024393	0.151071
659.229246	0.151088
659.434081	0.151088
659.638898	0.151239
659.843697	0.151242
660.048478	0.151260
660.253240	0.151237
660.457984	0.151251
660.662710	0.151431
660.867417	0.151506
661.072107	0.151858
661.276778	0.152306
661.481431	0.152385
661.686066	0.152450
661.890682	0.152431
662.095281	0.152585
662.299861	0.152300
662.504422	0.152237
662.708966	0.152457
662.913491	0.152503
663.117999	0.152420
663.322488	0.152667
663.526958	0.152730
663.731411	0.152840
663.935845	0.153071
664.140261	0.153263
664.344659	0.153488
664.549038	0.153554
664.753400	0.153573
664.957743	0.153717
665.162068	0.153765
665.366375	0.153736
665.570663	0.154040
665.774933	0.154181
665.979185	0.154379
666.183419	0.154504
666.387635	0.154614
666.591832	0.154751
666.796011	0.155033
667.000172	0.155186
667.204315	0.155374
667.408439	0.155539
667.612545	0.155558
667.816634	0.155767
668.020703	0.155913
668.224755	0.156189
668.428788	0.156287
668.632803	0.156316
668.836800	0.156461
669.040779	0.156711
669.244739	0.156703
669.448681	0.156917
669.652605	0.157114
669.856511	0.157104
670.060399	0.157142
670.264268	0.157137
670.468119	0.157257
670.671952	0.157410
670.875767	0.157550
671.079563	0.157602
671.283341	0.157545
671.487101	0.157487
671.690843	0.157609
671.894567	0.157442
672.098272	0.157424
672.301959	0.157324
672.505628	0.157070
672.709278	0.157004
672.912911	0.157026
673.116525	0.156928
673.320121	0.156807
673.523699	0.157048
673.727258	0.157241
673.930799	0.157233
674.134322	0.157570
674.337827	0.157878
674.541314	0.158127
674.744782	0.158261
674.948232	0.158713
675.151664	0.158903
675.355078	0.159059
675.558474	0.159056
675.761851	0.159436
675.965210	0.159449
676.168551	0.159489
676.371873	0.159659
676.575178	0.159741
676.778464	0.159863
676.981732	0.160035
677.184981	0.159968
677.388213	0.160159
677.591426	0.160367
677.794621	0.160498
677.997798	0.160471
678.200956	0.160316
678.404097	0.160450
678.607219	0.160401
678.810323	0.160499
679.013408	0.160530
679.216476	0.160599
679.419525	0.160540
679.622556	0.160595
679.825569	0.160872
680.028563	0.161020
680.231540	0.161033
680.434498	0.161003
680.637438	0.161214
680.840359	0.161396
681.043263	0.161617
681.246148	0.161762
681.449015	0.161827
681.651864	0.161698
681.854694	0.162021
682.057506	0.162211
682.260301	0.162435
682.463076	0.162395
682.665834	0.162595
682.868573	0.162658
683.071295	0.162815
683.273998	0.163069
683.476682	0.163329
683.679349	0.163223
683.881997	0.163356
684.084627	0.163577
684.287239	0.163766
684.489833	0.163852
684.692408	0.164200
684.894965	0.164241
685.097504	0.164194
685.300025	0.164547
685.502527	0.164571
685.705012	0.164678
685.907478	0.164798
686.109925	0.164969
686.312355	0.165118
686.514766	0.164971
686.717159	0.165136
686.919534	0.165264
687.121891	0.165133
687.324230	0.165320
687.526550	0.165394
687.728852	0.165389
687.931136	0.165367
688.133401	0.165414
688.335649	0.165501
688.537878	0.165591
688.740089	0.165784
688.942281	0.165955
689.144456	0.165878
689.346612	0.165877
689.548750	0.165788
689.750870	0.166068
689.952971	0.166096
690.155055	0.166061
690.357120	0.165974
690.559167	0.165912
690.761195	0.165760
690.963206	0.166012
691.165198	0.166129
691.367172	0.166471
691.569128	0.166290
691.771065	0.166369
691.972984	0.166471
692.174885	0.166808
692.376768	0.166872
692.578633	0.167403
692.780479	0.167573
692.982308	0.167742
693.184118	0.167873
693.385909	0.167981
