sample name	sample
index	1178
start time	 04-26-2021  11:31:37 AM


Wavelength (nm)	Absorbance
494.344910	-0.041314
494.563924	-0.041314
494.782919	-0.041314
495.001897	-0.138977
495.220856	0.046249
495.439797	-0.000819
495.658719	0.007030
495.877624	0.059032
496.096510	0.045187
496.315378	0.116834
496.534227	0.140074
496.753059	0.150935
496.971872	-0.027451
497.190667	0.082830
497.409444	0.092155
497.628203	0.090210
497.846943	0.090136
498.065665	0.093147
498.284369	0.092027
498.503055	0.091780
498.721723	0.090601
498.940372	0.091638
499.159003	0.092041
499.377616	0.091562
499.596210	0.091670
499.814787	0.091142
500.033345	0.089458
500.251885	0.089035
500.470406	0.089352
500.688910	0.091037
500.907395	0.092214
501.125862	0.092497
501.344311	0.093073
501.562742	0.093869
501.781154	0.094093
501.999548	0.094129
502.217924	0.094074
502.436282	0.093406
502.654621	0.092017
502.872942	0.091928
503.091245	0.091922
503.309530	0.091222
503.527797	0.091304
503.746045	0.090405
503.964275	0.090387
504.182487	0.091435
504.400681	0.090917
504.618856	0.091403
504.837013	0.090180
505.055152	0.090051
505.273273	0.090652
505.491376	0.089367
505.709460	0.090877
505.927526	0.090977
506.145574	0.089534
506.363604	0.090326
506.581615	0.091018
506.799608	0.091224
507.017583	0.090516
507.235540	0.091391
507.453478	0.091752
507.671399	0.090968
507.889301	0.091509
508.107185	0.092625
508.325050	0.093049
508.542898	0.092870
508.760727	0.093279
508.978538	0.093815
509.196330	0.093919
509.414105	0.094849
509.631861	0.095525
509.849599	0.096155
510.067319	0.096186
510.285021	0.096236
510.502704	0.096279
510.720369	0.096416
510.938016	0.096519
511.155645	0.096265
511.373255	0.096702
511.590848	0.096539
511.808422	0.095970
512.025977	0.095653
512.243515	0.095649
512.461034	0.095297
512.678536	0.094757
512.896018	0.094263
513.113483	0.093833
513.330930	0.092513
513.548358	0.092419
513.765768	0.093154
513.983160	0.093173
514.200533	0.093536
514.417889	0.093409
514.635226	0.094250
514.852545	0.094436
515.069845	0.094707
515.287128	0.095901
515.504392	0.095998
515.721638	0.095428
515.938866	0.096564
516.156075	0.096943
516.373267	0.097571
516.590440	0.097841
516.807594	0.098267
517.024731	0.098268
517.241850	0.098875
517.458950	0.098830
517.676032	0.099315
517.893095	0.098394
518.110141	0.097563
518.327168	0.098147
518.544177	0.098505
518.761168	0.098766
518.978141	0.098710
519.195095	0.098317
519.412031	0.098778
519.628949	0.099064
519.845849	0.099662
520.062731	0.101036
520.279594	0.100209
520.496439	0.100091
520.713266	0.100381
520.930074	0.100858
521.146865	0.100317
521.363637	0.100787
521.580391	0.100498
521.797127	0.100655
522.013844	0.100374
522.230543	0.101140
522.447224	0.101193
522.663887	0.101388
522.880532	0.101592
523.097158	0.102658
523.313766	0.102479
523.530356	0.102798
523.746928	0.102437
523.963481	0.102261
524.180017	0.102923
524.396534	0.102784
524.613032	0.102756
524.829513	0.103183
525.045975	0.102542
525.262420	0.103669
525.478845	0.103812
525.695253	0.104594
525.911643	0.105053
526.128014	0.104579
526.344367	0.105465
526.560702	0.105660
526.777018	0.105366
526.993316	0.106286
527.209597	0.105561
527.425858	0.106314
527.642102	0.106521
527.858328	0.106420
528.074535	0.107358
528.290724	0.107711
528.506894	0.108491
528.723047	0.109291
528.939181	0.109944
529.155297	0.111124
529.371395	0.111101
529.587475	0.111445
529.803536	0.112123
530.019579	0.111739
530.235604	0.111721
530.451611	0.112268
530.667600	0.112514
530.883570	0.112557
531.099522	0.111943
531.315456	0.112152
531.531372	0.112455
531.747269	0.112712
531.963148	0.112496
532.179009	0.112426
532.394852	0.112206
532.610676	0.112433
532.826482	0.112484
533.042271	0.112904
533.258040	0.113154
533.473792	0.113380
533.689525	0.113194
533.905240	0.114225
534.120937	0.114660
534.336616	0.114746
534.552277	0.114407
534.767919	0.114838
534.983543	0.115318
535.199149	0.115262
535.414736	0.115925
535.630306	0.116466
535.845857	0.115906
536.061390	0.117032
536.276904	0.117557
536.492401	0.118139
536.707879	0.118538
536.923339	0.118659
537.138781	0.119489
537.354204	0.119657
537.569610	0.119859
537.784997	0.121069
538.000366	0.120498
538.215716	0.120783
538.431049	0.120952
538.646363	0.121047
538.861659	0.121684
539.076937	0.121969
539.292196	0.121883
539.507438	0.122160
539.722661	0.122394
539.937866	0.122646
540.153052	0.122573
540.368221	0.122932
540.583371	0.123094
540.798503	0.122664
541.013617	0.122602
541.228712	0.122561
541.443789	0.122528
541.658848	0.122860
541.873889	0.122918
542.088912	0.123305
542.303916	0.123234
542.518902	0.122874
542.733870	0.123034
542.948820	0.123599
543.163752	0.123909
543.378665	0.124617
543.593560	0.124275
543.808437	0.124847
544.023295	0.125354
544.238136	0.125789
544.452958	0.126313
544.667762	0.127140
544.882548	0.127031
545.097315	0.127297
545.312064	0.126986
545.526795	0.127511
545.741508	0.127330
545.956203	0.126240
546.170879	0.126819
546.385537	0.126944
546.600177	0.126691
546.814799	0.127054
547.029402	0.127320
547.243988	0.127638
547.458555	0.127519
547.673103	0.127680
547.887634	0.128969
548.102146	0.128846
548.316640	0.129671
548.531116	0.130129
548.745574	0.130391
548.960013	0.130430
549.174435	0.130935
549.388838	0.131436
549.603222	0.131965
549.817589	0.131993
550.031937	0.132343
550.246267	0.132083
550.460579	0.132294
550.674873	0.132463
550.889148	0.133327
551.103405	0.133499
551.317644	0.133862
551.531865	0.133978
551.746068	0.134573
551.960252	0.134461
552.174418	0.135172
552.388566	0.135482
552.602696	0.135165
552.816807	0.134794
553.030900	0.134920
553.244975	0.134609
553.459032	0.134834
553.673070	0.134886
553.887091	0.135469
554.101093	0.135362
554.315077	0.135513
554.529042	0.135809
554.742990	0.136103
554.956919	0.136136
555.170830	0.136561
555.384722	0.136866
555.598597	0.136952
555.812453	0.137287
556.026291	0.137752
556.240111	0.138420
556.453913	0.138928
556.667696	0.139182
556.881461	0.139571
557.095208	0.140048
557.308937	0.140205
557.522647	0.139971
557.736339	0.139702
557.950013	0.139463
558.163669	0.139018
558.377307	0.138904
558.590926	0.138971
558.804527	0.139410
559.018110	0.139257
559.231675	0.139425
559.445221	0.140114
559.658749	0.140544
559.872259	0.140432
560.085751	0.140610
560.299225	0.141055
560.512680	0.141515
560.726117	0.141222
560.939536	0.141490
561.152937	0.141467
561.366319	0.141780
561.579683	0.141970
561.793029	0.142762
562.006357	0.143019
562.219667	0.143383
562.432958	0.143585
562.646231	0.143715
562.859486	0.143950
563.072723	0.144499
563.285941	0.144417
563.499141	0.144828
563.712323	0.144746
563.925487	0.144811
564.138632	0.144977
564.351760	0.145273
564.564869	0.145325
564.777960	0.145622
564.991032	0.145775
565.204087	0.146284
565.417123	0.146107
565.630141	0.146429
565.843140	0.146586
566.056122	0.147045
566.269085	0.146988
566.482030	0.147242
566.694957	0.147323
566.907866	0.147275
567.120756	0.146984
567.333628	0.147533
567.546482	0.147699
567.759318	0.148504
567.972135	0.148446
568.184935	0.148369
568.397716	0.148994
568.610478	0.149089
568.823223	0.149059
569.035949	0.149063
569.248657	0.148616
569.461347	0.148666
569.674019	0.148356
569.886672	0.148141
570.099308	0.148332
570.311925	0.148195
570.524523	0.148185
570.737104	0.149257
570.949666	0.149809
571.162210	0.149924
571.374736	0.149855
571.587244	0.150444
571.799733	0.150736
572.012205	0.151172
572.224658	0.151348
572.437092	0.151298
572.649509	0.150937
572.861907	0.151305
573.074287	0.151704
573.286649	0.151759
573.498993	0.151523
573.711318	0.151717
573.923625	0.151967
574.135914	0.152409
574.348185	0.153043
574.560438	0.153096
574.772672	0.152987
574.984888	0.153806
575.197086	0.154193
575.409266	0.154189
575.621427	0.154226
575.833570	0.154324
576.045695	0.154362
576.257802	0.154391
576.469890	0.154641
576.681961	0.155160
576.894013	0.154969
577.106046	0.155177
577.318062	0.155311
577.530059	0.155558
577.742039	0.155460
577.954000	0.155808
578.165942	0.156083
578.377867	0.156301
578.589773	0.155985
578.801661	0.156107
579.013531	0.156324
579.225382	0.156849
579.437216	0.157300
579.649031	0.157764
579.860828	0.157773
580.072606	0.157892
580.284367	0.158184
580.496109	0.158402
580.707833	0.158856
580.919539	0.159178
581.131227	0.159007
581.342896	0.159073
581.554547	0.158994
581.766180	0.158953
581.977795	0.159399
582.189391	0.159455
582.400969	0.159653
582.612529	0.159473
582.824071	0.159826
583.035595	0.160450
583.247100	0.160529
583.458587	0.160752
583.670056	0.160907
583.881506	0.160826
584.092939	0.161024
584.304353	0.161194
584.515749	0.161296
584.727127	0.161038
584.938486	0.160945
585.149828	0.161227
585.361151	0.161654
585.572456	0.162015
585.783742	0.162096
585.995011	0.161952
586.206261	0.162464
586.417493	0.162807
586.628706	0.163312
586.839902	0.163472
587.051079	0.163616
587.262238	0.163363
587.473379	0.163790
587.684502	0.164416
587.895606	0.165028
588.106692	0.165199
588.317760	0.165396
588.528810	0.165337
588.739841	0.165325
588.950855	0.165295
589.161850	0.165948
589.372827	0.165987
589.583785	0.166303
589.794726	0.166499
590.005648	0.166618
590.216552	0.166422
590.427437	0.166959
590.638305	0.167557
590.849154	0.167836
591.059985	0.167706
591.270798	0.167856
591.481592	0.167835
591.692369	0.167875
591.903127	0.168203
592.113867	0.169260
592.324588	0.169520
592.535292	0.169745
592.745977	0.169964
592.956644	0.170439
593.167293	0.170539
593.377923	0.170560
593.588536	0.170589
593.799130	0.170562
594.009706	0.170411
594.220263	0.170518
594.430803	0.170327
594.641324	0.170726
594.851827	0.170705
595.062312	0.171192
595.272778	0.171577
595.483227	0.172068
595.693657	0.172160
595.904069	0.172279
596.114462	0.172129
596.324838	0.172704
596.535195	0.172644
596.745534	0.172960
596.955855	0.172852
597.166157	0.172647
597.376441	0.172706
597.586707	0.173139
597.796955	0.173102
598.007185	0.173597
598.217396	0.173377
598.427589	0.173698
598.637764	0.173695
598.847921	0.173891
599.058060	0.173974
599.268180	0.173929
599.478282	0.173720
599.688366	0.173987
599.898431	0.173601
600.108479	0.173752
600.318508	0.173920
600.528519	0.174195
600.738511	0.174280
600.948486	0.174575
601.158442	0.174569
601.368380	0.174738
601.578300	0.174445
601.788202	0.175053
601.998085	0.175366
602.207950	0.175631
602.417797	0.175455
602.627626	0.175914
602.837436	0.175924
603.047228	0.176193
603.257002	0.176613
603.466758	0.176878
603.676496	0.176842
603.886215	0.177105
604.095916	0.177411
604.305599	0.177849
604.515264	0.177808
604.724910	0.177979
604.934538	0.178036
605.144148	0.178050
605.353740	0.178393
605.563314	0.178440
605.772869	0.178347
605.982406	0.177981
606.191925	0.178131
606.401425	0.178091
606.610908	0.178810
606.820372	0.179435
607.029818	0.179675
607.239246	0.179952
607.448655	0.180180
607.658047	0.180457
607.867420	0.180779
608.076775	0.181303
608.286111	0.181683
608.495430	0.181557
608.704730	0.181586
608.914012	0.181650
609.123275	0.181675
609.332521	0.182078
609.541748	0.182207
609.750957	0.182300
609.960148	0.182061
610.169321	0.182035
610.378475	0.182300
610.587611	0.182359
610.796729	0.182452
611.005829	0.182741
611.214910	0.182536
611.423974	0.182651
611.633019	0.182718
611.842045	0.182933
612.051054	0.183297
612.260044	0.183282
612.469017	0.183145
612.677970	0.183525
612.886906	0.183522
613.095824	0.183745
613.304723	0.183917
613.513604	0.184315
613.722467	0.184412
613.931311	0.184440
614.140138	0.184514
614.348946	0.185092
614.557736	0.184805
614.766507	0.185210
614.975261	0.185630
615.183996	0.185735
615.392713	0.185881
615.601412	0.186283
615.810092	0.186277
616.018754	0.186699
616.227399	0.186730
616.436024	0.187009
616.644632	0.187093
616.853222	0.187080
617.061793	0.187561
617.270346	0.187561
617.478880	0.187842
617.687397	0.188061
617.895895	0.187936
618.104375	0.188017
618.312837	0.188108
618.521281	0.188210
618.729706	0.188455
618.938113	0.188421
619.146502	0.188667
619.354873	0.188529
619.563226	0.188607
619.771560	0.188784
619.979876	0.188866
620.188174	0.189248
620.396453	0.189429
620.604715	0.189415
620.812958	0.189531
621.021183	0.189737
621.229390	0.189994
621.437578	0.190331
621.645748	0.190656
621.853900	0.191207
622.062034	0.191293
622.270150	0.191269
622.478247	0.191735
622.686326	0.191617
622.894387	0.191664
623.102430	0.191514
623.310454	0.191698
623.518461	0.191771
623.726449	0.191806
623.934418	0.191825
624.142370	0.192312
624.350303	0.192068
624.558218	0.192430
624.766115	0.192686
624.973994	0.193155
625.181855	0.193468
625.389697	0.193585
625.597521	0.193607
625.805327	0.193796
626.013114	0.193730
626.220883	0.194077
626.428634	0.194171
626.636367	0.194404
626.844082	0.194378
627.051778	0.194489
627.259457	0.194717
627.467117	0.194741
627.674758	0.194994
627.882382	0.195019
628.089987	0.195108
628.297574	0.195284
628.505143	0.195257
628.712694	0.195596
628.920226	0.195642
629.127740	0.195722
629.335236	0.195703
629.542714	0.195683
629.750174	0.195610
629.957615	0.195586
630.165038	0.195512
630.372443	0.195650
630.579829	0.195782
630.787198	0.196001
630.994548	0.196181
631.201880	0.196439
631.409194	0.196752
631.616489	0.197154
631.823766	0.197523
632.031025	0.197893
632.238266	0.197918
632.445489	0.197983
632.652693	0.197873
632.859879	0.198093
633.067047	0.198406
633.274197	0.198352
633.481329	0.198617
633.688442	0.198931
633.895537	0.199006
634.102614	0.199168
634.309672	0.199268
634.516713	0.199457
634.723735	0.199258
634.930739	0.199109
635.137724	0.199288
635.344692	0.199220
635.551641	0.199200
635.758572	0.199516
635.965485	0.199664
636.172379	0.199808
636.379256	0.199949
636.586114	0.200254
636.792954	0.200532
636.999775	0.200914
637.206579	0.201270
637.413364	0.201463
637.620131	0.201478
637.826880	0.201729
638.033610	0.202003
638.240323	0.202378
638.447017	0.202592
638.653692	0.203202
638.860350	0.203219
639.066990	0.203448
639.273611	0.203420
639.480214	0.203654
639.686798	0.204136
639.893365	0.204304
640.099913	0.204390
640.306443	0.204709
640.512955	0.204339
640.719449	0.204578
640.925924	0.204552
641.132381	0.205155
641.338820	0.205468
641.545241	0.205366
641.751644	0.205312
641.958028	0.205720
642.164394	0.205846
642.370742	0.206471
642.577071	0.206793
642.783383	0.207011
642.989676	0.206833
643.195951	0.206940
643.402207	0.207147
643.608446	0.207705
643.814666	0.207696
644.020868	0.207918
644.227052	0.208241
644.433218	0.208412
644.639365	0.209037
644.845494	0.209505
645.051605	0.209822
645.257698	0.210188
645.463772	0.210266
645.669828	0.210510
645.875866	0.210731
646.081886	0.210719
646.287888	0.210983
646.493871	0.210926
646.699836	0.211100
646.905783	0.211130
647.111712	0.211124
647.317622	0.211351
647.523514	0.211439
647.729388	0.211780
647.935244	0.211783
648.141082	0.212057
648.346901	0.212115
648.552702	0.212022
648.758485	0.212289
648.964250	0.212662
649.169996	0.212387
649.375724	0.212623
649.581434	0.212543
649.787126	0.212841
649.992800	0.212915
650.198455	0.213006
650.404092	0.213093
650.609711	0.213101
650.815311	0.213047
651.020894	0.213639
651.226458	0.213810
651.432004	0.213991
651.637532	0.214333
651.843041	0.214310
652.048532	0.214621
652.254006	0.215212
652.459460	0.215641
652.664897	0.216027
652.870315	0.216130
653.075716	0.216341
653.281097	0.216588
653.486461	0.216625
653.691807	0.217113
653.897134	0.217435
654.102443	0.217261
654.307734	0.217467
654.513006	0.217589
654.718261	0.217925
654.923497	0.218153
655.128715	0.218428
655.333915	0.218636
655.539096	0.218628
655.744259	0.218905
655.949404	0.219266
656.154531	0.219338
656.359640	0.219402
656.564730	0.219529
656.769802	0.219698
656.974856	0.219801
657.179892	0.220146
657.384909	0.220441
657.589908	0.220562
657.794889	0.220709
657.999852	0.220880
658.204797	0.221436
658.409723	0.221682
658.614631	0.222166
658.819521	0.222398
659.024393	0.222442
659.229246	0.222780
659.434081	0.222759
659.638898	0.223238
659.843697	0.223508
660.048478	0.223616
660.253240	0.223921
660.457984	0.223981
660.662710	0.224183
660.867417	0.224416
661.072107	0.224432
661.276778	0.224854
661.481431	0.224830
661.686066	0.225180
661.890682	0.225053
662.095281	0.225197
662.299861	0.225486
662.504422	0.225751
662.708966	0.225825
662.913491	0.226147
663.117999	0.226255
663.322488	0.226671
663.526958	0.226867
663.731411	0.227271
663.935845	0.227545
664.140261	0.227600
664.344659	0.228003
664.549038	0.228431
664.753400	0.228476
664.957743	0.228868
665.162068	0.229143
665.366375	0.229384
665.570663	0.229730
665.774933	0.229833
665.979185	0.230091
666.183419	0.230192
666.387635	0.230418
666.591832	0.230912
666.796011	0.231077
667.000172	0.231185
667.204315	0.231073
667.408439	0.231171
667.612545	0.231430
667.816634	0.231758
668.020703	0.231695
668.224755	0.231892
668.428788	0.231892
668.632803	0.232104
668.836800	0.232431
669.040779	0.232800
669.244739	0.233071
669.448681	0.233301
669.652605	0.233349
669.856511	0.233866
670.060399	0.233871
670.264268	0.233989
670.468119	0.234175
670.671952	0.234300
670.875767	0.234710
671.079563	0.234962
671.283341	0.235432
671.487101	0.235603
671.690843	0.235754
671.894567	0.236578
672.098272	0.237067
672.301959	0.237326
672.505628	0.237503
672.709278	0.237566
672.912911	0.237721
673.116525	0.237549
673.320121	0.237894
673.523699	0.238353
673.727258	0.238289
673.930799	0.238534
674.134322	0.238711
674.337827	0.239114
674.541314	0.239433
674.744782	0.239810
674.948232	0.240278
675.151664	0.240371
675.355078	0.240446
675.558474	0.240667
675.761851	0.240864
675.965210	0.241002
676.168551	0.240902
676.371873	0.241203
676.575178	0.241252
676.778464	0.241510
676.981732	0.241921
677.184981	0.242012
677.388213	0.242441
677.591426	0.242513
677.794621	0.242999
677.997798	0.243344
678.200956	0.243618
678.404097	0.244058
678.607219	0.244153
678.810323	0.244619
679.013408	0.244840
679.216476	0.244927
679.419525	0.245367
679.622556	0.245568
679.825569	0.245926
680.028563	0.246060
680.231540	0.246031
680.434498	0.246247
680.637438	0.246426
680.840359	0.246710
681.043263	0.246653
681.246148	0.246634
681.449015	0.246762
681.651864	0.246892
681.854694	0.247062
682.057506	0.247334
682.260301	0.247410
682.463076	0.247395
682.665834	0.247445
682.868573	0.247841
683.071295	0.248186
683.273998	0.248333
683.476682	0.248611
683.679349	0.248822
683.881997	0.249190
684.084627	0.249360
684.287239	0.249696
684.489833	0.249951
684.692408	0.250033
684.894965	0.250142
685.097504	0.250474
685.300025	0.250590
685.502527	0.250652
685.705012	0.250639
685.907478	0.250976
686.109925	0.250985
686.312355	0.251404
686.514766	0.251535
686.717159	0.251787
686.919534	0.251952
687.121891	0.252038
687.324230	0.252327
687.526550	0.252651
687.728852	0.252848
687.931136	0.252917
688.133401	0.252956
688.335649	0.253108
688.537878	0.253205
688.740089	0.253254
688.942281	0.253719
689.144456	0.253911
689.346612	0.254181
689.548750	0.254267
689.750870	0.254559
689.952971	0.254583
690.155055	0.254904
690.357120	0.255123
690.559167	0.255421
690.761195	0.255320
690.963206	0.255343
691.165198	0.255295
691.367172	0.255402
691.569128	0.255522
691.771065	0.255911
691.972984	0.256139
692.174885	0.256409
692.376768	0.256618
692.578633	0.256984
692.780479	0.257566
692.982308	0.257643
693.184118	0.257759
693.385909	0.258023
