sample name	sample
index	1113
start time	 04-22-2021  01:13:24 PM


Wavelength (nm)	Absorbance
494.344910	NaN
494.563924	NaN
494.782919	NaN
495.001897	0.246079
495.220856	0.259436
495.439797	0.161054
495.658719	0.083053
495.877624	0.078363
496.096510	-0.032009
496.315378	0.027543
496.534227	0.028463
496.753059	0.008479
496.971872	0.127844
497.190667	0.066597
497.409444	0.067661
497.628203	0.073168
497.846943	0.072359
498.065665	0.073085
498.284369	0.073670
498.503055	0.072778
498.721723	0.073658
498.940372	0.073391
499.159003	0.073200
499.377616	0.073781
499.596210	0.072966
499.814787	0.073104
500.033345	0.074530
500.251885	0.074188
500.470406	0.073569
500.688910	0.073774
500.907395	0.073693
501.125862	0.073655
501.344311	0.073543
501.562742	0.073118
501.781154	0.074217
501.999548	0.073802
502.217924	0.073162
502.436282	0.073680
502.654621	0.072363
502.872942	0.072335
503.091245	0.072912
503.309530	0.073079
503.527797	0.073676
503.746045	0.072789
503.964275	0.072994
504.182487	0.073270
504.400681	0.072735
504.618856	0.073470
504.837013	0.073456
505.055152	0.074356
505.273273	0.073613
505.491376	0.074265
505.709460	0.073924
505.927526	0.073991
506.145574	0.074883
506.363604	0.075962
506.581615	0.076093
506.799608	0.075840
507.017583	0.075427
507.235540	0.075928
507.453478	0.075293
507.671399	0.075699
507.889301	0.074749
508.107185	0.074546
508.325050	0.074422
508.542898	0.073274
508.760727	0.073567
508.978538	0.072977
509.196330	0.073780
509.414105	0.073855
509.631861	0.073908
509.849599	0.074896
510.067319	0.075418
510.285021	0.075575
510.502704	0.075549
510.720369	0.076558
510.938016	0.076668
511.155645	0.075501
511.373255	0.075373
511.590848	0.075292
511.808422	0.074621
512.025977	0.074331
512.243515	0.074600
512.461034	0.075998
512.678536	0.074840
512.896018	0.075509
513.113483	0.076628
513.330930	0.076150
513.548358	0.076376
513.765768	0.076473
513.983160	0.075842
514.200533	0.075720
514.417889	0.075059
514.635226	0.075104
514.852545	0.074846
515.069845	0.074889
515.287128	0.075686
515.504392	0.075104
515.721638	0.075103
515.938866	0.075906
516.156075	0.076119
516.373267	0.076631
516.590440	0.077146
516.807594	0.077068
517.024731	0.077357
517.241850	0.077774
517.458950	0.078412
517.676032	0.079827
517.893095	0.079874
518.110141	0.079390
518.327168	0.079637
518.544177	0.079305
518.761168	0.079702
518.978141	0.079579
519.195095	0.079788
519.412031	0.079630
519.628949	0.078533
519.845849	0.078654
520.062731	0.079298
520.279594	0.078716
520.496439	0.078915
520.713266	0.079061
520.930074	0.078949
521.146865	0.077802
521.363637	0.077835
521.580391	0.078486
521.797127	0.078369
522.013844	0.078600
522.230543	0.078865
522.447224	0.079581
522.663887	0.080157
522.880532	0.080329
523.097158	0.081176
523.313766	0.081715
523.530356	0.081951
523.746928	0.082414
523.963481	0.081628
524.180017	0.082558
524.396534	0.082127
524.613032	0.082383
524.829513	0.082745
525.045975	0.083143
525.262420	0.083053
525.478845	0.082596
525.695253	0.082249
525.911643	0.083172
526.128014	0.082923
526.344367	0.083210
526.560702	0.083196
526.777018	0.083227
526.993316	0.083180
527.209597	0.083970
527.425858	0.084594
527.642102	0.085179
527.858328	0.085535
528.074535	0.085982
528.290724	0.085944
528.506894	0.085954
528.723047	0.086097
528.939181	0.085975
529.155297	0.085586
529.371395	0.085424
529.587475	0.086136
529.803536	0.086056
530.019579	0.086454
530.235604	0.087249
530.451611	0.087372
530.667600	0.087575
530.883570	0.087695
531.099522	0.087954
531.315456	0.088113
531.531372	0.087827
531.747269	0.088349
531.963148	0.088606
532.179009	0.088761
532.394852	0.089510
532.610676	0.089142
532.826482	0.089717
533.042271	0.089350
533.258040	0.089988
533.473792	0.089900
533.689525	0.090013
533.905240	0.089461
534.120937	0.089697
534.336616	0.089549
534.552277	0.090145
534.767919	0.090190
534.983543	0.090779
535.199149	0.090570
535.414736	0.091091
535.630306	0.091534
535.845857	0.092411
536.061390	0.092287
536.276904	0.092557
536.492401	0.092689
536.707879	0.092975
536.923339	0.093885
537.138781	0.093970
537.354204	0.094157
537.569610	0.093815
537.784997	0.093949
538.000366	0.094143
538.215716	0.093676
538.431049	0.094127
538.646363	0.094196
538.861659	0.093904
539.076937	0.094608
539.292196	0.094306
539.507438	0.094468
539.722661	0.094535
539.937866	0.094503
540.153052	0.095282
540.368221	0.095093
540.583371	0.095231
540.798503	0.095545
541.013617	0.095960
541.228712	0.096714
541.443789	0.096642
541.658848	0.096518
541.873889	0.096813
542.088912	0.096405
542.303916	0.096478
542.518902	0.096732
542.733870	0.096227
542.948820	0.095817
543.163752	0.095648
543.378665	0.096024
543.593560	0.095851
543.808437	0.096001
544.023295	0.096225
544.238136	0.096758
544.452958	0.096902
544.667762	0.097635
544.882548	0.097591
545.097315	0.097794
545.312064	0.097395
545.526795	0.097956
545.741508	0.097765
545.956203	0.097849
546.170879	0.097833
546.385537	0.098285
546.600177	0.098175
546.814799	0.098852
547.029402	0.098756
547.243988	0.099449
547.458555	0.099569
547.673103	0.099981
547.887634	0.100425
548.102146	0.100358
548.316640	0.100013
548.531116	0.100635
548.745574	0.100349
548.960013	0.100327
549.174435	0.100346
549.388838	0.100256
549.603222	0.100281
549.817589	0.100336
550.031937	0.100310
550.246267	0.100923
550.460579	0.100623
550.674873	0.100842
550.889148	0.101028
551.103405	0.101048
551.317644	0.101210
551.531865	0.101241
551.746068	0.100965
551.960252	0.101339
552.174418	0.101203
552.388566	0.101425
552.602696	0.101328
552.816807	0.101936
553.030900	0.101958
553.244975	0.101981
553.459032	0.102248
553.673070	0.102605
553.887091	0.102626
554.101093	0.102693
554.315077	0.102660
554.529042	0.103487
554.742990	0.103122
554.956919	0.103474
555.170830	0.103861
555.384722	0.103762
555.598597	0.103779
555.812453	0.103595
556.026291	0.103593
556.240111	0.103312
556.453913	0.102420
556.667696	0.102544
556.881461	0.102588
557.095208	0.102561
557.308937	0.102726
557.522647	0.102704
557.736339	0.103046
557.950013	0.103066
558.163669	0.103517
558.377307	0.104081
558.590926	0.104303
558.804527	0.104029
559.018110	0.103732
559.231675	0.103854
559.445221	0.103969
559.658749	0.103780
559.872259	0.103735
560.085751	0.103556
560.299225	0.103366
560.512680	0.102786
560.726117	0.102750
560.939536	0.102480
561.152937	0.102279
561.366319	0.102223
561.579683	0.102520
561.793029	0.102760
562.006357	0.102976
562.219667	0.103027
562.432958	0.103126
562.646231	0.103115
562.859486	0.103366
563.072723	0.103528
563.285941	0.103427
563.499141	0.103290
563.712323	0.102963
563.925487	0.102532
564.138632	0.102488
564.351760	0.102460
564.564869	0.102655
564.777960	0.103117
564.991032	0.102979
565.204087	0.103432
565.417123	0.103490
565.630141	0.103811
565.843140	0.104011
566.056122	0.103803
566.269085	0.103954
566.482030	0.104172
566.694957	0.104037
566.907866	0.104311
567.120756	0.104110
567.333628	0.104291
567.546482	0.103991
567.759318	0.104384
567.972135	0.104613
568.184935	0.105219
568.397716	0.105144
568.610478	0.104850
568.823223	0.104678
569.035949	0.105010
569.248657	0.105281
569.461347	0.105504
569.674019	0.105425
569.886672	0.105606
570.099308	0.105128
570.311925	0.105047
570.524523	0.105506
570.737104	0.105882
570.949666	0.105274
571.162210	0.104794
571.374736	0.104757
571.587244	0.104531
571.799733	0.104310
572.012205	0.104525
572.224658	0.104870
572.437092	0.104692
572.649509	0.104194
572.861907	0.104592
573.074287	0.104760
573.286649	0.104724
573.498993	0.104610
573.711318	0.104550
573.923625	0.104600
574.135914	0.104427
574.348185	0.104554
574.560438	0.104991
574.772672	0.104753
574.984888	0.105235
575.197086	0.105097
575.409266	0.105216
575.621427	0.105459
575.833570	0.105293
576.045695	0.105179
576.257802	0.105306
576.469890	0.105112
576.681961	0.105028
576.894013	0.104544
577.106046	0.104943
577.318062	0.104857
577.530059	0.105176
577.742039	0.105287
577.954000	0.105547
578.165942	0.105558
578.377867	0.105735
578.589773	0.106059
578.801661	0.106340
579.013531	0.106318
579.225382	0.106572
579.437216	0.106400
579.649031	0.106508
579.860828	0.106262
580.072606	0.106257
580.284367	0.106019
580.496109	0.106527
580.707833	0.106181
580.919539	0.106288
581.131227	0.106502
581.342896	0.106463
581.554547	0.106651
581.766180	0.107112
581.977795	0.106916
582.189391	0.107458
582.400969	0.107340
582.612529	0.107369
582.824071	0.107300
583.035595	0.107260
583.247100	0.107349
583.458587	0.106957
583.670056	0.106960
583.881506	0.107283
584.092939	0.106999
584.304353	0.106723
584.515749	0.106910
584.727127	0.106975
584.938486	0.107396
585.149828	0.107512
585.361151	0.107707
585.572456	0.107466
585.783742	0.107502
585.995011	0.107513
586.206261	0.107896
586.417493	0.108411
586.628706	0.108727
586.839902	0.108305
587.051079	0.108386
587.262238	0.108433
587.473379	0.108751
587.684502	0.108809
587.895606	0.109354
588.106692	0.109213
588.317760	0.109293
588.528810	0.109301
588.739841	0.109623
588.950855	0.109642
589.161850	0.109910
589.372827	0.109988
589.583785	0.110197
589.794726	0.109829
590.005648	0.110043
590.216552	0.110078
590.427437	0.109964
590.638305	0.109816
590.849154	0.109860
591.059985	0.110014
591.270798	0.110022
591.481592	0.109854
591.692369	0.110282
591.903127	0.110340
592.113867	0.110188
592.324588	0.110258
592.535292	0.110501
592.745977	0.110536
592.956644	0.110502
593.167293	0.110732
593.377923	0.110883
593.588536	0.110657
593.799130	0.110797
594.009706	0.111035
594.220263	0.111112
594.430803	0.111055
594.641324	0.111079
594.851827	0.111091
595.062312	0.110853
595.272778	0.110553
595.483227	0.110374
595.693657	0.110229
595.904069	0.109724
596.114462	0.109909
596.324838	0.109901
596.535195	0.110091
596.745534	0.110421
596.955855	0.110589
597.166157	0.111180
597.376441	0.111722
597.586707	0.111853
597.796955	0.112378
598.007185	0.112293
598.217396	0.112482
598.427589	0.112352
598.637764	0.112001
598.847921	0.112087
599.058060	0.111924
599.268180	0.111607
599.478282	0.111463
599.688366	0.111323
599.898431	0.111642
600.108479	0.111357
600.318508	0.111370
600.528519	0.111436
600.738511	0.111256
600.948486	0.111244
601.158442	0.111577
601.368380	0.111873
601.578300	0.111813
601.788202	0.111577
601.998085	0.111848
602.207950	0.111895
602.417797	0.112277
602.627626	0.112470
602.837436	0.112323
603.047228	0.112145
603.257002	0.112118
603.466758	0.112080
603.676496	0.111887
603.886215	0.111947
604.095916	0.111940
604.305599	0.111613
604.515264	0.111749
604.724910	0.112177
604.934538	0.112707
605.144148	0.112791
605.353740	0.113187
605.563314	0.113570
605.772869	0.113646
605.982406	0.114212
606.191925	0.114567
606.401425	0.114571
606.610908	0.114683
606.820372	0.114361
607.029818	0.114189
607.239246	0.114146
607.448655	0.114232
607.658047	0.114513
607.867420	0.114318
608.076775	0.114461
608.286111	0.114445
608.495430	0.114402
608.704730	0.114556
608.914012	0.114811
609.123275	0.114956
609.332521	0.114783
609.541748	0.114249
609.750957	0.114209
609.960148	0.114147
610.169321	0.114302
610.378475	0.114352
610.587611	0.114470
610.796729	0.114429
611.005829	0.114293
611.214910	0.114353
611.423974	0.114663
611.633019	0.114856
611.842045	0.114728
612.051054	0.114985
612.260044	0.114816
612.469017	0.114996
612.677970	0.115121
612.886906	0.115076
613.095824	0.115152
613.304723	0.115319
613.513604	0.115183
613.722467	0.115593
613.931311	0.115309
614.140138	0.115382
614.348946	0.115135
614.557736	0.114862
614.766507	0.115174
614.975261	0.115499
615.183996	0.115900
615.392713	0.115813
615.601412	0.115572
615.810092	0.115732
616.018754	0.116049
616.227399	0.116156
616.436024	0.116437
616.644632	0.116559
616.853222	0.116405
617.061793	0.116114
617.270346	0.116542
617.478880	0.116750
617.687397	0.116686
617.895895	0.116837
618.104375	0.116877
618.312837	0.116919
618.521281	0.116884
618.729706	0.116958
618.938113	0.116985
619.146502	0.117064
619.354873	0.117059
619.563226	0.117190
619.771560	0.117041
619.979876	0.117175
620.188174	0.117263
620.396453	0.117397
620.604715	0.117363
620.812958	0.117408
621.021183	0.117451
621.229390	0.117454
621.437578	0.117756
621.645748	0.117795
621.853900	0.117868
622.062034	0.117967
622.270150	0.117726
622.478247	0.117841
622.686326	0.117862
622.894387	0.117558
623.102430	0.117597
623.310454	0.117516
623.518461	0.117589
623.726449	0.117466
623.934418	0.117577
624.142370	0.117837
624.350303	0.117842
624.558218	0.117945
624.766115	0.118133
624.973994	0.118164
625.181855	0.118104
625.389697	0.118238
625.597521	0.118648
625.805327	0.118620
626.013114	0.118656
626.220883	0.119075
626.428634	0.119138
626.636367	0.119283
626.844082	0.119531
627.051778	0.119705
627.259457	0.119637
627.467117	0.119277
627.674758	0.119660
627.882382	0.119863
628.089987	0.119802
628.297574	0.119852
628.505143	0.120045
628.712694	0.120074
628.920226	0.120327
629.127740	0.120396
629.335236	0.120777
629.542714	0.120804
629.750174	0.121005
629.957615	0.121226
630.165038	0.121475
630.372443	0.121362
630.579829	0.121468
630.787198	0.121455
630.994548	0.121654
631.201880	0.121739
631.409194	0.121364
631.616489	0.121129
631.823766	0.120817
632.031025	0.120777
632.238266	0.120837
632.445489	0.120970
632.652693	0.120828
632.859879	0.120813
633.067047	0.120692
633.274197	0.120887
633.481329	0.121113
633.688442	0.121279
633.895537	0.121336
634.102614	0.121436
634.309672	0.121217
634.516713	0.121181
634.723735	0.121078
634.930739	0.121256
635.137724	0.121222
635.344692	0.121104
635.551641	0.121139
635.758572	0.121148
635.965485	0.121254
636.172379	0.121557
636.379256	0.121755
636.586114	0.121901
636.792954	0.121903
636.999775	0.121969
637.206579	0.122147
637.413364	0.121990
637.620131	0.122077
637.826880	0.122040
638.033610	0.121813
638.240323	0.121850
638.447017	0.121959
638.653692	0.122275
638.860350	0.122457
639.066990	0.122540
639.273611	0.122733
639.480214	0.122957
639.686798	0.123240
639.893365	0.123441
640.099913	0.123489
640.306443	0.123668
640.512955	0.123455
640.719449	0.123693
640.925924	0.123737
641.132381	0.123988
641.338820	0.123894
641.545241	0.123827
641.751644	0.124306
641.958028	0.124504
642.164394	0.124560
642.370742	0.124695
642.577071	0.124725
642.783383	0.124862
642.989676	0.124872
643.195951	0.125039
643.402207	0.125368
643.608446	0.125116
643.814666	0.125185
644.020868	0.125017
644.227052	0.125191
644.433218	0.125353
644.639365	0.125653
644.845494	0.125886
645.051605	0.126087
645.257698	0.125997
645.463772	0.126048
645.669828	0.126159
645.875866	0.126439
646.081886	0.126358
646.287888	0.126168
646.493871	0.125906
646.699836	0.125811
646.905783	0.125922
647.111712	0.125967
647.317622	0.126117
647.523514	0.126381
647.729388	0.126502
647.935244	0.126882
648.141082	0.127047
648.346901	0.127086
648.552702	0.127495
648.758485	0.127400
648.964250	0.127513
649.169996	0.127635
649.375724	0.127711
649.581434	0.127729
649.787126	0.127585
649.992800	0.127717
650.198455	0.127943
650.404092	0.128090
650.609711	0.128217
650.815311	0.128178
651.020894	0.128164
651.226458	0.128101
651.432004	0.128347
651.637532	0.128489
651.843041	0.128647
652.048532	0.128862
652.254006	0.128730
652.459460	0.128882
652.664897	0.129130
652.870315	0.129395
653.075716	0.129654
653.281097	0.129820
653.486461	0.129938
653.691807	0.130040
653.897134	0.130065
654.102443	0.130246
654.307734	0.130165
654.513006	0.130247
654.718261	0.130308
654.923497	0.130296
655.128715	0.130240
655.333915	0.130507
655.539096	0.130357
655.744259	0.130526
655.949404	0.130564
656.154531	0.130776
656.359640	0.130975
656.564730	0.131213
656.769802	0.131192
656.974856	0.131465
657.179892	0.131451
657.384909	0.131960
657.589908	0.132099
657.794889	0.132222
657.999852	0.132530
658.204797	0.132729
658.409723	0.132578
658.614631	0.132723
658.819521	0.132773
659.024393	0.132677
659.229246	0.132655
659.434081	0.132661
659.638898	0.132859
659.843697	0.132709
660.048478	0.132658
660.253240	0.132905
660.457984	0.133124
660.662710	0.133228
660.867417	0.133336
661.072107	0.133404
661.276778	0.133364
661.481431	0.133576
661.686066	0.133757
661.890682	0.133937
662.095281	0.133959
662.299861	0.133965
662.504422	0.133999
662.708966	0.133978
662.913491	0.134097
663.117999	0.134155
663.322488	0.133803
663.526958	0.133842
663.731411	0.133721
663.935845	0.133572
664.140261	0.133788
664.344659	0.134075
664.549038	0.134346
664.753400	0.134316
664.957743	0.134455
665.162068	0.134580
665.366375	0.134703
665.570663	0.134686
665.774933	0.135013
665.979185	0.134760
666.183419	0.134652
666.387635	0.134612
666.591832	0.134758
666.796011	0.135001
667.000172	0.135372
667.204315	0.135352
667.408439	0.135500
667.612545	0.135537
667.816634	0.135799
668.020703	0.135926
668.224755	0.136187
668.428788	0.136329
668.632803	0.136251
668.836800	0.136235
669.040779	0.136411
669.244739	0.136625
669.448681	0.136721
669.652605	0.136797
669.856511	0.136827
670.060399	0.136726
670.264268	0.136690
670.468119	0.137206
670.671952	0.137372
670.875767	0.137570
671.079563	0.137817
671.283341	0.138137
671.487101	0.138285
671.690843	0.138433
671.894567	0.138824
672.098272	0.138942
672.301959	0.138720
672.505628	0.138680
672.709278	0.138884
672.912911	0.139160
673.116525	0.139131
673.320121	0.139313
673.523699	0.139284
673.727258	0.139471
673.930799	0.139776
674.134322	0.139972
674.337827	0.140032
674.541314	0.140085
674.744782	0.140157
674.948232	0.140451
675.151664	0.140614
675.355078	0.140854
675.558474	0.140833
675.761851	0.140987
675.965210	0.141032
676.168551	0.141198
676.371873	0.141108
676.575178	0.141090
676.778464	0.140786
676.981732	0.140737
677.184981	0.140869
677.388213	0.140994
677.591426	0.140986
677.794621	0.140994
677.997798	0.141112
678.200956	0.141254
678.404097	0.141208
678.607219	0.141581
678.810323	0.141683
679.013408	0.141758
679.216476	0.141866
679.419525	0.141887
679.622556	0.141977
679.825569	0.142202
680.028563	0.142342
680.231540	0.142501
680.434498	0.142462
680.637438	0.142788
680.840359	0.142916
681.043263	0.142815
681.246148	0.142998
681.449015	0.143204
681.651864	0.143067
681.854694	0.142933
682.057506	0.142993
682.260301	0.143030
682.463076	0.142770
682.665834	0.142729
682.868573	0.142721
683.071295	0.142732
683.273998	0.142634
683.476682	0.142933
683.679349	0.143194
683.881997	0.143271
684.084627	0.143470
684.287239	0.143739
684.489833	0.143989
684.692408	0.144306
684.894965	0.144380
685.097504	0.144512
685.300025	0.144380
685.502527	0.144480
685.705012	0.144279
685.907478	0.144157
686.109925	0.144246
686.312355	0.144165
686.514766	0.144182
686.717159	0.144238
686.919534	0.144483
687.121891	0.144734
687.324230	0.144677
687.526550	0.145003
687.728852	0.145145
687.931136	0.145354
688.133401	0.145225
688.335649	0.145259
688.537878	0.145407
688.740089	0.145383
688.942281	0.145470
689.144456	0.145699
689.346612	0.146028
689.548750	0.146258
689.750870	0.146170
689.952971	0.146358
690.155055	0.146566
690.357120	0.146453
690.559167	0.146609
690.761195	0.146578
690.963206	0.146488
691.165198	0.146296
691.367172	0.146273
691.569128	0.146167
691.771065	0.146430
691.972984	0.146278
692.174885	0.146642
692.376768	0.146525
692.578633	0.146466
692.780479	0.146530
692.982308	0.146447
693.184118	0.146475
693.385909	0.146365
693.587683	0.146279
