sample name	sample
index	600
start time	 03-16-2021  05:05:17 PM


Wavelength (nm)	Absorbance
494.344910	-0.527185
494.563924	-0.527185
494.782919	-0.527185
495.001897	-0.036634
495.220856	0.110429
495.439797	0.212468
495.658719	0.209176
495.877624	0.182384
496.096510	0.273264
496.315378	0.143100
496.534227	0.339703
496.753059	0.429801
496.971872	0.257637
497.190667	0.092117
497.409444	0.072879
497.628203	0.071214
497.846943	0.071662
498.065665	0.068986
498.284369	0.067719
498.503055	0.067507
498.721723	0.067401
498.940372	0.067384
499.159003	0.067242
499.377616	0.066633
499.596210	0.065587
499.814787	0.064999
500.033345	0.064849
500.251885	0.065987
500.470406	0.066079
500.688910	0.067136
500.907395	0.066820
501.125862	0.065824
501.344311	0.067217
501.562742	0.068081
501.781154	0.067738
501.999548	0.068589
502.217924	0.068626
502.436282	0.069017
502.654621	0.068085
502.872942	0.068711
503.091245	0.070503
503.309530	0.069738
503.527797	0.070114
503.746045	0.071065
503.964275	0.071060
504.182487	0.070979
504.400681	0.069607
504.618856	0.070831
504.837013	0.071109
505.055152	0.070248
505.273273	0.070679
505.491376	0.068910
505.709460	0.068417
505.927526	0.067865
506.145574	0.069167
506.363604	0.068610
506.581615	0.068043
506.799608	0.068113
507.017583	0.068014
507.235540	0.067343
507.453478	0.069204
507.671399	0.068750
507.889301	0.069258
508.107185	0.067574
508.325050	0.068859
508.542898	0.069658
508.760727	0.069036
508.978538	0.069445
509.196330	0.069763
509.414105	0.069729
509.631861	0.070724
509.849599	0.071314
510.067319	0.072699
510.285021	0.072485
510.502704	0.071518
510.720369	0.071368
510.938016	0.071425
511.155645	0.071892
511.373255	0.071957
511.590848	0.071102
511.808422	0.071445
512.025977	0.071345
512.243515	0.072339
512.461034	0.071973
512.678536	0.072392
512.896018	0.071600
513.113483	0.071370
513.330930	0.070783
513.548358	0.071631
513.765768	0.070489
513.983160	0.070086
514.200533	0.069758
514.417889	0.070569
514.635226	0.070950
514.852545	0.071784
515.069845	0.071960
515.287128	0.071911
515.504392	0.071643
515.721638	0.073206
515.938866	0.073632
516.156075	0.073348
516.373267	0.073435
516.590440	0.072781
516.807594	0.073206
517.024731	0.073160
517.241850	0.073268
517.458950	0.071808
517.676032	0.070355
517.893095	0.069864
518.110141	0.070171
518.327168	0.070630
518.544177	0.071150
518.761168	0.070674
518.978141	0.071830
519.195095	0.072042
519.412031	0.072451
519.628949	0.073438
519.845849	0.074392
520.062731	0.074727
520.279594	0.074400
520.496439	0.074649
520.713266	0.074949
520.930074	0.073742
521.146865	0.074080
521.363637	0.075308
521.580391	0.074522
521.797127	0.074220
522.013844	0.074108
522.230543	0.074265
522.447224	0.074393
522.663887	0.074153
522.880532	0.074710
523.097158	0.074367
523.313766	0.074758
523.530356	0.075674
523.746928	0.075486
523.963481	0.075603
524.180017	0.075447
524.396534	0.075414
524.613032	0.076394
524.829513	0.076809
525.045975	0.076281
525.262420	0.076409
525.478845	0.076296
525.695253	0.076843
525.911643	0.077066
526.128014	0.076465
526.344367	0.076865
526.560702	0.075990
526.777018	0.075575
526.993316	0.075678
527.209597	0.075766
527.425858	0.075712
527.642102	0.075608
527.858328	0.075424
528.074535	0.076975
528.290724	0.077243
528.506894	0.078118
528.723047	0.078761
528.939181	0.079619
529.155297	0.080041
529.371395	0.079991
529.587475	0.079913
529.803536	0.080656
530.019579	0.079950
530.235604	0.079224
530.451611	0.079406
530.667600	0.079283
530.883570	0.079136
531.099522	0.078615
531.315456	0.078737
531.531372	0.079257
531.747269	0.078785
531.963148	0.078801
532.179009	0.079558
532.394852	0.078983
532.610676	0.078883
532.826482	0.079473
533.042271	0.080002
533.258040	0.080392
533.473792	0.080611
533.689525	0.081084
533.905240	0.081516
534.120937	0.081511
534.336616	0.081830
534.552277	0.082672
534.767919	0.082507
534.983543	0.082399
535.199149	0.082640
535.414736	0.082361
535.630306	0.081892
535.845857	0.081737
536.061390	0.082631
536.276904	0.082741
536.492401	0.082271
536.707879	0.082597
536.923339	0.082905
537.138781	0.082814
537.354204	0.083042
537.569610	0.084514
537.784997	0.085077
538.000366	0.084566
538.215716	0.084932
538.431049	0.085443
538.646363	0.085685
538.861659	0.085757
539.076937	0.085542
539.292196	0.085329
539.507438	0.084686
539.722661	0.084478
539.937866	0.084169
540.153052	0.084790
540.368221	0.084456
540.583371	0.084278
540.798503	0.083988
541.013617	0.084634
541.228712	0.085791
541.443789	0.086077
541.658848	0.086532
541.873889	0.086422
542.088912	0.086065
542.303916	0.086508
542.518902	0.087123
542.733870	0.087519
542.948820	0.088031
543.163752	0.086979
543.378665	0.087205
543.593560	0.086715
543.808437	0.087994
544.023295	0.087815
544.238136	0.087744
544.452958	0.087663
544.667762	0.087308
544.882548	0.086900
545.097315	0.087725
545.312064	0.087710
545.526795	0.088682
545.741508	0.088429
545.956203	0.088544
546.170879	0.088876
546.385537	0.088511
546.600177	0.089505
546.814799	0.090055
547.029402	0.089924
547.243988	0.089994
547.458555	0.090241
547.673103	0.090616
547.887634	0.090773
548.102146	0.090728
548.316640	0.091172
548.531116	0.091028
548.745574	0.090705
548.960013	0.091053
549.174435	0.090847
549.388838	0.090442
549.603222	0.090281
549.817589	0.090788
550.031937	0.091440
550.246267	0.091991
550.460579	0.092036
550.674873	0.092274
550.889148	0.091979
551.103405	0.092437
551.317644	0.092745
551.531865	0.092374
551.746068	0.091945
551.960252	0.091144
552.174418	0.091075
552.388566	0.091234
552.602696	0.091680
552.816807	0.092408
553.030900	0.092427
553.244975	0.092830
553.459032	0.093230
553.673070	0.093711
553.887091	0.094341
554.101093	0.094511
554.315077	0.094861
554.529042	0.094636
554.742990	0.094265
554.956919	0.094308
555.170830	0.093956
555.384722	0.094421
555.598597	0.094735
555.812453	0.094737
556.026291	0.095062
556.240111	0.094824
556.453913	0.095348
556.667696	0.095223
556.881461	0.095780
557.095208	0.095780
557.308937	0.095575
557.522647	0.095102
557.736339	0.095113
557.950013	0.094964
558.163669	0.094968
558.377307	0.094838
558.590926	0.095255
558.804527	0.094914
559.018110	0.095069
559.231675	0.094936
559.445221	0.095239
559.658749	0.095527
559.872259	0.094967
560.085751	0.095289
560.299225	0.094932
560.512680	0.094678
560.726117	0.094492
560.939536	0.094476
561.152937	0.094811
561.366319	0.094933
561.579683	0.095410
561.793029	0.095875
562.006357	0.095821
562.219667	0.096263
562.432958	0.096437
562.646231	0.096684
562.859486	0.096547
563.072723	0.096147
563.285941	0.096284
563.499141	0.095731
563.712323	0.095548
563.925487	0.095416
564.138632	0.095365
564.351760	0.095271
564.564869	0.094961
564.777960	0.095196
564.991032	0.095929
565.204087	0.096242
565.417123	0.096132
565.630141	0.096133
565.843140	0.096333
566.056122	0.096570
566.269085	0.097020
566.482030	0.098240
566.694957	0.098305
566.907866	0.098161
567.120756	0.097707
567.333628	0.098120
567.546482	0.098485
567.759318	0.098468
567.972135	0.098082
568.184935	0.098518
568.397716	0.097976
568.610478	0.098103
568.823223	0.098184
569.035949	0.098316
569.248657	0.098278
569.461347	0.098425
569.674019	0.098375
569.886672	0.098778
570.099308	0.098285
570.311925	0.098291
570.524523	0.097961
570.737104	0.097870
570.949666	0.098026
571.162210	0.097916
571.374736	0.097968
571.587244	0.098466
571.799733	0.098369
572.012205	0.098712
572.224658	0.098712
572.437092	0.098949
572.649509	0.099521
572.861907	0.099367
573.074287	0.099583
573.286649	0.099395
573.498993	0.098994
573.711318	0.099314
573.923625	0.099077
574.135914	0.099304
574.348185	0.099480
574.560438	0.099027
574.772672	0.099303
574.984888	0.099348
575.197086	0.099815
575.409266	0.100022
575.621427	0.099879
575.833570	0.099935
576.045695	0.100318
576.257802	0.100177
576.469890	0.100588
576.681961	0.100764
576.894013	0.100884
577.106046	0.100573
577.318062	0.100535
577.530059	0.100752
577.742039	0.101022
577.954000	0.100636
578.165942	0.100700
578.377867	0.100338
578.589773	0.100419
578.801661	0.100046
579.013531	0.100503
579.225382	0.100785
579.437216	0.100989
579.649031	0.100799
579.860828	0.100883
580.072606	0.101112
580.284367	0.101246
580.496109	0.101327
580.707833	0.101822
580.919539	0.101276
581.131227	0.101578
581.342896	0.101474
581.554547	0.101457
581.766180	0.101328
581.977795	0.101627
582.189391	0.101657
582.400969	0.101465
582.612529	0.101169
582.824071	0.101452
583.035595	0.101073
583.247100	0.100845
583.458587	0.101121
583.670056	0.101219
583.881506	0.101035
584.092939	0.101052
584.304353	0.101188
584.515749	0.101758
584.727127	0.102219
584.938486	0.102067
585.149828	0.102630
585.361151	0.102356
585.572456	0.102455
585.783742	0.102619
585.995011	0.102892
586.206261	0.103090
586.417493	0.103043
586.628706	0.102866
586.839902	0.103416
587.051079	0.102900
587.262238	0.103717
587.473379	0.103923
587.684502	0.104255
587.895606	0.104106
588.106692	0.104140
588.317760	0.104241
588.528810	0.104670
588.739841	0.104562
588.950855	0.105246
589.161850	0.104910
589.372827	0.104856
589.583785	0.104820
589.794726	0.105305
590.005648	0.105265
590.216552	0.105396
590.427437	0.105230
590.638305	0.105436
590.849154	0.105003
591.059985	0.105230
591.270798	0.105556
591.481592	0.105615
591.692369	0.105799
591.903127	0.105729
592.113867	0.105572
592.324588	0.105327
592.535292	0.105353
592.745977	0.105741
592.956644	0.105367
593.167293	0.105221
593.377923	0.105133
593.588536	0.105024
593.799130	0.105428
594.009706	0.105602
594.220263	0.106388
594.430803	0.106188
594.641324	0.106335
594.851827	0.106868
595.062312	0.106950
595.272778	0.107123
595.483227	0.106800
595.693657	0.107118
595.904069	0.107369
596.114462	0.106893
596.324838	0.107066
596.535195	0.107303
596.745534	0.107352
596.955855	0.107285
597.166157	0.107239
597.376441	0.107574
597.586707	0.107172
597.796955	0.107109
598.007185	0.107329
598.217396	0.107703
598.427589	0.106936
598.637764	0.106704
598.847921	0.107023
599.058060	0.107291
599.268180	0.107219
599.478282	0.107154
599.688366	0.107215
599.898431	0.107320
600.108479	0.107522
600.318508	0.107765
600.528519	0.108129
600.738511	0.107846
600.948486	0.107772
601.158442	0.107961
601.368380	0.108244
601.578300	0.108254
601.788202	0.108138
601.998085	0.107938
602.207950	0.108386
602.417797	0.108376
602.627626	0.108707
602.837436	0.108883
603.047228	0.108683
603.257002	0.108573
603.466758	0.108761
603.676496	0.108827
603.886215	0.108942
604.095916	0.109025
604.305599	0.109234
604.515264	0.109346
604.724910	0.109700
604.934538	0.109935
605.144148	0.110274
605.353740	0.110288
605.563314	0.110642
605.772869	0.110637
605.982406	0.110443
606.191925	0.110176
606.401425	0.110277
606.610908	0.110142
606.820372	0.110374
607.029818	0.110804
607.239246	0.111167
607.448655	0.110900
607.658047	0.111030
607.867420	0.111281
608.076775	0.111362
608.286111	0.111057
608.495430	0.111188
608.704730	0.111301
608.914012	0.111023
609.123275	0.110983
609.332521	0.111434
609.541748	0.111297
609.750957	0.111226
609.960148	0.111590
610.169321	0.112173
610.378475	0.111981
610.587611	0.111870
610.796729	0.111823
611.005829	0.111622
611.214910	0.111363
611.423974	0.111588
611.633019	0.111935
611.842045	0.111913
612.051054	0.111658
612.260044	0.111695
612.469017	0.112047
612.677970	0.112390
612.886906	0.112486
613.095824	0.112496
613.304723	0.112641
613.513604	0.112272
613.722467	0.112592
613.931311	0.112664
614.140138	0.112940
614.348946	0.112791
614.557736	0.112650
614.766507	0.112997
614.975261	0.113162
615.183996	0.112926
615.392713	0.113422
615.601412	0.113059
615.810092	0.113404
616.018754	0.113514
616.227399	0.113657
616.436024	0.113817
616.644632	0.113427
616.853222	0.113604
617.061793	0.114048
617.270346	0.113936
617.478880	0.114003
617.687397	0.113955
617.895895	0.114021
618.104375	0.114136
618.312837	0.114433
618.521281	0.114722
618.729706	0.114652
618.938113	0.114838
619.146502	0.114754
619.354873	0.115102
619.563226	0.115108
619.771560	0.115237
619.979876	0.114919
620.188174	0.114657
620.396453	0.114763
620.604715	0.114915
620.812958	0.114584
621.021183	0.115192
621.229390	0.115077
621.437578	0.115155
621.645748	0.115290
621.853900	0.115502
622.062034	0.115514
622.270150	0.115379
622.478247	0.115247
622.686326	0.115359
622.894387	0.115111
623.102430	0.114832
623.310454	0.115055
623.518461	0.114939
623.726449	0.115199
623.934418	0.115355
624.142370	0.115736
624.350303	0.116009
624.558218	0.115989
624.766115	0.115926
624.973994	0.116504
625.181855	0.116610
625.389697	0.116594
625.597521	0.116542
625.805327	0.116824
626.013114	0.116531
626.220883	0.116616
626.428634	0.116784
626.636367	0.116905
626.844082	0.116998
627.051778	0.116891
627.259457	0.117094
627.467117	0.117035
627.674758	0.116814
627.882382	0.117182
628.089987	0.117319
628.297574	0.117385
628.505143	0.117441
628.712694	0.117218
628.920226	0.117303
629.127740	0.117252
629.335236	0.117489
629.542714	0.117382
629.750174	0.117433
629.957615	0.117369
630.165038	0.117518
630.372443	0.117622
630.579829	0.118024
630.787198	0.118352
630.994548	0.118488
631.201880	0.118775
631.409194	0.119119
631.616489	0.119144
631.823766	0.119369
632.031025	0.119519
632.238266	0.119937
632.445489	0.119970
632.652693	0.120029
632.859879	0.120179
633.067047	0.120207
633.274197	0.120408
633.481329	0.120831
633.688442	0.120970
633.895537	0.120895
634.102614	0.120703
634.309672	0.120959
634.516713	0.120666
634.723735	0.120936
634.930739	0.120825
635.137724	0.120854
635.344692	0.120533
635.551641	0.120446
635.758572	0.120848
635.965485	0.121158
636.172379	0.120752
636.379256	0.120749
636.586114	0.120780
636.792954	0.120894
636.999775	0.120686
637.206579	0.120788
637.413364	0.120997
637.620131	0.120754
637.826880	0.120469
638.033610	0.120780
638.240323	0.120991
638.447017	0.120822
638.653692	0.120668
638.860350	0.120961
639.066990	0.121462
639.273611	0.121447
639.480214	0.121593
639.686798	0.121937
639.893365	0.121846
640.099913	0.122155
640.306443	0.122265
640.512955	0.122560
640.719449	0.122603
640.925924	0.122223
641.132381	0.122204
641.338820	0.122327
641.545241	0.122519
641.751644	0.122823
641.958028	0.122813
642.164394	0.123038
642.370742	0.123294
642.577071	0.123338
642.783383	0.123559
642.989676	0.123827
643.195951	0.123774
643.402207	0.123464
643.608446	0.123803
643.814666	0.124097
644.020868	0.124094
644.227052	0.124098
644.433218	0.124597
644.639365	0.124609
644.845494	0.124650
645.051605	0.124800
645.257698	0.125292
645.463772	0.125188
645.669828	0.124843
645.875866	0.125022
646.081886	0.124979
646.287888	0.124856
646.493871	0.124959
646.699836	0.124987
646.905783	0.125390
647.111712	0.125318
647.317622	0.125435
647.523514	0.125617
647.729388	0.125523
647.935244	0.125699
648.141082	0.125897
648.346901	0.126106
648.552702	0.126381
648.758485	0.126316
648.964250	0.126281
649.169996	0.126100
649.375724	0.126116
649.581434	0.126394
649.787126	0.126422
649.992800	0.126229
650.198455	0.126301
650.404092	0.126342
650.609711	0.126554
650.815311	0.126785
651.020894	0.126968
651.226458	0.127192
651.432004	0.127123
651.637532	0.127142
651.843041	0.127280
652.048532	0.127096
652.254006	0.127063
652.459460	0.127116
652.664897	0.127279
652.870315	0.127307
653.075716	0.127429
653.281097	0.127666
653.486461	0.127979
653.691807	0.128034
653.897134	0.128081
654.102443	0.128038
654.307734	0.127730
654.513006	0.127680
654.718261	0.127904
654.923497	0.127886
655.128715	0.127714
655.333915	0.127712
655.539096	0.128053
655.744259	0.128563
655.949404	0.128612
656.154531	0.128782
656.359640	0.128970
656.564730	0.128880
656.769802	0.128839
656.974856	0.129187
657.179892	0.129196
657.384909	0.129180
657.589908	0.128848
657.794889	0.128880
657.999852	0.129331
658.204797	0.129185
658.409723	0.129351
658.614631	0.129733
658.819521	0.129584
659.024393	0.129713
659.229246	0.129807
659.434081	0.130143
659.638898	0.130528
659.843697	0.130427
660.048478	0.130630
660.253240	0.130765
660.457984	0.130870
660.662710	0.131222
660.867417	0.131257
661.072107	0.131377
661.276778	0.131483
661.481431	0.131493
661.686066	0.131629
661.890682	0.131778
662.095281	0.132046
662.299861	0.132117
662.504422	0.132194
662.708966	0.132202
662.913491	0.132254
663.117999	0.132346
663.322488	0.132546
663.526958	0.132382
663.731411	0.132479
663.935845	0.132571
664.140261	0.132608
664.344659	0.132805
664.549038	0.132950
664.753400	0.132812
664.957743	0.132930
665.162068	0.133178
665.366375	0.133551
665.570663	0.133752
665.774933	0.133743
665.979185	0.133945
666.183419	0.133743
666.387635	0.134203
666.591832	0.134633
666.796011	0.134654
667.000172	0.134649
667.204315	0.134644
667.408439	0.134710
667.612545	0.134805
667.816634	0.135030
668.020703	0.135451
668.224755	0.135174
668.428788	0.135062
668.632803	0.135034
668.836800	0.134975
669.040779	0.135125
669.244739	0.135159
669.448681	0.135380
669.652605	0.135394
669.856511	0.135418
670.060399	0.135735
670.264268	0.135515
670.468119	0.135819
670.671952	0.135960
670.875767	0.136153
671.079563	0.136077
671.283341	0.136400
671.487101	0.136590
671.690843	0.136618
671.894567	0.136652
672.098272	0.137210
672.301959	0.137185
672.505628	0.137431
672.709278	0.137500
672.912911	0.137901
673.116525	0.137530
673.320121	0.137524
673.523699	0.137624
673.727258	0.137942
673.930799	0.138113
674.134322	0.138540
674.337827	0.138674
674.541314	0.138855
674.744782	0.139112
674.948232	0.139408
675.151664	0.139602
675.355078	0.139804
675.558474	0.140021
675.761851	0.140069
675.965210	0.140106
676.168551	0.140072
676.371873	0.140392
676.575178	0.140203
676.778464	0.140346
676.981732	0.140458
677.184981	0.140406
677.388213	0.140208
677.591426	0.140226
677.794621	0.140308
677.997798	0.140296
678.200956	0.140043
678.404097	0.140115
678.607219	0.140153
678.810323	0.140262
679.013408	0.140285
679.216476	0.140267
679.419525	0.140290
679.622556	0.140194
679.825569	0.140465
680.028563	0.140547
680.231540	0.140695
680.434498	0.140673
680.637438	0.140562
680.840359	0.140633
681.043263	0.140665
681.246148	0.140870
681.449015	0.141066
681.651864	0.141464
681.854694	0.141710
682.057506	0.141846
682.260301	0.142204
682.463076	0.142458
682.665834	0.142778
682.868573	0.143476
683.071295	0.143748
683.273998	0.144177
683.476682	0.144359
683.679349	0.144499
683.881997	0.144606
684.084627	0.144676
684.287239	0.144716
684.489833	0.144621
684.692408	0.144429
684.894965	0.144425
685.097504	0.144121
685.300025	0.143784
685.502527	0.143895
685.705012	0.144242
685.907478	0.144202
686.109925	0.144358
686.312355	0.144649
686.514766	0.144766
686.717159	0.144879
686.919534	0.145005
687.121891	0.145450
687.324230	0.145314
687.526550	0.145265
687.728852	0.145495
687.931136	0.145678
688.133401	0.145827
688.335649	0.145830
688.537878	0.145722
688.740089	0.145799
688.942281	0.145765
689.144456	0.145876
689.346612	0.145899
689.548750	0.145831
689.750870	0.145788
689.952971	0.145923
690.155055	0.146259
690.357120	0.146513
690.559167	0.146709
690.761195	0.146497
690.963206	0.146866
691.165198	0.146882
691.367172	0.147127
691.569128	0.147389
691.771065	0.147333
691.972984	0.147271
692.174885	0.147325
692.376768	0.147467
692.578633	0.147783
692.780479	0.147943
692.982308	0.148051
693.184118	0.148119
693.385909	0.148112
