sample name	sample
index	838
start time	 04-05-2021  10:53:29 AM
880	0.400787
Peak Time (s)	92.037
Peak Height 	0.4008
calc peak height	90,93
Baseline Time (s)	9.537
Baseline Value 	-0.002991
subtract baseline	10,4
Abs	0.300389
Peak Time (s)	92.535
Peak Height 	0.3004
calc peak height	90,93
Baseline Time (s)	9.036
Baseline Value 	0.001825
subtract baseline	10,3
PK_550	0.161096
Peak Time (s)	92.535
Peak Height 	0.1611
calc peak height	90,93
Baseline Time (s)	11.534
Baseline Value 	2.2262E-4
subtract baseline	10,2
PK_880	0.278582
Peak Time (s)	91.538
Peak Height 	0.2786
calc peak height	90,93
Baseline Time (s)	8.537
Baseline Value 	0.001387
subtract baseline	10,1


Time (s)	A880-A510	A880-A775	A880-A975	A880	I510	I775	I975	I880	
0.036500	-0.000784	-0.000496	-0.004057	0.001504	6612.767632	40344.052086	3831.851815	21822.835576
0.539500	-0.002765	-0.001157	-0.001138	0.006923	6547.861923	39822.076827	3825.544294	21586.361894
1.037000	-0.002911	-0.000485	-0.005767	0.003877	6573.172934	40140.436170	3821.569928	21718.917717
1.536500	-0.002656	0.000286	-0.007260	0.001685	6594.647231	40396.000909	3823.321876	21814.856870
2.034500	-0.000773	0.000339	-0.002343	0.001153	6615.972512	40446.757395	3837.088640	21838.251594
2.535500	-0.004933	-0.000774	-0.004753	0.006341	6534.103991	39904.506723	3817.944329	21611.639607
3.035000	0.000561	0.000675	-0.001357	-0.000567	6643.100864	40625.322472	3843.985285	21913.937044
3.535000	-0.000996	0.000173	-0.003790	0.000948	6615.814306	40450.073221	3833.934802	21847.253345
4.039000	-0.001435	-0.000553	0.001511	-0.000115	6621.336985	40479.317499	3850.183723	21894.016419
4.536500	-0.001289	-0.000005	0.000428	0.002078	6603.232937	40336.900888	3841.789755	21797.636644
5.036000	-0.000670	0.000126	-0.002201	0.000367	6623.849849	40496.450050	3839.449905	21872.810779
5.537000	-0.001454	0.000459	-0.002015	0.000262	6617.833827	40534.433611	3840.190940	21877.424817
6.034500	-0.000317	0.000751	-0.001847	0.000414	6626.564943	40546.608491	3840.231358	21870.729111
6.537000	-0.001744	-0.000503	0.000793	-0.000647	6623.322118	40529.909263	3849.705955	21917.505811
7.035000	0.000204	0.000189	-0.000309	0.000319	6632.041919	40506.099667	3844.401514	21874.923882
7.536000	0.000377	0.000812	-0.003827	0.000402	6632.833936	40552.898740	3835.225353	21871.239007
8.035500	-0.001494	-0.000021	-0.000834	-0.000325	6622.679660	40543.791906	3844.707678	21903.299571
8.536500	0.000000	-0.000117	-0.002738	-0.000047	6633.480199	40511.318101	3839.136149	21891.048634
9.036000	0.000576	-0.000034	0.000000	-0.000142	6639.449481	40526.680138	3846.372698	21895.202078
9.537000	-0.000465	0.000146	-0.004445	0.000000	6628.930125	40530.017057	3834.678833	21888.961369
10.036500	-0.000263	0.001105	0.002713	0.000551	6625.827670	40565.477737	3851.561495	21864.691265
10.536500	0.000862	0.001096	0.001632	0.000902	6632.700978	40534.236533	3847.883085	21849.273078
11.034500	-0.000935	-0.000419	-0.000935	-0.000804	6631.901006	40550.835163	3845.675316	21924.431425
11.534500	0.000101	0.000000	0.000180	0.000089	6633.171594	40509.638114	3846.243319	21885.060906
12.035500	-0.000522	0.000997	0.002229	0.001062	6619.002732	40511.645697	3849.002479	21842.225125
12.535500	-0.000183	0.000233	0.001846	0.000381	6628.046801	40504.458756	3849.768165	21872.163352
13.035500	-0.001271	0.000067	-0.000159	-0.000262	6624.096892	40545.978091	3846.275766	21900.522406
13.541000	-0.001169	0.000187	-0.001597	0.000913	6614.591397	40454.300663	3839.596790	21848.787547
14.036500	-0.002968	-0.000039	-0.002052	0.003238	6578.271442	40233.798858	3832.538232	21746.843337
14.539500	-0.002737	-0.000608	0.000669	0.001825	6592.706812	40306.617259	3843.051076	21808.741479
15.037000	0.000154	-0.000728	-0.002542	-0.000213	6636.318220	40472.632673	3840.056449	21898.338464
15.539000	-0.001593	0.000614	0.000261	0.003642	6586.795289	40255.254579	3837.381205	21729.192503
16.034500	-0.001169	-0.000495	-0.000383	-0.000467	6626.822262	40514.953191	3846.226260	21909.555953
16.535000	-0.001404	-0.000315	-0.004735	0.001722	6605.365159	40340.818695	3829.587103	21813.242924
17.035500	0.003347	0.001282	0.001463	-0.001429	6675.761778	40753.572881	3853.446954	21952.039334
17.536000	-0.001271	0.000045	0.002093	0.002034	6603.779395	40345.013250	3846.161726	21799.555455
18.036500	0.000213	0.000698	-0.005778	0.002667	6611.298719	40346.721508	3824.579067	21771.815010
18.536000	-0.001349	-0.000032	-0.001241	0.002626	6597.875480	40287.146050	3836.143019	21773.605049
19.036500	-0.000849	0.000478	0.002955	0.002333	6604.866035	40356.505893	3847.603895	21786.434706
19.536500	-0.001808	0.000238	0.000390	0.002755	6592.700834	40299.419404	3839.967264	21767.979728
20.037000	0.000316	0.000435	-0.000629	0.002640	6612.446527	40326.328118	3837.663545	21772.999438
20.534000	-0.002737	0.000205	-0.007413	0.002618	6585.733748	40308.407366	3820.602221	21773.977598
21.035000	-0.001899	-0.000093	0.001420	0.002044	6598.156367	40332.212933	3844.413013	21799.126869
21.535000	-0.002007	-0.000050	-0.002852	0.002274	6595.178619	40316.027282	3832.950484	21789.024588
22.035500	-0.002476	-0.000625	0.001024	0.001717	6595.951021	40314.437878	3844.234954	21813.449850
22.535500	-0.000347	0.001000	0.002566	0.002968	6603.695153	40346.852668	3844.980637	21758.660303
23.039500	-0.002297	-0.000366	-0.005509	0.001872	6596.172124	40323.517246	3827.258218	21806.676233
23.536500	-0.001340	-0.000185	-0.001557	0.001939	6604.013937	40333.393019	3837.088485	21803.748064
24.036000	-0.000970	-0.000204	-0.001917	0.001974	6606.978246	40328.679960	3836.085250	21802.213771
24.537000	-0.002229	0.000306	0.002336	0.002395	6592.168952	40336.401189	3845.859761	21783.755729
25.037500	-0.001506	0.000677	-0.000330	0.002391	6598.567544	40368.799261	3839.060563	21783.921863
25.537500	-0.001379	-0.000056	0.001913	0.001890	6604.099265	40348.659822	3846.068255	21805.873472
26.034500	0.001379	0.001190	0.000112	0.003226	6616.664427	40340.874817	3838.057620	21747.347940
26.535500	-0.001430	0.000536	-0.001207	0.003005	6593.817613	40303.505158	3835.269076	21757.017869
27.035500	0.000287	-0.000013	0.001534	-0.000886	6643.504383	40593.236011	3852.228529	21928.033126
27.539000	-0.002729	0.000296	-0.001457	0.002647	6585.552765	40313.671503	3835.542706	21772.685815
28.036500	-0.001362	-0.000002	0.000123	0.000648	6615.223825	40460.937277	3844.665005	21860.431606
28.536500	-0.000426	-0.000315	0.001423	0.000700	6623.053385	40429.243616	3847.864081	21858.131013
29.037000	-0.000599	-0.000360	-0.001750	0.000988	6618.971061	40400.392286	3839.014517	21845.475250
29.534500	-0.000434	0.000363	-0.004459	0.001093	6619.501708	40453.969770	3831.872558	21840.860639
30.034500	-0.000270	0.000638	-0.002180	0.001585	6616.602815	40435.149689	3836.404479	21819.266686
30.537500	-0.003124	-0.000170	0.003684	0.004302	6567.592842	40130.949976	3844.429538	21700.388861
31.038000	-0.001607	-0.000330	0.003829	0.001122	6608.865797	40391.358035	3852.965502	21839.575776
31.537500	-0.000684	0.000571	0.000977	0.001335	6615.142351	40450.996189	3845.093491	21830.228131
32.035000	0.000030	-0.000775	0.002508	0.000276	6630.870593	40426.164547	3851.743170	21876.794056
32.536000	-0.000033	-0.000413	0.001884	0.001118	6622.841225	40384.568253	3847.973320	21839.773949
33.035500	0.002336	0.000872	0.000408	-0.000075	6654.562291	40599.705046	3847.248741	21892.285939
33.536500	-0.001287	0.000079	0.001212	0.002700	6597.772118	40290.396891	3842.203436	21770.394815
34.034000	-0.002045	0.000164	0.000711	0.003179	6586.889807	40256.379533	3839.703102	21749.430302
34.536500	-0.003248	-0.000438	-0.002620	0.002311	6583.942198	40279.346287	3833.444640	21787.408389
35.034500	-0.002169	0.000353	-0.004685	0.003114	6586.368252	40278.292617	3826.204477	21752.259953
35.535000	-0.002675	0.000184	0.002087	0.002962	6583.255865	40276.798942	3843.769046	21758.892404
36.035000	-0.000669	0.000021	-0.001272	0.003269	6598.203750	40236.273364	3834.433984	21745.486672
36.535500	-0.000745	0.000990	-0.000191	0.003636	6594.299939	40288.237549	3836.244752	21729.429482
37.038500	-0.000374	-0.000425	0.002441	0.003051	6602.722697	40216.679931	3844.446218	21755.008905
37.536000	0.001626	-0.000715	-0.000308	0.002307	6627.006456	40255.771490	3839.330372	21787.605746
38.036500	-0.000478	0.001074	-0.002316	0.003635	6596.653609	40295.507108	3830.865105	21729.468465
38.536500	-0.001875	-0.000014	-0.002503	0.002707	6592.533142	40281.731161	3832.740339	21770.079511
39.036500	-0.003093	-0.000477	-0.002256	0.002251	6585.829008	40281.134636	3834.519778	21790.050642
39.534500	-0.001408	-0.000330	-0.002605	0.002576	6597.802454	40265.825664	3832.813446	21775.831289
40.035000	-0.000532	-0.000415	-0.000065	0.002688	6604.532726	40248.854539	3838.977920	21770.914518
40.535000	-0.002577	-0.000292	-0.002316	0.003026	6583.555181	40230.294506	3832.405169	21756.110488
41.035500	-0.000734	0.000631	-0.000598	0.003622	6594.518719	40258.445746	3835.248712	21730.055760
41.538500	-0.000392	0.000633	0.002344	0.003505	6598.563048	40268.703919	3843.038683	21735.149580
42.036000	0.000353	0.000832	-0.001173	0.003628	6604.049511	40275.322936	3833.774921	21729.796616
42.536000	-0.001045	0.000157	-0.000310	0.002922	6597.951124	40277.985968	3837.758445	21760.668214
43.036500	0.000433	0.000354	0.001912	0.003229	6608.284112	40268.465789	3842.641234	21747.251293
43.537000	-0.002032	0.000846	0.005206	0.002041	6597.016564	40413.701878	3854.148915	21799.257358
44.037500	0.001961	0.000312	0.002155	0.001238	6639.496073	40437.017213	3848.362127	21834.493260
44.534500	0.000007	0.001431	0.006195	0.002068	6614.776580	40462.041795	3856.636631	21798.078497
45.035500	-0.001256	0.000085	0.000889	0.000570	6616.857812	40475.231050	3846.825815	21863.856800
45.535500	-0.003624	0.000165	-0.002698	0.006049	6548.002193	40009.750863	3823.821196	21624.307430
46.036000	0.001248	0.000108	0.001576	0.000980	6635.443543	40441.640440	3847.537553	21845.819012
46.539000	0.000847	0.000154	0.005897	0.001046	6631.284833	40439.856778	3858.509455	21842.914124
47.036000	-0.001451	0.000828	0.003734	0.004290	6582.349220	40217.844032	3844.586786	21700.904653
47.536500	-0.001898	-0.000074	-0.000632	0.005043	6571.833026	40075.541826	3831.562263	21668.072039
48.037000	0.000259	-0.000211	0.001464	0.001092	6625.660570	40404.305351	3846.962562	21840.911086
48.536500	0.000809	0.000544	-0.000006	0.001776	6624.471852	40410.513238	3841.453020	21810.896032
49.037500	0.001038	0.001470	0.007608	-0.000875	6650.107428	40721.591853	3867.960761	21927.559295
49.537500	-0.001044	-0.000325	0.002119	0.003548	6592.437042	40182.437351	3842.353403	21733.273785
50.035000	-0.000389	0.000149	0.004632	0.008052	6558.726248	39837.140510	3837.280230	21537.484845
50.535500	-0.047512	-0.012192	0.031455	0.198750	4961.742754	26006.247039	3490.248189	14862.798018
51.035500	-0.054690	-0.014041	0.010433	0.158190	5136.745910	28169.605903	3525.083556	16047.984200
51.536500	-0.043513	-0.015488	-0.016802	-0.081779	6988.748363	46737.019808	4025.605738	25853.327741
52.036500	-0.043891	-0.052606	-0.027709	-0.259427	9114.610303	63523.700920	4630.522082	37526.526536
52.536500	-0.027719	-0.084113	-0.013459	-0.304557	10076.247697	65458.647309	4908.511122	41334.179722
53.034000	-0.013166	-0.059696	-0.007059	-0.272647	9790.074289	64387.000225	4784.416591	38601.258727
53.536000	-0.011516	-0.044777	-0.004028	-0.249837	9456.288426	63277.954257	4693.090624	36767.129746
54.034500	-0.005627	-0.024781	-0.001540	-0.210967	8967.429788	60706.020454	4535.594253	33855.310535
54.535000	0.005870	-0.015128	0.004440	-0.193848	8887.731732	59719.047568	4489.954370	32653.281037
55.035500	0.017551	-0.005719	0.011645	-0.173247	8763.399068	58271.004511	4436.594318	31268.188866
55.535500	0.035314	0.006043	0.021735	-0.145649	8629.238074	56284.884116	4369.289494	29512.729633
56.038500	0.057242	0.015670	0.035198	-0.133085	8756.913368	55924.392231	4372.681278	28749.750419
56.536500	0.065553	0.023412	0.046598	-0.103137	8466.008804	53276.286464	4304.133172	27017.643163
57.036500	0.079855	0.031778	0.060536	-0.076478	8306.266634	51194.349968	4258.785544	25573.132314
57.537000	0.089092	0.041211	0.071654	-0.012773	7653.868639	45509.450010	4084.803978	22460.064859
58.034500	0.082867	0.043069	0.082540	0.034852	7084.489937	41237.699784	3975.163609	20413.514367
58.534500	0.097848	0.050016	0.096522	0.041459	7168.458119	41267.750171	3996.436265	20146.908227
59.034500	0.115389	0.059718	0.104275	0.039069	7374.962868	42353.991470	4026.286818	20242.915003
59.535000	0.125083	0.067062	0.126320	0.096183	6898.781155	38071.263572	3925.976105	18087.983313
60.035500	0.134711	0.074598	0.137864	0.115122	6811.226463	37157.143419	3905.835324	17433.710409
60.535000	0.144799	0.080934	0.148149	0.138242	6691.804208	35854.781218	3871.687715	16672.777158
61.036500	0.149900	0.085777	0.152928	0.158814	6554.605930	34679.062665	3831.029497	16028.919730
61.536000	0.156251	0.089352	0.162149	0.177846	6445.738753	33564.458930	3806.505916	15459.798312
62.039500	0.165401	0.093521	0.167008	0.165384	6633.215122	34765.388761	3850.178455	15829.630006
62.537000	0.169348	0.094962	0.167554	0.166215	6661.016270	34810.263345	3849.444719	15804.622328
63.039500	0.174583	0.097813	0.173305	0.170190	6672.318306	34727.530573	3854.019622	15685.735804
63.538000	0.177572	0.099348	0.180308	0.174851	6657.327929	34498.534720	3860.080935	15547.705097
64.035000	0.180982	0.101734	0.182410	0.179540	6645.894369	34330.883961	3853.386396	15410.335144
64.535000	0.185666	0.103839	0.185906	0.186140	6628.844599	34006.263703	3845.410620	15219.478915
65.035500	0.187611	0.105755	0.185542	0.191331	6600.126727	33771.860615	3831.275258	15071.407685
65.535500	0.191523	0.107115	0.190892	0.197082	6583.941111	33460.233999	3830.261797	14909.385633
66.036500	0.194157	0.108843	0.194135	0.203222	6553.290677	33150.363212	3822.966119	14738.768281
66.536500	0.197252	0.110708	0.200682	0.209725	6523.729106	32828.006721	3823.078594	14560.688558
67.042000	0.200012	0.112558	0.198942	0.216124	6492.420402	32515.107641	3802.843584	14388.024161
67.537000	0.202324	0.113966	0.201781	0.223514	6449.168688	32108.648264	3791.690903	14191.757357
68.037000	0.204591	0.116915	0.207137	0.234300	6377.726290	31584.543418	3778.540754	13911.238086
68.535000	0.208633	0.117246	0.204178	0.235965	6397.517784	31496.237370	3767.467790	13868.547419
69.035000	0.209251	0.119744	0.211555	0.241240	6358.839613	31313.289944	3772.485673	13734.378948
69.535000	0.210793	0.121167	0.212859	0.249649	6302.568178	30858.372656	3755.622082	13523.859101
70.038500	0.212988	0.121623	0.212979	0.256625	6263.905571	30440.235003	3739.607045	13352.269845
70.536000	0.216840	0.124148	0.219249	0.258188	6282.358590	30501.561914	3750.575883	13314.200404
71.036500	0.216587	0.125029	0.222424	0.262826	6243.046360	30262.958906	3747.155473	13202.056244
71.536000	0.219556	0.126630	0.225839	0.269206	6215.878381	29962.370552	3740.253715	13049.702678
72.039500	0.220144	0.126777	0.220379	0.276956	6159.542815	29491.088920	3710.083933	12867.648430
72.537000	0.223377	0.129815	0.232759	0.278251	6174.697029	29598.372192	3735.338392	12837.534805
73.036500	0.227273	0.130463	0.237932	0.282841	6169.268473	29356.294018	3736.687624	12731.559156
73.535000	0.227594	0.131928	0.237731	0.289830	6117.491775	29020.598492	3720.208194	12572.288698
74.035500	0.231161	0.133178	0.237231	0.297417	6086.662828	28640.801220	3701.999142	12402.284602
74.535500	0.235173	0.134118	0.237823	0.297104	6119.841345	28715.440983	3704.020348	12409.247067
75.036000	0.232752	0.134518	0.242243	0.301454	6068.038411	28480.829282	3704.176253	12313.030417
75.535500	0.236867	0.136536	0.246468	0.308649	6044.750676	28176.565298	3697.560003	12156.015887
76.036500	0.238206	0.138493	0.248138	0.317574	5988.067620	27772.622742	3681.583283	11964.797245
76.537000	0.241732	0.139327	0.249152	0.316492	6022.378825	27883.061456	3686.171855	11987.771296
77.037000	0.244020	0.140263	0.252380	0.321005	6005.763356	27677.325639	3683.356628	11892.329796
77.537500	0.243320	0.139458	0.250366	0.326073	5963.095897	27343.154898	3667.987142	11786.333303
78.037000	0.242254	0.141257	0.255887	0.335355	5887.944011	26923.922522	3659.928120	11595.380726
78.535000	0.248561	0.142821	0.259275	0.334164	5942.218849	27077.469334	3669.749006	11619.651371
79.035000	0.251056	0.142982	0.259216	0.337601	5935.346084	26895.008239	3662.240636	11549.776211
79.538500	0.251665	0.144983	0.263830	0.344756	5888.014072	26610.735836	3656.820570	11406.078641
80.036000	0.252846	0.144687	0.267141	0.345493	5891.201955	26554.177428	3662.310575	11391.410095
80.536500	0.256372	0.147665	0.266153	0.350933	5877.482265	26419.916960	3648.660864	11283.921362
81.036500	0.255143	0.148409	0.269138	0.353723	5848.869830	26308.897212	3649.070191	11229.303127
81.537000	0.257747	0.147777	0.271058	0.356180	5849.917833	26142.279376	3647.939745	11181.509912
82.034500	0.256260	0.148422	0.272199	0.364592	5780.536854	25728.573694	3632.753500	11019.881824
82.537500	0.260473	0.149772	0.276674	0.363018	5820.897680	25883.456289	3645.368714	11049.875278
83.036000	0.260391	0.149755	0.274949	0.364896	5807.169245	25782.951813	3637.833438	11014.094370
83.534500	0.262125	0.151932	0.276487	0.368093	5796.962842	25729.089451	3634.385830	10953.533585
84.037000	0.263474	0.152199	0.281790	0.370460	5789.880931	25618.426559	3640.496511	10908.967360
84.535000	0.263717	0.153224	0.277587	0.373222	5772.417218	25527.371364	3626.061887	10857.275516
85.036500	0.265842	0.154598	0.278766	0.375560	5770.947860	25476.924804	3623.682222	10813.775589
85.536000	0.264977	0.153512	0.282710	0.376113	5761.168988	25391.523690	3630.661803	10803.520441
86.036500	0.268385	0.155619	0.283627	0.378714	5766.738210	25365.883302	3627.189854	10755.479392
86.536500	0.269239	0.156289	0.286205	0.380335	5761.446515	25316.507917	3629.161261	10725.673281
87.037000	0.270171	0.157238	0.288352	0.383016	5749.433245	25226.899155	3628.061163	10676.631237
87.537500	0.271554	0.156923	0.286129	0.383713	5754.138758	25174.691328	3622.064764	10663.918505
88.036000	0.268903	0.156402	0.284431	0.391407	5683.925642	24755.422916	3603.046906	10525.047856
88.535500	0.271106	0.157456	0.293424	0.386971	5728.794149	25034.779910	3630.365261	10604.823938
89.038500	0.274609	0.157435	0.283656	0.387852	5746.699229	24988.646357	3608.633307	10588.910413
89.536000	0.272082	0.158751	0.295359	0.389497	5718.255574	24971.788283	3629.145029	10559.293387
90.036500	0.272633	0.158655	0.290482	0.396803	5672.775390	24597.109560	3604.359249	10429.112431
90.536500	0.274267	0.158711	0.289531	0.391330	5720.640865	24876.392633	3613.478381	10526.423593
91.036500	0.275561	0.159462	0.293186	0.391954	5725.201562	24882.880986	3619.644818	10515.282571
91.537500	0.278582	0.160525	0.292769	0.395270	5723.197259	24768.608253	3612.056954	10456.259027
92.037000	0.276514	0.160945	0.294864	0.400787	5672.084759	24512.285965	3605.159638	10359.045926
92.535000	0.277561	0.161096	0.300389	0.395642	5713.742754	24778.685535	3626.848006	10449.661412
93.036000	0.278251	0.161213	0.298211	0.396261	5714.224486	24753.321803	3621.111552	10438.709627
93.623500	0.279682	0.162127	0.297963	0.397609	5714.780825	24731.360872	3617.853656	10414.885257
94.036500	0.276329	0.161637	0.301134	0.403134	5655.225261	24429.745345	3613.071465	10318.074276
94.535500	0.285056	0.163941	0.293801	0.399091	5741.280011	24748.152808	3606.430874	10388.801621
95.036000	0.284217	0.163072	0.303058	0.398882	5736.979895	24714.810363	3625.673528	10392.474917
95.536000	0.282347	0.164553	0.307555	0.401473	5706.674183	24658.864795	3629.599885	10347.054974
96.036500	0.280450	0.163448	0.299041	0.404722	5672.097753	24440.828451	3605.645892	10290.470637
