sample name	sample
index	525
start time	 03-11-2021  04:06:59 PM
880	0.203439
Peak Time (s)	92.037
Peak Height 	0.2034
calc peak height	90,93
Baseline Time (s)	11.537
Baseline Value 	-0.002374
subtract baseline	10,4
Abs	0.142391
Peak Time (s)	92.537
Peak Height 	0.1424
calc peak height	90,93
Baseline Time (s)	10.537
Baseline Value 	0.001729
subtract baseline	10,3
PK_550	0.086055
Peak Time (s)	91.036
Peak Height 	0.08606
calc peak height	90,93
Baseline Time (s)	8.538
Baseline Value 	0.001011
subtract baseline	10,2
PK_880	0.140431
Peak Time (s)	91.036
Peak Height 	0.1404
calc peak height	90,93
Baseline Time (s)	9.536
Baseline Value 	0.001704
subtract baseline	10,1


Time (s)	A880-A510	A880-A775	A880-A975	A880	I510	I775	I975	I880	
0.038500	-0.004774	-0.000662	-0.005562	0.007487	6933.002338	44511.431902	3955.644916	23682.401911
0.539000	-0.001749	-0.000759	-0.003821	0.004235	6991.526798	44814.583018	3968.013922	23838.598970
1.036000	-0.002222	-0.001153	-0.003098	0.003010	6998.597493	44894.834529	3972.877173	23897.743258
1.537500	-0.001014	-0.000043	0.000792	0.001066	7028.367617	45190.929643	3987.576940	23991.954166
2.037000	-0.004568	-0.000814	-0.003146	0.006305	6945.884307	44610.276167	3964.545347	23739.077303
2.537000	0.000754	-0.000611	0.004854	0.000882	7046.904878	45153.666204	3998.401509	24000.892831
3.035000	0.001131	-0.000596	-0.001655	-0.001308	7071.399760	45368.424644	3987.392185	24107.519512
3.535000	-0.001012	-0.000722	0.001193	-0.000089	7039.339801	45237.357009	3991.533112	24048.120831
4.038500	-0.002125	-0.000109	-0.002129	0.001537	7013.399672	45138.712147	3979.007616	23969.073211
4.536000	-0.002966	-0.001169	-0.001680	-0.000787	7027.423866	45261.757892	3986.008921	24082.125593
5.036000	-0.000131	-0.000030	-0.003476	0.000878	7038.519819	45210.481566	3977.276255	24001.047897
5.536500	-0.000408	-0.001933	0.001651	-0.000878	7052.601277	45196.199639	3994.709121	24086.554908
6.036500	-0.001428	-0.000811	0.001285	-0.000255	7036.965330	45244.759394	3992.187821	24056.194923
6.536500	-0.002417	-0.001218	-0.005671	-0.000462	7029.542995	45225.255335	3975.130472	24066.272022
7.037000	-0.002539	-0.000961	-0.000134	-0.000500	7028.751669	45254.076215	3989.201903	24068.131427
7.534500	0.000499	-0.001050	-0.000847	-0.000692	7059.478439	45264.039439	3987.879042	24077.479224
8.035000	0.000226	-0.000992	-0.003968	-0.000451	7054.564126	45246.192515	3979.381619	24065.729636
8.538000	-0.000593	0.000000	0.000994	-0.000238	7044.740096	45322.232203	3991.404559	24055.374382
9.035500	0.001590	0.000335	-0.002250	0.000325	7060.180879	45299.958637	3981.757172	24027.958415
9.535500	0.000000	-0.000832	0.002011	-0.000147	7049.520265	45232.268746	3993.764860	24050.934756
10.036000	0.000720	0.000484	0.002469	0.000038	7054.612646	45342.491230	3994.459763	24041.905571
10.536500	-0.001170	-0.000882	0.000000	-0.000518	7041.916600	45263.430664	3989.587784	24068.996000
11.036500	-0.000960	0.000231	-0.001371	0.000393	7035.253228	45283.159285	3983.804457	24024.623709
11.537000	0.001580	-0.000172	-0.000639	0.000000	7063.189409	45282.199842	3986.652578	24043.767442
12.037000	-0.002022	-0.001043	-0.001561	0.001808	7011.812376	45021.766880	3979.754280	23955.939287
12.535000	-0.000677	-0.000008	0.002819	0.000049	7041.213864	45293.418282	3995.327320	24041.405603
13.038000	-0.000807	-0.000516	0.003666	-0.002546	7064.712820	45497.485190	4004.152389	24168.069773
13.535500	0.000373	-0.000090	0.007026	-0.000442	7055.881356	45333.343966	4007.390368	24065.284324
14.041000	-0.002877	-0.001290	-0.005568	0.002178	7000.262014	44961.998628	3968.785752	23938.000857
14.535500	-0.002072	0.000581	0.000335	0.002586	7003.996898	45103.798151	3982.573259	23918.239477
15.035500	-0.002459	-0.000534	0.002774	-0.000564	7030.121024	45301.979330	3996.777063	24071.260534
15.536500	-0.001013	-0.000687	-0.000221	-0.000599	7044.177729	45290.369572	3989.232406	24072.959457
16.037000	-0.001401	-0.000430	0.002064	0.002272	7013.294877	45036.187509	3987.743500	23933.446529
16.537500	-0.001166	-0.000292	0.004041	-0.000860	7045.203844	45354.365503	4000.782759	24085.669278
17.035000	-0.001325	-0.000331	0.002722	-0.000961	7044.654520	45360.432325	3997.659579	24090.588723
17.537000	0.000069	-0.000203	-0.002451	-0.000781	7056.223806	45355.370137	3984.043297	24081.833362
18.035000	-0.001524	-0.000501	-0.001501	-0.001042	7043.530182	45351.768445	3987.108037	24094.558916
18.535500	-0.000388	-0.000008	-0.002947	0.000578	7038.931144	45241.862498	3979.362392	24015.655923
19.036000	-0.003156	-0.000949	-0.003304	0.000378	7014.604646	45169.742393	3978.967646	24025.387007
19.536000	-0.000719	-0.000192	-0.002724	0.000964	7032.119744	45186.340712	3978.952239	23996.883234
20.036500	-0.001908	-0.000499	-0.004059	0.001519	7015.614011	45102.597117	3974.205370	23969.961613
20.536500	-0.002241	-0.001123	-0.002990	0.000070	7026.172795	45182.783808	3980.531981	24040.350251
21.036500	-0.001022	-0.000625	0.003404	0.000696	7031.791919	45170.328482	3995.167954	24009.921833
21.534500	-0.001780	-0.000726	-0.001617	0.000382	7027.591311	45191.066698	3983.210082	24025.192774
22.037500	-0.001671	-0.000310	-0.004026	0.001392	7019.056001	45133.285393	3974.604850	23976.097098
22.535000	-0.001874	-0.000362	-0.001461	0.000531	7025.282158	45211.896450	3983.226607	24017.922046
23.035000	-0.002429	-0.001198	-0.002839	-0.000021	7025.257108	45184.373486	3981.144533	24044.800744
23.535500	-0.002287	-0.000900	-0.003489	0.000113	7025.324303	45200.191257	3979.166826	24038.245541
24.036000	-0.003927	-0.001070	-0.001646	0.001136	7000.191262	45084.410530	3981.235215	23988.561010
24.536000	-0.000697	-0.000351	-0.002787	0.000512	7036.624362	45214.844139	3979.931892	24018.851356
25.036500	-0.000081	0.000110	0.002822	0.000712	7040.579855	45240.279595	3993.642160	24009.139976
25.536500	-0.000714	-0.000260	-0.003376	0.000694	7034.735724	45206.069040	3977.989800	24010.012042
26.037000	-0.003334	-0.001081	-0.003515	0.001480	7002.541375	45049.973418	3975.668799	23971.858526
26.540000	-0.000815	0.000308	-0.000031	0.000871	7032.103687	45244.152413	3985.987507	24001.429046
27.035000	-0.000160	-0.000119	0.001639	0.000771	7039.261044	45212.276433	3990.477736	24006.261834
27.535000	-0.001426	0.000200	-0.002725	0.000793	7027.044162	45241.162206	3979.380346	24005.200318
28.035000	-0.000056	-0.000150	-0.005210	0.002885	7020.214630	45003.996714	3967.916319	23903.792293
28.536000	-0.000386	-0.000275	-0.001416	-0.000444	7048.671032	45315.463386	3985.807640	24065.399293
29.036000	0.000340	0.000196	0.003984	-0.000311	7054.322470	45348.452601	3999.228046	24058.919205
29.536500	0.000199	-0.000284	-0.000348	-0.000965	7059.219440	45365.428009	3989.839931	24090.795527
30.036500	-0.000650	-0.000672	-0.000771	-0.000221	7044.040274	45255.032471	3986.879180	24054.539375
30.537000	-0.000088	-0.000466	-0.000985	-0.000721	7054.146526	45323.835248	3987.602778	24078.880859
31.040000	0.000815	-0.000088	0.000616	-0.000588	7061.499789	45347.746834	3991.333191	24072.411900
31.560500	-0.001343	-0.000538	0.000274	0.000187	7033.573786	45228.279106	3988.492954	24034.659719
32.035000	-0.001892	-0.000384	0.000363	0.002889	7002.845335	44980.892721	3981.880680	23903.597732
32.536500	-0.001423	-0.000256	-0.001248	-0.000086	7035.416326	45282.396169	3985.328220	24047.975242
33.057000	0.000384	-0.000125	-0.002938	-0.000427	7055.851612	45328.490390	3981.918103	24064.584831
33.536500	-0.000404	-0.000569	0.002255	-0.000793	7051.822847	45320.824222	3996.034909	24082.406459
34.036500	0.000506	-0.000052	-0.001181	0.000290	7050.180905	45265.673576	3984.546456	24029.660529
34.536500	0.000302	-0.000471	0.002164	-0.000368	7054.500884	45288.919421	3994.717608	24061.697034
35.037000	0.000212	-0.000326	0.003073	0.000789	7042.624624	45190.352563	3994.085363	24005.386309
35.540000	-0.002065	-0.000446	0.001414	0.001588	7013.475317	45101.012438	3987.830877	23966.590446
36.034500	-0.002087	-0.000522	-0.001584	0.001462	7014.467982	45105.894102	3980.567665	23972.717209
36.535000	-0.001428	-0.000038	0.001008	0.001966	7015.922863	45103.975142	3985.842653	23948.273151
37.035000	-0.001562	-0.001090	-0.003181	0.000972	7024.060188	45098.310074	3977.782357	23996.501994
37.535500	-0.002327	-0.000977	-0.000749	0.001374	7013.023081	45070.187638	3982.896929	23976.970217
38.036000	-0.003181	-0.001318	-0.003894	0.002218	6997.027391	44955.376315	3972.867705	23936.052474
38.536000	-0.002216	-0.000433	0.000381	0.001544	7012.476673	45106.615103	3985.325138	23968.749726
39.036000	-0.001035	0.000107	-0.000321	0.002111	7018.276237	45103.991567	3982.117197	23941.273476
39.536500	-0.000182	0.000053	0.000517	0.001905	7028.295678	45118.663914	3984.756154	23951.230015
40.040000	-0.002943	-0.000248	-0.000611	0.002507	6996.557863	45031.140885	3980.388780	23922.092143
40.537000	-0.001266	-0.000706	0.002728	0.001570	7021.204034	45077.569221	3991.215828	23967.499454
41.037500	-0.001157	0.000324	0.000428	0.002205	7016.231271	45115.860311	3983.771544	23936.700772
41.535000	-0.000678	-0.000271	-0.000893	0.001691	7025.622879	45108.048389	3981.733571	23961.615140
42.035000	-0.002120	-0.001059	-0.004614	0.001655	7012.325137	45035.039668	3972.474009	23963.342734
42.535500	-0.001666	-0.000070	-0.001017	0.001748	7015.739459	45122.041501	3981.277819	23958.850431
43.036000	-0.001843	-0.000965	-0.006387	0.001497	7016.439231	45059.556970	3968.442854	23971.030408
43.536000	-0.000422	-0.000854	0.001522	0.001055	7034.077554	45113.149488	3989.457734	23992.456448
44.036500	-0.003259	-0.000789	0.000457	0.001499	7003.063523	45076.449524	3985.632129	23970.936136
44.539500	-0.001952	-0.000045	0.006192	0.001842	7012.151467	45115.308830	3999.366221	23954.266355
45.037000	0.001303	-0.000472	0.007796	-0.003147	7090.703543	45560.732782	4016.398471	24197.526195
45.537000	-0.000932	0.000140	-0.001792	0.001122	7028.611497	45203.314070	3980.901406	23989.228951
46.034500	-0.002327	-0.000682	-0.000811	0.002806	6999.528497	44960.098566	3979.130901	23907.603211
46.535000	-0.000223	-0.000320	-0.000776	0.000082	7045.210761	45259.758933	3986.096298	24039.772975
47.035000	0.001201	-0.000121	0.002416	-0.000122	7060.732574	45299.127277	3994.733169	24049.712727
47.535000	-0.003008	-0.000234	0.003558	0.001518	7005.248612	45128.450202	3993.462517	23970.007034
48.036000	-0.001434	0.000187	-0.001960	0.003395	7002.394088	44987.256872	3974.765403	23879.163389
48.541500	-0.001381	-0.000477	-0.000947	0.000046	7034.554988	45247.971306	3985.756102	24041.537956
49.039500	-0.002291	-0.000038	0.004300	0.002176	7005.798725	45083.583693	3993.675297	23938.096060
49.537000	-0.004236	-0.000492	0.000117	0.002640	6983.165455	44994.604984	3981.888358	23915.639849
50.045500	-0.003287	0.000199	0.001539	0.003482	6984.173140	44979.933535	3983.352079	23874.955619
50.534500	-0.001638	-0.000164	-0.000057	0.000034	7032.236941	45279.710633	3988.043210	24042.135448
51.035000	-0.001525	-0.000048	0.000124	-0.000338	7036.829753	45327.285090	3989.446011	24060.225278
51.535000	-0.000911	0.000226	0.000977	0.000908	7030.837793	45232.489994	3988.446373	23999.605171
52.035500	-0.002983	-0.000686	-0.002090	0.003650	6985.445605	44878.163407	3973.799573	23866.826634
52.536000	-0.001299	-0.000420	0.001465	0.002182	7015.110243	45045.926556	3986.454310	23937.828224
53.036000	-0.020833	-0.006626	0.004598	0.215430	5313.075140	28341.728917	3564.357684	15776.066215
53.535500	-0.035925	-0.007840	-0.024294	0.104794	5903.673043	35621.323163	3704.844337	19511.220424
54.036000	-0.053905	-0.024000	-0.029840	-0.081443	7318.820390	51289.711176	4127.345245	28404.545560
54.536500	-0.058100	-0.086098	-0.014614	-0.253112	9391.891327	65166.016942	4794.914340	40768.108574
55.033500	-0.033308	-0.065362	0.004921	-0.225265	9346.467271	64155.331434	4758.725074	38416.307388
55.534500	-0.022907	-0.033745	0.007337	-0.171918	8740.720687	61167.627402	4551.493356	34311.193975
56.034500	-0.008273	-0.019422	0.006115	-0.144932	8577.298526	59494.178576	4446.754866	32418.918809
56.535500	0.006715	-0.006565	0.012401	-0.115194	8388.164701	57338.032306	4364.712111	30465.480041
57.035000	0.025405	0.001214	0.023878	-0.099234	8422.679222	56322.713354	4349.525418	29470.897046
57.535500	0.032502	0.007480	0.024163	-0.084360	8324.893917	55274.996569	4301.176552	28576.363127
58.038500	0.046336	0.015713	0.042087	-0.059325	8187.103873	53288.825763	4278.196807	27138.232856
58.536500	0.057949	0.023019	0.053011	-0.031518	7994.070733	50967.206680	4225.116392	25635.123199
59.037000	0.066391	0.031376	0.062132	-0.003621	7771.472218	48854.061061	4168.453655	24220.784090
59.537000	0.070531	0.036398	0.071538	0.028131	7472.192378	46113.069159	4104.136332	22717.745777
60.037500	0.083291	0.044917	0.086850	0.048591	7392.075980	44942.117919	4089.782114	21805.901418
60.537500	0.088417	0.051044	0.092337	0.075080	7177.073174	43018.060395	4032.953711	20687.342142
61.035000	0.096118	0.056726	0.104045	0.093372	7074.346727	41871.005505	4015.697096	19953.826094
61.535500	0.098295	0.059923	0.099533	0.105904	6976.297631	41043.075235	3972.218867	19468.807523
62.036000	0.107299	0.064016	0.108999	0.116258	6963.684493	40497.669614	3970.001922	19078.526329
62.539000	0.110498	0.066783	0.113044	0.130399	6862.905332	39526.728697	3945.093219	18560.301091
63.036500	0.120548	0.075313	0.116317	0.163951	6654.840510	37478.167514	3873.768963	17396.186150
63.536500	0.120340	0.076247	0.121221	0.159385	6692.572065	37918.307297	3895.543658	17549.348855
64.036500	0.130310	0.080043	0.126403	0.142336	6935.192763	39638.368464	3948.568627	18135.806820
64.539500	0.126241	0.077884	0.123147	0.150588	6822.673956	38768.965826	3920.778201	17849.060861
65.035000	0.129456	0.079955	0.123672	0.149279	6863.611823	39048.938699	3925.158210	17894.178072
65.535500	0.132357	0.081321	0.125640	0.149320	6889.721967	39159.308583	3929.779781	17892.772916
66.035500	0.131567	0.081079	0.128674	0.148001	6894.569578	39249.194752	3940.295707	17938.372229
66.536000	0.132781	0.081339	0.128929	0.146899	6915.852121	39363.245596	3943.593796	17976.564009
67.038500	0.134050	0.082907	0.130150	0.146615	6930.196580	39518.964878	3947.264478	17986.427775
67.536000	0.132528	0.082646	0.125143	0.151166	6874.413894	39115.860859	3924.165871	17829.210022
68.036500	0.137418	0.083358	0.125069	0.146331	6964.121313	39580.954764	3935.608639	17996.307487
68.536500	0.135841	0.083498	0.128087	0.146082	6951.747312	39613.729963	3943.534598	18004.961894
69.045000	0.137903	0.084716	0.132167	0.146831	6963.982821	39653.378716	3951.675059	17978.939176
69.537500	0.135672	0.083902	0.125997	0.152135	6894.302526	39139.785555	3923.891036	17795.935884
70.035000	0.137930	0.085094	0.129620	0.152645	6910.360866	39196.673464	3931.356579	17778.444149
70.535000	0.138265	0.085281	0.131892	0.148773	6949.267403	39537.130628	3946.247178	17911.653684
71.035500	0.139909	0.085412	0.128973	0.148835	6964.003128	39542.983087	3938.998168	17909.532035
71.538500	0.136417	0.084636	0.127388	0.154287	6881.416950	39021.756808	3922.070490	17722.296043
72.036000	0.137488	0.084949	0.132162	0.154171	6892.280682	39057.431503	3933.803276	17726.266413
72.536500	0.141056	0.087302	0.132444	0.152147	6943.855151	39423.317841	3939.383291	17795.524621
73.036500	0.139855	0.087384	0.134953	0.152489	6929.564745	39401.495925	3944.653545	17783.803193
73.537000	0.137782	0.086642	0.134076	0.158355	6856.802944	38850.849147	3928.341587	17584.152925
74.036000	0.140045	0.086049	0.131416	0.157015	6889.652943	38912.634192	3925.177524	17629.513998
74.537000	0.142266	0.086229	0.136224	0.153816	6939.592487	39193.601499	3944.514854	17738.372090
75.034500	0.141335	0.086918	0.138922	0.154737	6922.457339	39174.255957	3948.854651	17706.947069
75.534500	0.137700	0.086232	0.127239	0.160614	6835.599109	38630.802217	3906.737136	17507.968470
76.038000	0.138608	0.086484	0.128641	0.160541	6844.462244	38657.485032	3910.208344	17510.407769
76.536000	0.142187	0.087974	0.140407	0.158681	6894.017291	38934.136659	3942.853897	17573.134572
77.036000	0.143156	0.086894	0.137109	0.158861	6901.250095	38829.803128	3934.422885	17567.036175
77.536500	0.137569	0.087047	0.128240	0.165877	6787.182432	38267.026899	3896.769520	17332.034249
78.036500	0.141016	0.087285	0.135834	0.162399	6849.455610	38570.734385	3922.870208	17448.073007
78.537000	0.141673	0.086727	0.132952	0.163007	6849.893369	38475.129407	3914.569556	17427.696209
79.037500	0.141937	0.087338	0.131417	0.165441	6830.274014	38326.298034	3905.214578	17346.537532
79.534500	0.137785	0.086259	0.130437	0.171742	6737.115810	37729.948132	3888.269171	17138.472925
80.035000	0.139188	0.087420	0.128746	0.168543	6777.850955	38080.996101	3891.753668	17243.725466
80.538000	0.140385	0.086416	0.137758	0.169118	6783.383565	37953.430530	3911.483333	17224.739566
81.035500	0.139649	0.086730	0.136424	0.171487	6755.819034	37788.198501	3902.777418	17146.844938
81.536000	0.136656	0.086578	0.127673	0.178664	6666.874482	37204.930060	3866.161492	16913.368638
82.036000	0.139659	0.086646	0.134972	0.174785	6726.835690	37517.795778	3891.718879	17039.082922
82.536500	0.141193	0.086436	0.135218	0.176659	6723.851716	37352.329355	3887.955949	16978.222955
83.037000	0.141146	0.086724	0.135085	0.178409	6708.113988	37236.624196	3883.619147	16921.602730
83.537000	0.134662	0.084740	0.132126	0.184262	6601.821733	36623.197884	3863.581665	16733.937695
84.037500	0.141371	0.086309	0.134816	0.181447	6683.616240	36964.954373	3876.052920	16823.876426
84.535000	0.135896	0.085082	0.134906	0.181391	6636.855784	36873.291502	3876.385008	16825.662944
85.038000	0.140324	0.086155	0.135697	0.183894	6653.402626	36761.797634	3872.489377	16745.656687
85.535500	0.137324	0.084774	0.132835	0.189679	6578.498869	36208.215490	3853.042896	16562.483052
86.036000	0.140574	0.086973	0.137543	0.187746	6622.503173	36526.250587	3867.943186	16623.407450
86.536000	0.139073	0.085582	0.134043	0.187748	6609.687855	36418.737351	3860.057489	16623.360914
87.036500	0.139873	0.085972	0.139393	0.188979	6606.025503	36354.000131	3869.338397	16584.526435
87.536000	0.138482	0.085025	0.127665	0.194007	6551.833078	35897.302990	3832.121332	16427.013892
88.037000	0.140272	0.085990	0.132774	0.191607	6587.121236	36153.777147	3848.623295	16501.983116
88.537000	0.139939	0.085051	0.136134	0.192112	6580.035225	36043.447820	3854.972146	16486.169911
89.035000	0.138004	0.085732	0.136747	0.193356	6553.295370	36000.619638	3853.566263	16447.330315
89.537500	0.137489	0.084845	0.135222	0.198297	6507.843053	35559.799888	3839.265683	16294.080105
90.035000	0.137441	0.085075	0.136789	0.194628	6537.941447	35854.007977	3850.827604	16407.691539
90.535500	0.139436	0.085993	0.134461	0.196401	6539.798315	35789.312779	3841.761284	16352.679814
91.036000	0.140431	0.086055	0.138153	0.197410	6539.678401	35717.768271	3847.684439	16321.471946
91.536500	0.134174	0.083292	0.128878	0.202311	6447.685891	35144.321275	3816.800595	16170.887179
92.036500	0.137264	0.085070	0.133477	0.203439	6463.691364	35192.577420	3824.268014	16136.467029
92.536500	0.139196	0.085076	0.142391	0.198945	6516.618488	35528.519756	3853.687379	16274.109455
93.034500	0.139116	0.085577	0.137919	0.199912	6507.942858	35493.579575	3841.645727	16244.388472
93.537500	0.136190	0.084266	0.132192	0.205366	6439.235465	34990.345296	3817.353794	16077.860912
94.037500	0.138714	0.084335	0.132769	0.200555	6499.302110	35352.542088	3828.981093	16224.638976
94.535500	0.136206	0.083843	0.134660	0.200943	6475.471475	35286.955051	3832.249953	16212.743380
95.035000	0.139819	0.085508	0.135225	0.202278	6494.204541	35311.555337	3830.574950	16171.899363
95.604000	0.138306	0.084863	0.136810	0.204369	6464.612486	35108.226075	3829.475076	16108.163867
96.068000	0.135288	0.084269	0.135915	0.208453	6407.004899	34763.550405	3818.721204	15984.557636
96.536500	0.135859	0.084516	0.136746	0.203650	6450.504446	35135.740140	3830.898465	16130.024541
97.036000	0.139500	0.084288	0.128163	0.204204	6475.744111	35077.904965	3811.227327	16113.188115
