sample name	sample
index	852
start time	 04-08-2021  10:51:46 AM


Wavelength (nm)	Absorbance
494.344910	-0.036486
494.563924	-0.036486
494.782919	-0.036486
495.001897	-0.005581
495.220856	-0.013843
495.439797	-0.027712
495.658719	-0.028745
495.877624	-0.015454
496.096510	-0.014240
496.315378	-0.032958
496.534227	-0.020923
496.753059	-0.019280
496.971872	-0.019218
497.190667	0.046725
497.409444	0.082532
497.628203	0.091091
497.846943	0.094744
498.065665	0.098991
498.284369	0.101623
498.503055	0.102766
498.721723	0.102940
498.940372	0.103680
499.159003	0.104295
499.377616	0.104629
499.596210	0.105233
499.814787	0.105162
500.033345	0.104541
500.251885	0.104733
500.470406	0.104925
500.688910	0.105379
500.907395	0.105540
501.125862	0.105995
501.344311	0.105717
501.562742	0.106385
501.781154	0.106439
501.999548	0.106123
502.217924	0.107390
502.436282	0.107245
502.654621	0.107350
502.872942	0.107212
503.091245	0.107823
503.309530	0.107824
503.527797	0.107954
503.746045	0.108534
503.964275	0.109638
504.182487	0.109313
504.400681	0.110294
504.618856	0.110150
504.837013	0.111732
505.055152	0.111130
505.273273	0.111159
505.491376	0.111308
505.709460	0.111877
505.927526	0.111072
506.145574	0.110616
506.363604	0.110081
506.581615	0.110870
506.799608	0.110826
507.017583	0.111659
507.235540	0.112286
507.453478	0.111593
507.671399	0.110929
507.889301	0.110442
508.107185	0.110757
508.325050	0.111340
508.542898	0.111527
508.760727	0.111232
508.978538	0.111049
509.196330	0.111709
509.414105	0.111946
509.631861	0.112506
509.849599	0.113516
510.067319	0.113831
510.285021	0.114095
510.502704	0.113863
510.720369	0.114145
510.938016	0.114690
511.155645	0.114489
511.373255	0.116217
511.590848	0.116667
511.808422	0.116702
512.025977	0.118207
512.243515	0.118607
512.461034	0.119017
512.678536	0.118761
512.896018	0.118847
513.113483	0.119223
513.330930	0.118707
513.548358	0.119682
513.765768	0.120534
513.983160	0.119804
514.200533	0.119506
514.417889	0.119583
514.635226	0.120447
514.852545	0.120490
515.069845	0.120658
515.287128	0.120634
515.504392	0.119549
515.721638	0.120048
515.938866	0.119991
516.156075	0.120574
516.373267	0.122012
516.590440	0.122881
516.807594	0.122620
517.024731	0.122642
517.241850	0.123165
517.458950	0.123948
517.676032	0.124013
517.893095	0.124516
518.110141	0.125182
518.327168	0.124376
518.544177	0.124449
518.761168	0.124589
518.978141	0.125542
519.195095	0.125122
519.412031	0.125464
519.628949	0.125444
519.845849	0.125962
520.062731	0.126158
520.279594	0.126523
520.496439	0.126102
520.713266	0.127209
520.930074	0.126682
521.146865	0.126857
521.363637	0.126811
521.580391	0.127173
521.797127	0.127704
522.013844	0.127597
522.230543	0.128220
522.447224	0.128325
522.663887	0.129025
522.880532	0.129288
523.097158	0.129994
523.313766	0.130489
523.530356	0.130534
523.746928	0.130911
523.963481	0.131282
524.180017	0.130959
524.396534	0.131576
524.613032	0.131159
524.829513	0.131404
525.045975	0.131217
525.262420	0.132399
525.478845	0.133073
525.695253	0.133435
525.911643	0.133570
526.128014	0.135022
526.344367	0.135451
526.560702	0.135708
526.777018	0.136512
526.993316	0.138025
527.209597	0.136959
527.425858	0.137632
527.642102	0.137360
527.858328	0.137804
528.074535	0.137554
528.290724	0.138082
528.506894	0.138966
528.723047	0.139021
528.939181	0.138643
529.155297	0.139211
529.371395	0.139271
529.587475	0.139248
529.803536	0.139464
530.019579	0.140129
530.235604	0.140387
530.451611	0.140259
530.667600	0.140661
530.883570	0.141140
531.099522	0.141860
531.315456	0.142520
531.531372	0.143738
531.747269	0.144075
531.963148	0.143828
532.179009	0.144144
532.394852	0.144891
532.610676	0.145540
532.826482	0.145848
533.042271	0.145827
533.258040	0.145552
533.473792	0.145387
533.689525	0.145587
533.905240	0.145848
534.120937	0.146473
534.336616	0.146711
534.552277	0.146877
534.767919	0.147473
534.983543	0.147468
535.199149	0.148175
535.414736	0.148617
535.630306	0.148801
535.845857	0.149555
536.061390	0.149631
536.276904	0.150266
536.492401	0.150080
536.707879	0.150365
536.923339	0.151605
537.138781	0.151252
537.354204	0.151725
537.569610	0.152493
537.784997	0.152434
538.000366	0.152469
538.215716	0.152270
538.431049	0.152938
538.646363	0.152897
538.861659	0.152550
539.076937	0.153871
539.292196	0.153539
539.507438	0.153484
539.722661	0.153681
539.937866	0.154182
540.153052	0.154337
540.368221	0.154379
540.583371	0.155015
540.798503	0.155421
541.013617	0.155229
541.228712	0.156366
541.443789	0.156538
541.658848	0.157306
541.873889	0.157680
542.088912	0.157988
542.303916	0.158452
542.518902	0.158339
542.733870	0.158606
542.948820	0.159251
543.163752	0.159481
543.378665	0.160548
543.593560	0.160667
543.808437	0.161078
544.023295	0.161631
544.238136	0.162011
544.452958	0.162562
544.667762	0.163049
544.882548	0.163288
545.097315	0.163324
545.312064	0.163114
545.526795	0.162990
545.741508	0.162843
545.956203	0.163039
546.170879	0.163270
546.385537	0.163536
546.600177	0.163596
546.814799	0.163873
547.029402	0.164033
547.243988	0.164543
547.458555	0.164627
547.673103	0.165199
547.887634	0.165735
548.102146	0.165977
548.316640	0.166565
548.531116	0.167030
548.745574	0.166958
548.960013	0.167396
549.174435	0.167142
549.388838	0.167464
549.603222	0.167382
549.817589	0.167250
550.031937	0.167365
550.246267	0.167320
550.460579	0.167713
550.674873	0.168066
550.889148	0.168713
551.103405	0.168657
551.317644	0.169160
551.531865	0.169749
551.746068	0.170083
551.960252	0.170566
552.174418	0.170967
552.388566	0.171333
552.602696	0.171646
552.816807	0.171070
553.030900	0.171836
553.244975	0.172349
553.459032	0.172538
553.673070	0.172984
553.887091	0.173176
554.101093	0.173312
554.315077	0.173320
554.529042	0.173122
554.742990	0.173571
554.956919	0.173487
555.170830	0.173562
555.384722	0.173459
555.598597	0.173267
555.812453	0.173332
556.026291	0.173484
556.240111	0.173427
556.453913	0.173707
556.667696	0.173788
556.881461	0.174456
557.095208	0.174640
557.308937	0.174933
557.522647	0.175582
557.736339	0.175833
557.950013	0.175801
558.163669	0.175730
558.377307	0.176286
558.590926	0.176467
558.804527	0.176272
559.018110	0.176234
559.231675	0.176421
559.445221	0.176592
559.658749	0.176696
559.872259	0.177395
560.085751	0.178132
560.299225	0.178172
560.512680	0.178164
560.726117	0.178399
560.939536	0.178626
561.152937	0.178886
561.366319	0.178706
561.579683	0.179002
561.793029	0.178627
562.006357	0.178710
562.219667	0.178906
562.432958	0.179509
562.646231	0.179780
562.859486	0.179856
563.072723	0.180303
563.285941	0.180726
563.499141	0.180683
563.712323	0.180718
563.925487	0.180932
564.138632	0.180968
564.351760	0.180954
564.564869	0.181144
564.777960	0.181263
564.991032	0.181111
565.204087	0.181059
565.417123	0.181367
565.630141	0.182044
565.843140	0.182250
566.056122	0.182336
566.269085	0.182343
566.482030	0.182575
566.694957	0.182941
566.907866	0.183310
567.120756	0.183645
567.333628	0.183804
567.546482	0.183780
567.759318	0.184296
567.972135	0.184635
568.184935	0.185183
568.397716	0.184943
568.610478	0.185047
568.823223	0.184943
569.035949	0.184530
569.248657	0.184829
569.461347	0.184680
569.674019	0.184453
569.886672	0.184624
570.099308	0.184324
570.311925	0.184850
570.524523	0.185388
570.737104	0.185684
570.949666	0.186649
571.162210	0.186872
571.374736	0.187286
571.587244	0.187572
571.799733	0.187781
572.012205	0.188555
572.224658	0.188594
572.437092	0.188757
572.649509	0.188683
572.861907	0.188665
573.074287	0.188531
573.286649	0.188624
573.498993	0.188431
573.711318	0.188097
573.923625	0.187935
574.135914	0.188576
574.348185	0.188320
574.560438	0.188948
574.772672	0.188987
574.984888	0.189412
575.197086	0.190000
575.409266	0.190408
575.621427	0.190989
575.833570	0.191039
576.045695	0.190874
576.257802	0.191470
576.469890	0.191267
576.681961	0.191293
576.894013	0.191603
577.106046	0.191395
577.318062	0.191514
577.530059	0.191720
577.742039	0.192046
577.954000	0.192409
578.165942	0.192593
578.377867	0.192810
578.589773	0.193439
578.801661	0.193523
579.013531	0.194100
579.225382	0.194329
579.437216	0.194338
579.649031	0.194493
579.860828	0.194317
580.072606	0.194468
580.284367	0.195077
580.496109	0.195448
580.707833	0.195716
580.919539	0.195939
581.131227	0.196219
581.342896	0.196542
581.554547	0.196610
581.766180	0.197312
581.977795	0.197455
582.189391	0.197442
582.400969	0.197241
582.612529	0.197072
582.824071	0.196986
583.035595	0.197138
583.247100	0.197328
583.458587	0.197585
583.670056	0.197455
583.881506	0.197417
584.092939	0.197421
584.304353	0.197347
584.515749	0.197740
584.727127	0.197861
584.938486	0.197689
585.149828	0.197957
585.361151	0.198385
585.572456	0.198761
585.783742	0.199257
585.995011	0.199506
586.206261	0.199920
586.417493	0.199878
586.628706	0.199981
586.839902	0.200112
587.051079	0.199859
587.262238	0.200067
587.473379	0.200001
587.684502	0.200141
587.895606	0.200395
588.106692	0.200518
588.317760	0.200821
588.528810	0.200874
588.739841	0.201029
588.950855	0.201412
589.161850	0.201325
589.372827	0.201653
589.583785	0.201648
589.794726	0.201583
590.005648	0.201488
590.216552	0.201584
590.427437	0.201676
590.638305	0.202026
590.849154	0.202317
591.059985	0.202789
591.270798	0.202594
591.481592	0.202561
591.692369	0.202704
591.903127	0.202886
592.113867	0.203071
592.324588	0.203553
592.535292	0.203745
592.745977	0.203624
592.956644	0.203431
593.167293	0.203826
593.377923	0.204277
593.588536	0.204432
593.799130	0.204836
594.009706	0.205091
594.220263	0.204946
594.430803	0.204946
594.641324	0.205674
594.851827	0.205779
595.062312	0.205827
595.272778	0.205915
595.483227	0.206078
595.693657	0.206038
595.904069	0.206264
596.114462	0.206477
596.324838	0.206581
596.535195	0.205949
596.745534	0.206232
596.955855	0.206137
597.166157	0.206207
597.376441	0.206233
597.586707	0.206297
597.796955	0.206436
598.007185	0.206760
598.217396	0.207293
598.427589	0.207803
598.637764	0.208225
598.847921	0.208810
599.058060	0.209220
599.268180	0.209568
599.478282	0.209885
599.688366	0.209955
599.898431	0.209940
600.108479	0.209793
600.318508	0.210257
600.528519	0.210100
600.738511	0.210120
600.948486	0.209906
601.158442	0.209869
601.368380	0.210024
601.578300	0.210127
601.788202	0.210512
601.998085	0.210869
602.207950	0.210648
602.417797	0.210918
602.627626	0.211012
602.837436	0.211312
603.047228	0.211535
603.257002	0.211658
603.466758	0.211864
603.676496	0.211943
603.886215	0.211880
604.095916	0.211982
604.305599	0.212044
604.515264	0.212220
604.724910	0.212700
604.934538	0.213198
605.144148	0.213285
605.353740	0.213289
605.563314	0.213427
605.772869	0.213904
605.982406	0.214327
606.191925	0.214384
606.401425	0.214702
606.610908	0.214369
606.820372	0.214225
607.029818	0.214364
607.239246	0.214744
607.448655	0.214752
607.658047	0.214336
607.867420	0.214091
608.076775	0.214319
608.286111	0.214472
608.495430	0.214527
608.704730	0.214551
608.914012	0.214766
609.123275	0.214698
609.332521	0.215165
609.541748	0.215673
609.750957	0.216107
609.960148	0.216478
610.169321	0.216392
610.378475	0.216707
610.587611	0.216872
610.796729	0.217088
611.005829	0.217274
611.214910	0.217073
611.423974	0.217066
611.633019	0.217094
611.842045	0.217003
612.051054	0.217402
612.260044	0.217651
612.469017	0.217816
612.677970	0.217981
612.886906	0.218204
613.095824	0.218494
613.304723	0.219097
613.513604	0.219277
613.722467	0.219491
613.931311	0.219082
614.140138	0.218927
614.348946	0.219303
614.557736	0.219448
614.766507	0.219578
614.975261	0.219662
615.183996	0.219510
615.392713	0.219686
615.601412	0.219822
615.810092	0.220202
616.018754	0.220479
616.227399	0.220514
616.436024	0.220700
616.644632	0.220753
616.853222	0.220898
617.061793	0.221133
617.270346	0.221272
617.478880	0.221592
617.687397	0.221707
617.895895	0.221740
618.104375	0.221737
618.312837	0.221771
618.521281	0.222039
618.729706	0.222361
618.938113	0.222656
619.146502	0.222775
619.354873	0.222415
619.563226	0.222218
619.771560	0.222485
619.979876	0.222939
620.188174	0.223343
620.396453	0.223575
620.604715	0.223602
620.812958	0.223448
621.021183	0.223827
621.229390	0.224342
621.437578	0.224894
621.645748	0.224959
621.853900	0.225120
622.062034	0.225057
622.270150	0.224894
622.478247	0.225077
622.686326	0.225200
622.894387	0.225332
623.102430	0.225286
623.310454	0.225338
623.518461	0.225579
623.726449	0.225576
623.934418	0.225898
624.142370	0.225970
624.350303	0.225873
624.558218	0.225891
624.766115	0.225689
624.973994	0.226050
625.181855	0.226294
625.389697	0.226425
625.597521	0.226387
625.805327	0.226466
626.013114	0.226838
626.220883	0.227431
626.428634	0.227784
626.636367	0.228125
626.844082	0.227994
627.051778	0.227942
627.259457	0.227875
627.467117	0.228169
627.674758	0.227949
627.882382	0.227988
628.089987	0.227788
628.297574	0.228063
628.505143	0.228134
628.712694	0.228147
628.920226	0.228464
629.127740	0.228654
629.335236	0.228612
629.542714	0.228870
629.750174	0.228990
629.957615	0.229111
630.165038	0.228896
630.372443	0.228766
630.579829	0.229158
630.787198	0.229216
630.994548	0.229712
631.201880	0.230009
631.409194	0.230271
631.616489	0.230458
631.823766	0.230673
632.031025	0.230974
632.238266	0.231466
632.445489	0.231501
632.652693	0.231618
632.859879	0.231680
633.067047	0.231889
633.274197	0.232106
633.481329	0.232044
633.688442	0.232408
633.895537	0.232590
634.102614	0.232554
634.309672	0.232679
634.516713	0.232910
634.723735	0.232688
634.930739	0.232839
635.137724	0.232753
635.344692	0.233232
635.551641	0.233098
635.758572	0.233129
635.965485	0.233289
636.172379	0.233585
636.379256	0.233882
636.586114	0.234454
636.792954	0.234519
636.999775	0.234917
637.206579	0.235044
637.413364	0.235470
637.620131	0.236059
637.826880	0.236323
638.033610	0.236564
638.240323	0.236772
638.447017	0.236726
638.653692	0.236820
638.860350	0.237034
639.066990	0.236945
639.273611	0.236749
639.480214	0.236753
639.686798	0.237010
639.893365	0.237037
640.099913	0.237229
640.306443	0.237553
640.512955	0.238143
640.719449	0.238114
640.925924	0.238842
641.132381	0.239197
641.338820	0.239119
641.545241	0.239448
641.751644	0.239928
641.958028	0.240179
642.164394	0.240390
642.370742	0.240183
642.577071	0.240273
642.783383	0.240010
642.989676	0.240207
643.195951	0.240540
643.402207	0.240589
643.608446	0.240509
643.814666	0.240698
644.020868	0.240728
644.227052	0.240842
644.433218	0.241237
644.639365	0.241526
644.845494	0.241821
645.051605	0.242021
645.257698	0.242235
645.463772	0.242242
645.669828	0.242188
645.875866	0.242485
646.081886	0.242923
646.287888	0.242924
646.493871	0.243192
646.699836	0.243385
646.905783	0.243399
647.111712	0.243487
647.317622	0.243637
647.523514	0.243969
647.729388	0.244025
647.935244	0.244097
648.141082	0.244434
648.346901	0.244335
648.552702	0.244310
648.758485	0.244489
648.964250	0.244842
649.169996	0.245310
649.375724	0.245372
649.581434	0.245851
649.787126	0.246014
649.992800	0.246240
650.198455	0.246578
650.404092	0.246748
650.609711	0.247143
650.815311	0.247178
651.020894	0.247485
651.226458	0.247610
651.432004	0.247543
651.637532	0.247807
651.843041	0.248164
652.048532	0.248321
652.254006	0.248666
652.459460	0.248724
652.664897	0.249018
652.870315	0.249088
653.075716	0.249346
653.281097	0.249568
653.486461	0.249616
653.691807	0.249645
653.897134	0.250097
654.102443	0.250396
654.307734	0.250695
654.513006	0.250748
654.718261	0.250840
654.923497	0.251047
655.128715	0.251248
655.333915	0.251628
655.539096	0.252057
655.744259	0.252136
655.949404	0.252188
656.154531	0.252195
656.359640	0.252511
656.564730	0.252828
656.769802	0.253038
656.974856	0.253268
657.179892	0.253479
657.384909	0.253271
657.589908	0.253352
657.794889	0.253635
657.999852	0.254163
658.204797	0.254106
658.409723	0.254300
658.614631	0.254694
658.819521	0.255133
659.024393	0.255260
659.229246	0.255598
659.434081	0.255988
659.638898	0.256515
659.843697	0.256343
660.048478	0.256833
660.253240	0.257151
660.457984	0.257167
660.662710	0.257099
660.867417	0.257418
661.072107	0.257478
661.276778	0.257677
661.481431	0.257428
661.686066	0.257752
661.890682	0.257936
662.095281	0.257964
662.299861	0.258244
662.504422	0.258558
662.708966	0.258805
662.913491	0.259331
663.117999	0.259328
663.322488	0.259623
663.526958	0.259813
663.731411	0.260057
663.935845	0.260389
664.140261	0.260759
664.344659	0.260948
664.549038	0.261448
664.753400	0.261949
664.957743	0.262429
665.162068	0.262672
665.366375	0.262817
665.570663	0.262893
665.774933	0.263116
665.979185	0.263189
666.183419	0.263412
666.387635	0.263239
666.591832	0.263042
666.796011	0.263104
667.000172	0.263354
667.204315	0.263610
667.408439	0.263810
667.612545	0.263982
667.816634	0.264063
668.020703	0.264152
668.224755	0.264376
668.428788	0.264744
668.632803	0.265218
668.836800	0.265448
669.040779	0.266017
669.244739	0.266444
669.448681	0.266847
669.652605	0.267429
669.856511	0.267866
670.060399	0.268134
670.264268	0.268095
670.468119	0.268283
670.671952	0.268471
670.875767	0.268587
671.079563	0.268624
671.283341	0.268483
671.487101	0.268470
671.690843	0.268648
671.894567	0.268821
672.098272	0.269320
672.301959	0.269706
672.505628	0.269892
672.709278	0.270014
672.912911	0.270158
673.116525	0.270721
673.320121	0.271208
673.523699	0.271322
673.727258	0.271581
673.930799	0.271656
674.134322	0.271838
674.337827	0.272112
674.541314	0.272515
674.744782	0.272854
674.948232	0.272911
675.151664	0.272872
675.355078	0.273137
675.558474	0.273317
675.761851	0.273689
675.965210	0.273345
676.168551	0.273727
676.371873	0.273743
676.575178	0.274117
676.778464	0.274370
676.981732	0.274552
677.184981	0.274810
677.388213	0.275257
677.591426	0.275362
677.794621	0.275901
677.997798	0.275906
678.200956	0.276206
678.404097	0.276228
678.607219	0.276576
678.810323	0.277112
679.013408	0.277350
679.216476	0.277337
679.419525	0.277569
679.622556	0.277753
679.825569	0.277900
680.028563	0.277879
680.231540	0.278272
680.434498	0.278158
680.637438	0.278028
680.840359	0.278314
681.043263	0.278848
681.246148	0.279081
681.449015	0.279183
681.651864	0.279454
681.854694	0.279624
682.057506	0.279915
682.260301	0.280029
682.463076	0.280246
682.665834	0.280457
682.868573	0.280546
683.071295	0.280683
683.273998	0.281150
683.476682	0.281308
683.679349	0.281749
683.881997	0.281745
684.084627	0.282509
684.287239	0.282665
684.489833	0.282722
684.692408	0.282711
684.894965	0.282821
685.097504	0.282764
685.300025	0.283229
685.502527	0.283518
685.705012	0.283769
685.907478	0.283584
686.109925	0.283569
686.312355	0.283863
686.514766	0.284228
686.717159	0.284334
686.919534	0.284687
687.121891	0.284771
687.324230	0.284938
687.526550	0.285011
687.728852	0.285206
687.931136	0.285912
688.133401	0.285896
688.335649	0.285781
688.537878	0.286029
688.740089	0.286153
688.942281	0.286084
689.144456	0.286216
689.346612	0.286447
689.548750	0.286787
689.750870	0.286678
689.952971	0.286984
690.155055	0.287448
690.357120	0.287690
690.559167	0.288172
690.761195	0.288466
690.963206	0.288620
691.165198	0.288841
691.367172	0.289014
691.569128	0.289320
691.771065	0.289680
691.972984	0.289922
692.174885	0.290108
692.376768	0.290062
692.578633	0.290351
692.780479	0.290403
692.982308	0.290614
693.184118	0.290666
693.385909	0.290669
