sample name	sample
index	962
start time	 04-12-2021  04:14:59 PM


Wavelength (nm)	Absorbance
494.344910	-0.123122
494.563924	-0.123122
494.782919	-0.123122
495.001897	0.011640
495.220856	-0.067334
495.439797	-0.054016
495.658719	-0.045836
495.877624	-0.019492
496.096510	-0.039267
496.315378	-0.043115
496.534227	-0.042705
496.753059	-0.028592
496.971872	-0.016657
497.190667	0.136949
497.409444	0.160721
497.628203	0.170900
497.846943	0.170585
498.065665	0.173665
498.284369	0.173398
498.503055	0.174772
498.721723	0.174105
498.940372	0.173938
499.159003	0.174820
499.377616	0.175080
499.596210	0.174531
499.814787	0.175240
500.033345	0.175596
500.251885	0.176172
500.470406	0.176361
500.688910	0.177213
500.907395	0.177363
501.125862	0.176848
501.344311	0.176769
501.562742	0.175921
501.781154	0.176342
501.999548	0.176535
502.217924	0.176643
502.436282	0.176395
502.654621	0.176595
502.872942	0.177131
503.091245	0.177236
503.309530	0.177362
503.527797	0.176856
503.746045	0.176868
503.964275	0.175916
504.182487	0.176420
504.400681	0.177626
504.618856	0.177984
504.837013	0.178353
505.055152	0.177946
505.273273	0.178086
505.491376	0.178895
505.709460	0.178932
505.927526	0.180164
506.145574	0.179102
506.363604	0.178801
506.581615	0.179077
506.799608	0.178984
507.017583	0.179416
507.235540	0.180267
507.453478	0.181076
507.671399	0.181022
507.889301	0.180875
508.107185	0.182168
508.325050	0.182729
508.542898	0.183364
508.760727	0.183631
508.978538	0.184343
509.196330	0.183579
509.414105	0.184089
509.631861	0.184442
509.849599	0.185176
510.067319	0.185469
510.285021	0.185312
510.502704	0.185624
510.720369	0.185336
510.938016	0.185235
511.155645	0.185356
511.373255	0.185141
511.590848	0.185201
511.808422	0.185116
512.025977	0.186020
512.243515	0.186579
512.461034	0.185922
512.678536	0.186169
512.896018	0.187375
513.113483	0.188921
513.330930	0.189493
513.548358	0.190694
513.765768	0.191268
513.983160	0.190367
514.200533	0.190172
514.417889	0.190945
514.635226	0.191081
514.852545	0.190222
515.069845	0.189828
515.287128	0.189956
515.504392	0.189446
515.721638	0.189294
515.938866	0.190062
516.156075	0.190585
516.373267	0.190532
516.590440	0.192231
516.807594	0.192526
517.024731	0.192516
517.241850	0.193157
517.458950	0.193397
517.676032	0.194112
517.893095	0.194416
518.110141	0.194966
518.327168	0.195040
518.544177	0.195240
518.761168	0.196261
518.978141	0.197202
519.195095	0.197261
519.412031	0.197474
519.628949	0.197921
519.845849	0.198055
520.062731	0.197736
520.279594	0.198149
520.496439	0.197931
520.713266	0.197644
520.930074	0.197756
521.146865	0.198097
521.363637	0.198886
521.580391	0.198710
521.797127	0.199512
522.013844	0.199927
522.230543	0.200434
522.447224	0.200928
522.663887	0.201318
522.880532	0.201377
523.097158	0.201457
523.313766	0.202395
523.530356	0.202962
523.746928	0.202415
523.963481	0.202795
524.180017	0.203665
524.396534	0.203138
524.613032	0.203792
524.829513	0.204539
525.045975	0.204789
525.262420	0.204657
525.478845	0.205252
525.695253	0.205917
525.911643	0.206203
526.128014	0.206045
526.344367	0.207310
526.560702	0.207601
526.777018	0.207774
526.993316	0.208675
527.209597	0.209075
527.425858	0.209307
527.642102	0.209881
527.858328	0.210633
528.074535	0.211172
528.290724	0.212140
528.506894	0.212694
528.723047	0.213464
528.939181	0.214114
529.155297	0.214149
529.371395	0.213770
529.587475	0.213656
529.803536	0.214334
530.019579	0.215042
530.235604	0.215072
530.451611	0.214800
530.667600	0.215331
530.883570	0.215089
531.099522	0.215953
531.315456	0.217104
531.531372	0.218225
531.747269	0.218550
531.963148	0.219093
532.179009	0.218910
532.394852	0.220430
532.610676	0.220881
532.826482	0.221513
533.042271	0.221826
533.258040	0.222367
533.473792	0.222606
533.689525	0.223102
533.905240	0.223946
534.120937	0.224427
534.336616	0.224337
534.552277	0.223765
534.767919	0.223780
534.983543	0.223560
535.199149	0.223471
535.414736	0.223723
535.630306	0.223814
535.845857	0.223764
536.061390	0.224314
536.276904	0.225209
536.492401	0.225817
536.707879	0.226547
536.923339	0.227866
537.138781	0.228886
537.354204	0.229481
537.569610	0.229498
537.784997	0.229818
538.000366	0.229984
538.215716	0.230437
538.431049	0.230903
538.646363	0.231344
538.861659	0.231221
539.076937	0.230610
539.292196	0.231568
539.507438	0.231995
539.722661	0.232052
539.937866	0.231951
540.153052	0.231523
540.368221	0.231612
540.583371	0.231674
540.798503	0.232332
541.013617	0.233360
541.228712	0.233349
541.443789	0.233722
541.658848	0.234192
541.873889	0.235051
542.088912	0.235715
542.303916	0.236588
542.518902	0.236649
542.733870	0.236556
542.948820	0.236920
543.163752	0.236840
543.378665	0.237359
543.593560	0.237589
543.808437	0.238243
544.023295	0.238403
544.238136	0.238659
544.452958	0.239147
544.667762	0.239816
544.882548	0.240236
545.097315	0.240552
545.312064	0.240674
545.526795	0.240570
545.741508	0.241078
545.956203	0.241140
546.170879	0.241331
546.385537	0.241655
546.600177	0.241694
546.814799	0.241303
547.029402	0.241377
547.243988	0.241846
547.458555	0.242506
547.673103	0.242304
547.887634	0.242542
548.102146	0.242933
548.316640	0.243633
548.531116	0.243927
548.745574	0.244542
548.960013	0.244874
549.174435	0.244644
549.388838	0.244645
549.603222	0.244958
549.817589	0.246018
550.031937	0.246481
550.246267	0.246545
550.460579	0.246829
550.674873	0.246738
550.889148	0.247322
551.103405	0.247785
551.317644	0.248175
551.531865	0.248350
551.746068	0.247880
551.960252	0.247781
552.174418	0.248447
552.388566	0.248682
552.602696	0.249233
552.816807	0.249128
553.030900	0.249112
553.244975	0.248932
553.459032	0.249241
553.673070	0.249737
553.887091	0.249962
554.101093	0.250013
554.315077	0.250517
554.529042	0.250961
554.742990	0.251527
554.956919	0.252618
555.170830	0.253423
555.384722	0.253698
555.598597	0.253823
555.812453	0.254669
556.026291	0.254584
556.240111	0.254150
556.453913	0.254447
556.667696	0.254741
556.881461	0.254433
557.095208	0.254564
557.308937	0.254980
557.522647	0.255123
557.736339	0.255053
557.950013	0.255495
558.163669	0.256264
558.377307	0.256281
558.590926	0.256326
558.804527	0.257111
559.018110	0.257218
559.231675	0.257251
559.445221	0.257458
559.658749	0.257333
559.872259	0.257256
560.085751	0.257286
560.299225	0.257562
560.512680	0.257829
560.726117	0.257878
560.939536	0.258266
561.152937	0.258595
561.366319	0.258829
561.579683	0.259189
561.793029	0.259349
562.006357	0.259719
562.219667	0.260206
562.432958	0.260468
562.646231	0.260284
562.859486	0.260268
563.072723	0.260410
563.285941	0.260298
563.499141	0.260314
563.712323	0.260491
563.925487	0.260498
564.138632	0.259900
564.351760	0.260161
564.564869	0.260337
564.777960	0.260313
564.991032	0.260157
565.204087	0.260595
565.417123	0.260745
565.630141	0.261226
565.843140	0.261500
566.056122	0.262113
566.269085	0.262196
566.482030	0.262226
566.694957	0.262553
566.907866	0.262853
567.120756	0.263402
567.333628	0.263830
567.546482	0.263779
567.759318	0.264098
567.972135	0.264357
568.184935	0.264555
568.397716	0.265124
568.610478	0.265786
568.823223	0.266386
569.035949	0.266881
569.248657	0.266995
569.461347	0.267112
569.674019	0.266982
569.886672	0.267133
570.099308	0.267239
570.311925	0.267732
570.524523	0.267288
570.737104	0.267328
570.949666	0.266892
571.162210	0.266904
571.374736	0.267179
571.587244	0.267607
571.799733	0.267795
572.012205	0.268083
572.224658	0.267869
572.437092	0.268471
572.649509	0.268302
572.861907	0.268599
573.074287	0.268690
573.286649	0.269119
573.498993	0.269763
573.711318	0.270230
573.923625	0.270126
574.135914	0.270229
574.348185	0.270800
574.560438	0.271312
574.772672	0.271219
574.984888	0.271636
575.197086	0.271350
575.409266	0.271064
575.621427	0.270529
575.833570	0.270679
576.045695	0.270725
576.257802	0.270905
576.469890	0.271188
576.681961	0.271482
576.894013	0.271616
577.106046	0.271984
577.318062	0.272056
577.530059	0.272604
577.742039	0.272846
577.954000	0.273101
578.165942	0.272891
578.377867	0.272652
578.589773	0.272814
578.801661	0.273386
579.013531	0.273426
579.225382	0.273244
579.437216	0.273324
579.649031	0.273734
579.860828	0.273965
580.072606	0.274358
580.284367	0.274685
580.496109	0.274924
580.707833	0.274577
580.919539	0.275113
581.131227	0.275644
581.342896	0.275851
581.554547	0.276031
581.766180	0.275904
581.977795	0.275483
582.189391	0.275451
582.400969	0.275725
582.612529	0.276181
582.824071	0.276116
583.035595	0.276153
583.247100	0.276025
583.458587	0.275980
583.670056	0.276269
583.881506	0.276775
584.092939	0.277340
584.304353	0.277095
584.515749	0.277678
584.727127	0.278121
584.938486	0.278347
585.149828	0.278821
585.361151	0.279347
585.572456	0.279404
585.783742	0.279187
585.995011	0.279362
586.206261	0.279905
586.417493	0.279943
586.628706	0.279877
586.839902	0.280367
587.051079	0.280515
587.262238	0.280193
587.473379	0.280906
587.684502	0.281680
587.895606	0.282368
588.106692	0.282695
588.317760	0.282580
588.528810	0.283052
588.739841	0.283205
588.950855	0.283665
589.161850	0.284107
589.372827	0.284438
589.583785	0.284369
589.794726	0.283879
590.005648	0.283792
590.216552	0.283558
590.427437	0.283367
590.638305	0.283532
590.849154	0.283371
591.059985	0.283211
591.270798	0.282985
591.481592	0.282801
591.692369	0.283132
591.903127	0.283512
592.113867	0.284197
592.324588	0.284502
592.535292	0.284582
592.745977	0.284876
592.956644	0.285305
593.167293	0.285932
593.377923	0.286485
593.588536	0.286501
593.799130	0.286712
594.009706	0.286891
594.220263	0.286950
594.430803	0.287205
594.641324	0.287152
594.851827	0.287340
595.062312	0.287145
595.272778	0.287714
595.483227	0.288120
595.693657	0.287843
595.904069	0.287532
596.114462	0.288067
596.324838	0.288075
596.535195	0.289101
596.745534	0.289306
596.955855	0.289545
597.166157	0.289214
597.376441	0.289625
597.586707	0.290253
597.796955	0.290940
598.007185	0.291146
598.217396	0.291249
598.427589	0.290764
598.637764	0.291161
598.847921	0.291552
599.058060	0.292110
599.268180	0.291659
599.478282	0.291960
599.688366	0.291943
599.898431	0.292127
600.108479	0.292412
600.318508	0.292812
600.528519	0.293164
600.738511	0.293118
600.948486	0.293270
601.158442	0.293544
601.368380	0.293835
601.578300	0.294276
601.788202	0.294342
601.998085	0.294535
602.207950	0.294465
602.417797	0.294391
602.627626	0.294569
602.837436	0.294517
603.047228	0.294261
603.257002	0.294276
603.466758	0.294502
603.676496	0.294743
603.886215	0.294897
604.095916	0.295095
604.305599	0.295535
604.515264	0.295901
604.724910	0.296007
604.934538	0.296916
605.144148	0.296946
605.353740	0.296569
605.563314	0.296398
605.772869	0.296873
605.982406	0.297088
606.191925	0.296683
606.401425	0.296625
606.610908	0.297026
606.820372	0.297088
607.029818	0.297490
607.239246	0.298023
607.448655	0.298182
607.658047	0.297993
607.867420	0.298464
608.076775	0.299060
608.286111	0.299412
608.495430	0.299059
608.704730	0.298805
608.914012	0.298965
609.123275	0.298898
609.332521	0.299347
609.541748	0.299500
609.750957	0.299475
609.960148	0.299650
610.169321	0.299628
610.378475	0.300198
610.587611	0.300679
610.796729	0.300870
611.005829	0.300902
611.214910	0.301102
611.423974	0.301714
611.633019	0.302086
611.842045	0.302233
612.051054	0.302529
612.260044	0.302945
612.469017	0.303149
612.677970	0.303117
612.886906	0.303836
613.095824	0.304050
613.304723	0.303996
613.513604	0.303887
613.722467	0.303773
613.931311	0.303434
614.140138	0.303248
614.348946	0.303430
614.557736	0.303671
614.766507	0.303441
614.975261	0.303371
615.183996	0.303561
615.392713	0.303986
615.601412	0.303898
615.810092	0.304465
616.018754	0.304810
616.227399	0.304917
616.436024	0.304727
616.644632	0.304906
616.853222	0.304860
617.061793	0.304779
617.270346	0.304367
617.478880	0.304891
617.687397	0.305201
617.895895	0.304985
618.104375	0.305204
618.312837	0.305223
618.521281	0.305288
618.729706	0.305557
618.938113	0.305801
619.146502	0.306191
619.354873	0.305770
619.563226	0.305944
619.771560	0.306488
619.979876	0.306754
620.188174	0.307262
620.396453	0.307394
620.604715	0.307479
620.812958	0.307535
621.021183	0.307848
621.229390	0.308512
621.437578	0.308230
621.645748	0.308181
621.853900	0.308167
622.062034	0.308238
622.270150	0.308609
622.478247	0.309259
622.686326	0.309450
622.894387	0.309582
623.102430	0.309986
623.310454	0.310666
623.518461	0.311181
623.726449	0.311500
623.934418	0.311671
624.142370	0.311816
624.350303	0.311677
624.558218	0.312117
624.766115	0.312228
624.973994	0.312312
625.181855	0.312208
625.389697	0.312173
625.597521	0.312310
625.805327	0.312493
626.013114	0.312828
626.220883	0.313019
626.428634	0.312952
626.636367	0.312721
626.844082	0.312734
627.051778	0.313012
627.259457	0.313261
627.467117	0.313346
627.674758	0.313393
627.882382	0.313207
628.089987	0.313280
628.297574	0.313295
628.505143	0.313970
628.712694	0.313950
628.920226	0.314145
629.127740	0.314071
629.335236	0.314224
629.542714	0.314229
629.750174	0.314301
629.957615	0.314581
630.165038	0.314681
630.372443	0.314623
630.579829	0.314724
630.787198	0.314827
630.994548	0.314970
631.201880	0.314931
631.409194	0.315225
631.616489	0.315519
631.823766	0.315603
632.031025	0.316084
632.238266	0.316310
632.445489	0.316727
632.652693	0.316992
632.859879	0.317313
633.067047	0.317743
633.274197	0.317990
633.481329	0.318347
633.688442	0.318566
633.895537	0.319032
634.102614	0.319172
634.309672	0.319251
634.516713	0.319284
634.723735	0.319229
634.930739	0.319494
635.137724	0.319780
635.344692	0.319615
635.551641	0.320009
635.758572	0.319541
635.965485	0.319673
636.172379	0.319976
636.379256	0.320036
636.586114	0.320498
636.792954	0.320521
636.999775	0.320913
637.206579	0.321462
637.413364	0.321536
637.620131	0.321990
637.826880	0.322271
638.033610	0.322445
638.240323	0.322950
638.447017	0.322747
638.653692	0.322792
638.860350	0.322858
639.066990	0.322781
639.273611	0.322874
639.480214	0.323002
639.686798	0.323203
639.893365	0.323310
640.099913	0.323407
640.306443	0.324072
640.512955	0.324125
640.719449	0.324396
640.925924	0.324700
641.132381	0.324797
641.338820	0.324744
641.545241	0.324911
641.751644	0.325203
641.958028	0.325118
642.164394	0.325182
642.370742	0.325342
642.577071	0.325288
642.783383	0.325347
642.989676	0.325611
643.195951	0.326070
643.402207	0.326231
643.608446	0.326433
643.814666	0.326478
644.020868	0.326474
644.227052	0.326993
644.433218	0.327313
644.639365	0.327368
644.845494	0.327617
645.051605	0.327498
645.257698	0.327790
645.463772	0.327805
645.669828	0.328285
645.875866	0.328520
646.081886	0.328507
646.287888	0.328430
646.493871	0.328801
646.699836	0.328783
646.905783	0.329264
647.111712	0.329474
647.317622	0.329721
647.523514	0.330148
647.729388	0.330562
647.935244	0.330919
648.141082	0.331306
648.346901	0.331769
648.552702	0.331851
648.758485	0.332046
648.964250	0.331867
649.169996	0.332309
649.375724	0.332130
649.581434	0.332050
649.787126	0.332454
649.992800	0.332498
650.198455	0.332589
650.404092	0.333116
650.609711	0.333505
650.815311	0.333979
651.020894	0.333903
651.226458	0.334424
651.432004	0.334872
651.637532	0.335036
651.843041	0.335694
652.048532	0.335656
652.254006	0.335735
652.459460	0.335918
652.664897	0.336391
652.870315	0.336953
653.075716	0.337047
653.281097	0.337162
653.486461	0.337414
653.691807	0.337502
653.897134	0.338055
654.102443	0.338497
654.307734	0.338758
654.513006	0.338824
654.718261	0.339093
654.923497	0.339160
655.128715	0.339330
655.333915	0.339566
655.539096	0.339959
655.744259	0.340362
655.949404	0.340789
656.154531	0.340905
656.359640	0.341182
656.564730	0.341352
656.769802	0.341817
656.974856	0.342112
657.179892	0.342191
657.384909	0.342264
657.589908	0.342113
657.794889	0.342378
657.999852	0.342790
658.204797	0.342787
658.409723	0.342934
658.614631	0.343296
658.819521	0.343513
659.024393	0.343830
659.229246	0.344135
659.434081	0.344456
659.638898	0.344511
659.843697	0.344375
660.048478	0.344899
660.253240	0.344991
660.457984	0.345137
660.662710	0.345302
660.867417	0.345505
661.072107	0.345390
661.276778	0.345577
661.481431	0.345554
661.686066	0.345765
661.890682	0.345914
662.095281	0.346198
662.299861	0.346051
662.504422	0.346364
662.708966	0.346495
662.913491	0.346657
663.117999	0.347043
663.322488	0.347583
663.526958	0.348032
663.731411	0.348328
663.935845	0.348600
664.140261	0.349392
664.344659	0.349877
664.549038	0.350410
664.753400	0.350892
664.957743	0.351187
665.162068	0.351277
665.366375	0.351607
665.570663	0.351745
665.774933	0.351797
665.979185	0.352067
666.183419	0.352200
666.387635	0.352271
666.591832	0.352540
666.796011	0.352604
667.000172	0.352970
667.204315	0.353150
667.408439	0.353246
667.612545	0.353454
667.816634	0.353326
668.020703	0.353479
668.224755	0.353769
668.428788	0.353998
668.632803	0.354496
668.836800	0.354465
669.040779	0.354570
669.244739	0.354965
669.448681	0.355220
669.652605	0.355312
669.856511	0.355512
670.060399	0.355666
670.264268	0.355944
670.468119	0.355850
670.671952	0.356101
670.875767	0.356225
671.079563	0.356596
671.283341	0.356846
671.487101	0.357402
671.690843	0.357792
671.894567	0.357745
672.098272	0.358077
672.301959	0.358668
672.505628	0.358829
672.709278	0.359250
672.912911	0.359277
673.116525	0.359508
673.320121	0.359445
673.523699	0.359775
673.727258	0.359908
673.930799	0.360085
674.134322	0.359982
674.337827	0.360347
674.541314	0.360933
674.744782	0.361323
674.948232	0.361623
675.151664	0.361876
675.355078	0.361765
675.558474	0.362522
675.761851	0.362819
675.965210	0.363175
676.168551	0.363546
676.371873	0.363336
676.575178	0.363197
676.778464	0.363405
676.981732	0.363828
677.184981	0.363902
677.388213	0.363985
677.591426	0.363867
677.794621	0.364129
677.997798	0.363994
678.200956	0.364267
678.404097	0.364780
678.607219	0.365270
678.810323	0.365545
679.013408	0.366150
679.216476	0.366236
679.419525	0.366539
679.622556	0.366693
679.825569	0.367196
680.028563	0.367489
680.231540	0.367488
680.434498	0.367546
680.637438	0.367444
680.840359	0.367665
681.043263	0.368037
681.246148	0.368227
681.449015	0.368307
681.651864	0.368414
681.854694	0.368606
682.057506	0.368989
682.260301	0.369264
682.463076	0.369788
682.665834	0.369959
682.868573	0.370151
683.071295	0.370463
683.273998	0.370766
683.476682	0.370996
683.679349	0.371380
683.881997	0.371536
684.084627	0.371724
684.287239	0.371841
684.489833	0.371934
684.692408	0.372067
684.894965	0.372393
685.097504	0.372882
685.300025	0.373017
685.502527	0.372841
685.705012	0.373088
685.907478	0.373295
686.109925	0.373520
686.312355	0.373747
686.514766	0.374148
686.717159	0.374308
686.919534	0.374420
687.121891	0.374690
687.324230	0.375334
687.526550	0.375775
687.728852	0.375794
687.931136	0.376235
688.133401	0.376441
688.335649	0.376475
688.537878	0.376530
688.740089	0.376689
688.942281	0.377116
689.144456	0.376989
689.346612	0.376847
689.548750	0.377248
689.750870	0.377444
689.952971	0.377845
690.155055	0.378083
690.357120	0.378301
690.559167	0.378691
690.761195	0.378952
690.963206	0.379241
691.165198	0.379375
691.367172	0.379402
691.569128	0.379028
691.771065	0.379041
691.972984	0.379241
692.174885	0.379728
692.376768	0.379609
692.578633	0.379835
692.780479	0.379818
692.982308	0.380070
693.184118	0.380777
693.385909	0.381169
