sample name	sample
index	396
start time	 03-08-2021  10:11:17 AM


Wavelength (nm)	Absorbance
494.344910	-0.039892
494.563924	-0.039892
494.782919	-0.039892
495.001897	-0.036882
495.220856	-0.058433
495.439797	-0.059660
495.658719	-0.062101
495.877624	-0.050569
496.096510	-0.048516
496.315378	-0.054801
496.534227	-0.050608
496.753059	-0.032417
496.971872	-0.001171
497.190667	0.095219
497.409444	0.125157
497.628203	0.132689
497.846943	0.134668
498.065665	0.138023
498.284369	0.141798
498.503055	0.142528
498.721723	0.143058
498.940372	0.144280
499.159003	0.144305
499.377616	0.145064
499.596210	0.145467
499.814787	0.146981
500.033345	0.147217
500.251885	0.146712
500.470406	0.147819
500.688910	0.147443
500.907395	0.146989
501.125862	0.147349
501.344311	0.147032
501.562742	0.148009
501.781154	0.148279
501.999548	0.148490
502.217924	0.149555
502.436282	0.149322
502.654621	0.151100
502.872942	0.150724
503.091245	0.150826
503.309530	0.151551
503.527797	0.151367
503.746045	0.150650
503.964275	0.150836
504.182487	0.150500
504.400681	0.149927
504.618856	0.149172
504.837013	0.150710
505.055152	0.150629
505.273273	0.150828
505.491376	0.151330
505.709460	0.151769
505.927526	0.152846
506.145574	0.152969
506.363604	0.152632
506.581615	0.153450
506.799608	0.152011
507.017583	0.152240
507.235540	0.151979
507.453478	0.152407
507.671399	0.152784
507.889301	0.151930
508.107185	0.151578
508.325050	0.152481
508.542898	0.153450
508.760727	0.155384
508.978538	0.155410
509.196330	0.155368
509.414105	0.154644
509.631861	0.154022
509.849599	0.154084
510.067319	0.155151
510.285021	0.155013
510.502704	0.154403
510.720369	0.153631
510.938016	0.153876
511.155645	0.154119
511.373255	0.154613
511.590848	0.155234
511.808422	0.155691
512.025977	0.155767
512.243515	0.156198
512.461034	0.156966
512.678536	0.157294
512.896018	0.157884
513.113483	0.158314
513.330930	0.158670
513.548358	0.159429
513.765768	0.159730
513.983160	0.160665
514.200533	0.161627
514.417889	0.161514
514.635226	0.161780
514.852545	0.161573
515.069845	0.162514
515.287128	0.163233
515.504392	0.162883
515.721638	0.162983
515.938866	0.163115
516.156075	0.162702
516.373267	0.163274
516.590440	0.164313
516.807594	0.164909
517.024731	0.164209
517.241850	0.164850
517.458950	0.164891
517.676032	0.165748
517.893095	0.165707
518.110141	0.166527
518.327168	0.165566
518.544177	0.165582
518.761168	0.167051
518.978141	0.167586
519.195095	0.166740
519.412031	0.167466
519.628949	0.167754
519.845849	0.168174
520.062731	0.169091
520.279594	0.170318
520.496439	0.170152
520.713266	0.169446
520.930074	0.170280
521.146865	0.171792
521.363637	0.172206
521.580391	0.172744
521.797127	0.172368
522.013844	0.171369
522.230543	0.171214
522.447224	0.172351
522.663887	0.172696
522.880532	0.172429
523.097158	0.171813
523.313766	0.171499
523.530356	0.172160
523.746928	0.173415
523.963481	0.174137
524.180017	0.174397
524.396534	0.173804
524.613032	0.174382
524.829513	0.175284
525.045975	0.175798
525.262420	0.176423
525.478845	0.176326
525.695253	0.176232
525.911643	0.176166
526.128014	0.176301
526.344367	0.177030
526.560702	0.176712
526.777018	0.176608
526.993316	0.176714
527.209597	0.176783
527.425858	0.177168
527.642102	0.177611
527.858328	0.178066
528.074535	0.179053
528.290724	0.178519
528.506894	0.179429
528.723047	0.180158
528.939181	0.180363
529.155297	0.181047
529.371395	0.180667
529.587475	0.180614
529.803536	0.181231
530.019579	0.181345
530.235604	0.182305
530.451611	0.181984
530.667600	0.181890
530.883570	0.182534
531.099522	0.182941
531.315456	0.183184
531.531372	0.183813
531.747269	0.183657
531.963148	0.183913
532.179009	0.184457
532.394852	0.185599
532.610676	0.186259
532.826482	0.186805
533.042271	0.187166
533.258040	0.187534
533.473792	0.187493
533.689525	0.187891
533.905240	0.188143
534.120937	0.188959
534.336616	0.189058
534.552277	0.188566
534.767919	0.188712
534.983543	0.188824
535.199149	0.189964
535.414736	0.190979
535.630306	0.191453
535.845857	0.192219
536.061390	0.192034
536.276904	0.192167
536.492401	0.193003
536.707879	0.193454
536.923339	0.194261
537.138781	0.194342
537.354204	0.194515
537.569610	0.195037
537.784997	0.194860
538.000366	0.194795
538.215716	0.195123
538.431049	0.195714
538.646363	0.195961
538.861659	0.195876
539.076937	0.196180
539.292196	0.196219
539.507438	0.196459
539.722661	0.197096
539.937866	0.197203
540.153052	0.197853
540.368221	0.197493
540.583371	0.198086
540.798503	0.198726
541.013617	0.198629
541.228712	0.198879
541.443789	0.199566
541.658848	0.200237
541.873889	0.201429
542.088912	0.201398
542.303916	0.202336
542.518902	0.202525
542.733870	0.202632
542.948820	0.202958
543.163752	0.203457
543.378665	0.203350
543.593560	0.203259
543.808437	0.202834
544.023295	0.203217
544.238136	0.203418
544.452958	0.203351
544.667762	0.203739
544.882548	0.203744
545.097315	0.203946
545.312064	0.204453
545.526795	0.204484
545.741508	0.205388
545.956203	0.205888
546.170879	0.206246
546.385537	0.206369
546.600177	0.206505
546.814799	0.207050
547.029402	0.207288
547.243988	0.207233
547.458555	0.207470
547.673103	0.207523
547.887634	0.207403
548.102146	0.207453
548.316640	0.208136
548.531116	0.208427
548.745574	0.208393
548.960013	0.208586
549.174435	0.208977
549.388838	0.209692
549.603222	0.210036
549.817589	0.210404
550.031937	0.210213
550.246267	0.210654
550.460579	0.210777
550.674873	0.211538
550.889148	0.211536
551.103405	0.211729
551.317644	0.211834
551.531865	0.211909
551.746068	0.212368
551.960252	0.212745
552.174418	0.212819
552.388566	0.213510
552.602696	0.213481
552.816807	0.213767
553.030900	0.214105
553.244975	0.214295
553.459032	0.214278
553.673070	0.214357
553.887091	0.214744
554.101093	0.214501
554.315077	0.214579
554.529042	0.214813
554.742990	0.215247
554.956919	0.215254
555.170830	0.215605
555.384722	0.216039
555.598597	0.216148
555.812453	0.216504
556.026291	0.216952
556.240111	0.217113
556.453913	0.217350
556.667696	0.217898
556.881461	0.217989
557.095208	0.217895
557.308937	0.218092
557.522647	0.218189
557.736339	0.218515
557.950013	0.218607
558.163669	0.218484
558.377307	0.218614
558.590926	0.218425
558.804527	0.218476
559.018110	0.218883
559.231675	0.219283
559.445221	0.219572
559.658749	0.219383
559.872259	0.219675
560.085751	0.219953
560.299225	0.220365
560.512680	0.220654
560.726117	0.220808
560.939536	0.221015
561.152937	0.220903
561.366319	0.221276
561.579683	0.221535
561.793029	0.221600
562.006357	0.222008
562.219667	0.222365
562.432958	0.222298
562.646231	0.222971
562.859486	0.223002
563.072723	0.222850
563.285941	0.222589
563.499141	0.223014
563.712323	0.223089
563.925487	0.223207
564.138632	0.222869
564.351760	0.223373
564.564869	0.223489
564.777960	0.223270
564.991032	0.223932
565.204087	0.224211
565.417123	0.224074
565.630141	0.224418
565.843140	0.224459
566.056122	0.224862
566.269085	0.224840
566.482030	0.225093
566.694957	0.225546
566.907866	0.225639
567.120756	0.226139
567.333628	0.226497
567.546482	0.227256
567.759318	0.227471
567.972135	0.227527
568.184935	0.227797
568.397716	0.228091
568.610478	0.228835
568.823223	0.229110
569.035949	0.229146
569.248657	0.228959
569.461347	0.228442
569.674019	0.228680
569.886672	0.228913
570.099308	0.229126
570.311925	0.229355
570.524523	0.228844
570.737104	0.229133
570.949666	0.229085
571.162210	0.229876
571.374736	0.230432
571.587244	0.230534
571.799733	0.230616
572.012205	0.230666
572.224658	0.230555
572.437092	0.231145
572.649509	0.230905
572.861907	0.231560
573.074287	0.231643
573.286649	0.231961
573.498993	0.232539
573.711318	0.232635
573.923625	0.232567
574.135914	0.232646
574.348185	0.232525
574.560438	0.233036
574.772672	0.232929
574.984888	0.233010
575.197086	0.232782
575.409266	0.232611
575.621427	0.232963
575.833570	0.233459
576.045695	0.233814
576.257802	0.234255
576.469890	0.234555
576.681961	0.234386
576.894013	0.234507
577.106046	0.234757
577.318062	0.234970
577.530059	0.235115
577.742039	0.235137
577.954000	0.235465
578.165942	0.235747
578.377867	0.235933
578.589773	0.236198
578.801661	0.236428
579.013531	0.236448
579.225382	0.236640
579.437216	0.237073
579.649031	0.237301
579.860828	0.237504
580.072606	0.237278
580.284367	0.237178
580.496109	0.237576
580.707833	0.237572
580.919539	0.237805
581.131227	0.237792
581.342896	0.237919
581.554547	0.238152
581.766180	0.237988
581.977795	0.238251
582.189391	0.238723
582.400969	0.238631
582.612529	0.238852
582.824071	0.239097
583.035595	0.239591
583.247100	0.239813
583.458587	0.240560
583.670056	0.240758
583.881506	0.241368
584.092939	0.241254
584.304353	0.241531
584.515749	0.241653
584.727127	0.241727
584.938486	0.241682
585.149828	0.241752
585.361151	0.241504
585.572456	0.241897
585.783742	0.241703
585.995011	0.242197
586.206261	0.242154
586.417493	0.242497
586.628706	0.242875
586.839902	0.242718
587.051079	0.242703
587.262238	0.242809
587.473379	0.243267
587.684502	0.243643
587.895606	0.243678
588.106692	0.244392
588.317760	0.244627
588.528810	0.244490
588.739841	0.244872
588.950855	0.245181
589.161850	0.244893
589.372827	0.244615
589.583785	0.244831
589.794726	0.244715
590.005648	0.244528
590.216552	0.244634
590.427437	0.245018
590.638305	0.244930
590.849154	0.245195
591.059985	0.245589
591.270798	0.245983
591.481592	0.246246
591.692369	0.246303
591.903127	0.246441
592.113867	0.246570
592.324588	0.246732
592.535292	0.247385
592.745977	0.247170
592.956644	0.247457
593.167293	0.247731
593.377923	0.247692
593.588536	0.247979
593.799130	0.248345
594.009706	0.248771
594.220263	0.248700
594.430803	0.248437
594.641324	0.248945
594.851827	0.248938
595.062312	0.248967
595.272778	0.249246
595.483227	0.249499
595.693657	0.250064
595.904069	0.249701
596.114462	0.250349
596.324838	0.250984
596.535195	0.251625
596.745534	0.251992
596.955855	0.251580
597.166157	0.251299
597.376441	0.251396
597.586707	0.251040
597.796955	0.251600
598.007185	0.251288
598.217396	0.251590
598.427589	0.250692
598.637764	0.250804
598.847921	0.251515
599.058060	0.251499
599.268180	0.251754
599.478282	0.251710
599.688366	0.251861
599.898431	0.252386
600.108479	0.251892
600.318508	0.252487
600.528519	0.252861
600.738511	0.252731
600.948486	0.253218
601.158442	0.253498
601.368380	0.254008
601.578300	0.253973
601.788202	0.254076
601.998085	0.254625
602.207950	0.254838
602.417797	0.254944
602.627626	0.254924
602.837436	0.255241
603.047228	0.255256
603.257002	0.255369
603.466758	0.255616
603.676496	0.255744
603.886215	0.256122
604.095916	0.256644
604.305599	0.256724
604.515264	0.257301
604.724910	0.257329
604.934538	0.257695
605.144148	0.257846
605.353740	0.257905
605.563314	0.257916
605.772869	0.257975
605.982406	0.257396
606.191925	0.257423
606.401425	0.257324
606.610908	0.257497
606.820372	0.257295
607.029818	0.257043
607.239246	0.257074
607.448655	0.257615
607.658047	0.257748
607.867420	0.258257
608.076775	0.258285
608.286111	0.258670
608.495430	0.258883
608.704730	0.259286
608.914012	0.259739
609.123275	0.260014
609.332521	0.259770
609.541748	0.259593
609.750957	0.259599
609.960148	0.260010
610.169321	0.260074
610.378475	0.260140
610.587611	0.260261
610.796729	0.260317
611.005829	0.260777
611.214910	0.260901
611.423974	0.261296
611.633019	0.261667
611.842045	0.261506
612.051054	0.261672
612.260044	0.261718
612.469017	0.261607
612.677970	0.261880
612.886906	0.261776
613.095824	0.261788
613.304723	0.261905
613.513604	0.262026
613.722467	0.262239
613.931311	0.262211
614.140138	0.262399
614.348946	0.262751
614.557736	0.262702
614.766507	0.262620
614.975261	0.262789
615.183996	0.262824
615.392713	0.262727
615.601412	0.262742
615.810092	0.262730
616.018754	0.262521
616.227399	0.262370
616.436024	0.262628
616.644632	0.262805
616.853222	0.262876
617.061793	0.263051
617.270346	0.263111
617.478880	0.263485
617.687397	0.264051
617.895895	0.264464
618.104375	0.264717
618.312837	0.265175
618.521281	0.265440
618.729706	0.265727
618.938113	0.265928
619.146502	0.266342
619.354873	0.266140
619.563226	0.266015
619.771560	0.265824
619.979876	0.266082
620.188174	0.266151
620.396453	0.266254
620.604715	0.266269
620.812958	0.266353
621.021183	0.266472
621.229390	0.267068
621.437578	0.267365
621.645748	0.268096
621.853900	0.268252
622.062034	0.268010
622.270150	0.268179
622.478247	0.268484
622.686326	0.268626
622.894387	0.268703
623.102430	0.268653
623.310454	0.268792
623.518461	0.268999
623.726449	0.269163
623.934418	0.269633
624.142370	0.269971
624.350303	0.270162
624.558218	0.270339
624.766115	0.270217
624.973994	0.270305
625.181855	0.270341
625.389697	0.270240
625.597521	0.270227
625.805327	0.270312
626.013114	0.270116
626.220883	0.270191
626.428634	0.270172
626.636367	0.270588
626.844082	0.270928
627.051778	0.271170
627.259457	0.271266
627.467117	0.271318
627.674758	0.271418
627.882382	0.271595
628.089987	0.271752
628.297574	0.272038
628.505143	0.272286
628.712694	0.272180
628.920226	0.272221
629.127740	0.272587
629.335236	0.272975
629.542714	0.273084
629.750174	0.273347
629.957615	0.273341
630.165038	0.273443
630.372443	0.273600
630.579829	0.274022
630.787198	0.274442
630.994548	0.274440
631.201880	0.274460
631.409194	0.274758
631.616489	0.274723
631.823766	0.274953
632.031025	0.275187
632.238266	0.275049
632.445489	0.274803
632.652693	0.274670
632.859879	0.274833
633.067047	0.274981
633.274197	0.274717
633.481329	0.275169
633.688442	0.275448
633.895537	0.275424
634.102614	0.275874
634.309672	0.276609
634.516713	0.276620
634.723735	0.276620
634.930739	0.276788
635.137724	0.277281
635.344692	0.277225
635.551641	0.277076
635.758572	0.277296
635.965485	0.277315
636.172379	0.277099
636.379256	0.277463
636.586114	0.277808
636.792954	0.277858
636.999775	0.278011
637.206579	0.278249
637.413364	0.278809
637.620131	0.278814
637.826880	0.279127
638.033610	0.279618
638.240323	0.279717
638.447017	0.279763
638.653692	0.279982
638.860350	0.280116
639.066990	0.280158
639.273611	0.280168
639.480214	0.280434
639.686798	0.280495
639.893365	0.280437
640.099913	0.280560
640.306443	0.280720
640.512955	0.280932
640.719449	0.281365
640.925924	0.281658
641.132381	0.281651
641.338820	0.281788
641.545241	0.281942
641.751644	0.282157
641.958028	0.282445
642.164394	0.282685
642.370742	0.282900
642.577071	0.282711
642.783383	0.282805
642.989676	0.283182
643.195951	0.283474
643.402207	0.283726
643.608446	0.283836
643.814666	0.284175
644.020868	0.284262
644.227052	0.284446
644.433218	0.285019
644.639365	0.285153
644.845494	0.285171
645.051605	0.285429
645.257698	0.285563
645.463772	0.285555
645.669828	0.285588
645.875866	0.285905
646.081886	0.285975
646.287888	0.285974
646.493871	0.286349
646.699836	0.286814
646.905783	0.287001
647.111712	0.287198
647.317622	0.287595
647.523514	0.287722
647.729388	0.287548
647.935244	0.287940
648.141082	0.288190
648.346901	0.287998
648.552702	0.288055
648.758485	0.288140
648.964250	0.288189
649.169996	0.288461
649.375724	0.288535
649.581434	0.289094
649.787126	0.289004
649.992800	0.288914
650.198455	0.289322
650.404092	0.289355
650.609711	0.289513
650.815311	0.289571
651.020894	0.289500
651.226458	0.289806
651.432004	0.289895
651.637532	0.290382
651.843041	0.290680
652.048532	0.290803
652.254006	0.291100
652.459460	0.291244
652.664897	0.291630
652.870315	0.291719
653.075716	0.291862
653.281097	0.291983
653.486461	0.291957
653.691807	0.291969
653.897134	0.292260
654.102443	0.292305
654.307734	0.292371
654.513006	0.292454
654.718261	0.292849
654.923497	0.293166
655.128715	0.293566
655.333915	0.293806
655.539096	0.294200
655.744259	0.294547
655.949404	0.294692
656.154531	0.295127
656.359640	0.295482
656.564730	0.295679
656.769802	0.295944
656.974856	0.295891
657.179892	0.296172
657.384909	0.296192
657.589908	0.296153
657.794889	0.296447
657.999852	0.296476
658.204797	0.296740
658.409723	0.296911
658.614631	0.296967
658.819521	0.297232
659.024393	0.297278
659.229246	0.297373
659.434081	0.297570
659.638898	0.297843
659.843697	0.298311
660.048478	0.298208
660.253240	0.298397
660.457984	0.298763
660.662710	0.298855
660.867417	0.299116
661.072107	0.299312
661.276778	0.299795
661.481431	0.299790
661.686066	0.299879
661.890682	0.300073
662.095281	0.300343
662.299861	0.300417
662.504422	0.300727
662.708966	0.300766
662.913491	0.301311
663.117999	0.301211
663.322488	0.301598
663.526958	0.301707
663.731411	0.302127
663.935845	0.302392
664.140261	0.302572
664.344659	0.302841
664.549038	0.303086
664.753400	0.302856
664.957743	0.303182
665.162068	0.303344
665.366375	0.303657
665.570663	0.303623
665.774933	0.303837
665.979185	0.303970
666.183419	0.304030
666.387635	0.304320
666.591832	0.304723
666.796011	0.305084
667.000172	0.305318
667.204315	0.305428
667.408439	0.305846
667.612545	0.305715
667.816634	0.305813
668.020703	0.306065
668.224755	0.306302
668.428788	0.306591
668.632803	0.306780
668.836800	0.307007
669.040779	0.307302
669.244739	0.307315
669.448681	0.307847
669.652605	0.308292
669.856511	0.308445
670.060399	0.308537
670.264268	0.308862
670.468119	0.308913
670.671952	0.309175
670.875767	0.309344
671.079563	0.309747
671.283341	0.309867
671.487101	0.309801
671.690843	0.310132
671.894567	0.310322
672.098272	0.310513
672.301959	0.310912
672.505628	0.310800
672.709278	0.311023
672.912911	0.311138
673.116525	0.311289
673.320121	0.311466
673.523699	0.311462
673.727258	0.311683
673.930799	0.311742
674.134322	0.311770
674.337827	0.312066
674.541314	0.312436
674.744782	0.312744
674.948232	0.312840
675.151664	0.313282
675.355078	0.313666
675.558474	0.314001
675.761851	0.314205
675.965210	0.314492
676.168551	0.314899
676.371873	0.314879
676.575178	0.314909
676.778464	0.315198
676.981732	0.315479
677.184981	0.315725
677.388213	0.316086
677.591426	0.316377
677.794621	0.316792
677.997798	0.316912
678.200956	0.317167
678.404097	0.317511
678.607219	0.317765
678.810323	0.317804
679.013408	0.317762
679.216476	0.317716
679.419525	0.317713
679.622556	0.317558
679.825569	0.317740
680.028563	0.317828
680.231540	0.317876
680.434498	0.317898
680.637438	0.318049
680.840359	0.318455
681.043263	0.318795
681.246148	0.319065
681.449015	0.319371
681.651864	0.319317
681.854694	0.319534
682.057506	0.319826
682.260301	0.320049
682.463076	0.320232
682.665834	0.320223
682.868573	0.320497
683.071295	0.320755
683.273998	0.320806
683.476682	0.321472
683.679349	0.321709
683.881997	0.322044
684.084627	0.322036
684.287239	0.322241
684.489833	0.322592
684.692408	0.322473
684.894965	0.322609
685.097504	0.322795
685.300025	0.322853
685.502527	0.322924
685.705012	0.322838
685.907478	0.323089
686.109925	0.323419
686.312355	0.323670
686.514766	0.324006
686.717159	0.324224
686.919534	0.324451
687.121891	0.324387
687.324230	0.324653
687.526550	0.324935
687.728852	0.325318
687.931136	0.325143
688.133401	0.325232
688.335649	0.325389
688.537878	0.325516
688.740089	0.325659
688.942281	0.326127
689.144456	0.326189
689.346612	0.326232
689.548750	0.326111
689.750870	0.326699
689.952971	0.326839
690.155055	0.326881
690.357120	0.326956
690.559167	0.327144
690.761195	0.327120
690.963206	0.327138
691.165198	0.327425
691.367172	0.327937
691.569128	0.328012
691.771065	0.328324
691.972984	0.328471
692.174885	0.328858
692.376768	0.329045
692.578633	0.329301
692.780479	0.329282
692.982308	0.329721
693.184118	0.329655
693.385909	0.329782
