sample name	sample
index	1107
start time	 04-22-2021  12:56:53 PM


Wavelength (nm)	Absorbance
494.344910	NaN
494.563924	NaN
494.782919	NaN
495.001897	NaN
495.220856	0.149802
495.439797	0.038186
495.658719	0.064125
495.877624	0.087455
496.096510	-0.005817
496.315378	0.050132
496.534227	-0.024775
496.753059	-0.042726
496.971872	-0.000847
497.190667	0.151627
497.409444	0.160681
497.628203	0.160780
497.846943	0.164676
498.065665	0.163313
498.284369	0.164306
498.503055	0.165795
498.721723	0.165178
498.940372	0.165625
499.159003	0.165439
499.377616	0.166516
499.596210	0.168629
499.814787	0.166369
500.033345	0.168017
500.251885	0.169288
500.470406	0.169018
500.688910	0.171262
500.907395	0.171318
501.125862	0.172241
501.344311	0.170937
501.562742	0.169197
501.781154	0.170812
501.999548	0.170981
502.217924	0.170034
502.436282	0.171182
502.654621	0.170658
502.872942	0.171969
503.091245	0.171306
503.309530	0.171017
503.527797	0.171599
503.746045	0.171365
503.964275	0.171815
504.182487	0.171796
504.400681	0.172528
504.618856	0.173287
504.837013	0.171986
505.055152	0.172407
505.273273	0.174736
505.491376	0.174953
505.709460	0.174107
505.927526	0.172753
506.145574	0.172759
506.363604	0.172063
506.581615	0.171602
506.799608	0.171405
507.017583	0.172007
507.235540	0.171782
507.453478	0.172201
507.671399	0.173423
507.889301	0.174447
508.107185	0.175199
508.325050	0.174543
508.542898	0.174764
508.760727	0.176004
508.978538	0.176180
509.196330	0.176285
509.414105	0.175914
509.631861	0.176409
509.849599	0.176857
510.067319	0.177390
510.285021	0.179206
510.502704	0.179679
510.720369	0.179985
510.938016	0.179731
511.155645	0.179895
511.373255	0.179773
511.590848	0.179567
511.808422	0.179979
512.025977	0.179465
512.243515	0.179175
512.461034	0.179002
512.678536	0.178428
512.896018	0.179773
513.113483	0.179963
513.330930	0.180485
513.548358	0.179992
513.765768	0.179955
513.983160	0.180876
514.200533	0.180070
514.417889	0.180367
514.635226	0.180978
514.852545	0.179957
515.069845	0.179895
515.287128	0.180074
515.504392	0.180502
515.721638	0.180533
515.938866	0.180076
516.156075	0.180996
516.373267	0.181464
516.590440	0.181350
516.807594	0.181407
517.024731	0.181585
517.241850	0.181605
517.458950	0.181657
517.676032	0.181841
517.893095	0.182629
518.110141	0.182242
518.327168	0.182399
518.544177	0.182958
518.761168	0.183360
518.978141	0.183522
519.195095	0.183733
519.412031	0.184892
519.628949	0.184278
519.845849	0.184289
520.062731	0.185014
520.279594	0.184417
520.496439	0.185389
520.713266	0.186046
520.930074	0.186135
521.146865	0.188113
521.363637	0.188185
521.580391	0.188631
521.797127	0.187865
522.013844	0.188782
522.230543	0.189460
522.447224	0.189699
522.663887	0.190093
522.880532	0.191094
523.097158	0.189401
523.313766	0.189840
523.530356	0.190235
523.746928	0.191350
523.963481	0.190442
524.180017	0.191221
524.396534	0.190839
524.613032	0.191603
524.829513	0.191978
525.045975	0.193080
525.262420	0.193889
525.478845	0.194559
525.695253	0.194513
525.911643	0.195226
526.128014	0.195339
526.344367	0.195381
526.560702	0.195134
526.777018	0.195120
526.993316	0.194977
527.209597	0.194644
527.425858	0.195006
527.642102	0.196050
527.858328	0.196346
528.074535	0.196532
528.290724	0.196934
528.506894	0.197099
528.723047	0.197825
528.939181	0.198491
529.155297	0.199244
529.371395	0.199927
529.587475	0.199740
529.803536	0.200164
530.019579	0.200500
530.235604	0.201223
530.451611	0.201257
530.667600	0.201199
530.883570	0.201564
531.099522	0.201554
531.315456	0.201344
531.531372	0.202099
531.747269	0.202380
531.963148	0.202625
532.179009	0.203020
532.394852	0.203271
532.610676	0.203573
532.826482	0.203993
533.042271	0.204505
533.258040	0.204864
533.473792	0.204869
533.689525	0.205492
533.905240	0.206071
534.120937	0.206574
534.336616	0.207245
534.552277	0.206869
534.767919	0.207158
534.983543	0.207233
535.199149	0.207714
535.414736	0.207915
535.630306	0.208235
535.845857	0.208174
536.061390	0.207838
536.276904	0.208500
536.492401	0.209862
536.707879	0.210296
536.923339	0.210209
537.138781	0.210761
537.354204	0.211085
537.569610	0.211092
537.784997	0.211487
538.000366	0.211854
538.215716	0.212118
538.431049	0.211651
538.646363	0.211879
538.861659	0.212295
539.076937	0.212035
539.292196	0.212450
539.507438	0.213054
539.722661	0.213742
539.937866	0.214272
540.153052	0.214019
540.368221	0.214658
540.583371	0.214958
540.798503	0.215562
541.013617	0.215969
541.228712	0.216256
541.443789	0.216331
541.658848	0.216367
541.873889	0.216546
542.088912	0.217416
542.303916	0.218346
542.518902	0.218964
542.733870	0.219705
542.948820	0.220275
543.163752	0.220789
543.378665	0.220848
543.593560	0.221192
543.808437	0.221577
544.023295	0.221726
544.238136	0.221543
544.452958	0.221258
544.667762	0.221572
544.882548	0.221747
545.097315	0.222223
545.312064	0.223095
545.526795	0.223468
545.741508	0.223687
545.956203	0.223602
546.170879	0.223428
546.385537	0.223922
546.600177	0.223611
546.814799	0.224061
547.029402	0.224095
547.243988	0.223805
547.458555	0.224269
547.673103	0.224534
547.887634	0.225310
548.102146	0.226119
548.316640	0.226776
548.531116	0.227139
548.745574	0.227532
548.960013	0.228065
549.174435	0.228676
549.388838	0.229297
549.603222	0.229650
549.817589	0.229655
550.031937	0.229650
550.246267	0.229162
550.460579	0.229602
550.674873	0.230075
550.889148	0.230132
551.103405	0.229848
551.317644	0.229032
551.531865	0.229057
551.746068	0.229288
551.960252	0.229887
552.174418	0.230576
552.388566	0.230302
552.602696	0.230219
552.816807	0.230051
553.030900	0.230729
553.244975	0.231429
553.459032	0.231930
553.673070	0.232019
553.887091	0.231959
554.101093	0.232093
554.315077	0.232402
554.529042	0.232419
554.742990	0.232201
554.956919	0.232520
555.170830	0.232387
555.384722	0.232180
555.598597	0.232578
555.812453	0.232631
556.026291	0.232657
556.240111	0.233116
556.453913	0.233523
556.667696	0.233848
556.881461	0.234146
557.095208	0.234242
557.308937	0.234716
557.522647	0.234835
557.736339	0.235542
557.950013	0.235246
558.163669	0.235258
558.377307	0.235048
558.590926	0.235540
558.804527	0.235397
559.018110	0.236141
559.231675	0.236331
559.445221	0.236396
559.658749	0.236290
559.872259	0.237058
560.085751	0.236921
560.299225	0.236981
560.512680	0.237284
560.726117	0.237733
560.939536	0.237255
561.152937	0.237158
561.366319	0.237347
561.579683	0.236868
561.793029	0.236835
562.006357	0.237308
562.219667	0.237908
562.432958	0.237763
562.646231	0.237022
562.859486	0.237217
563.072723	0.237392
563.285941	0.237096
563.499141	0.237546
563.712323	0.237813
563.925487	0.238058
564.138632	0.237754
564.351760	0.238067
564.564869	0.238651
564.777960	0.239182
564.991032	0.239332
565.204087	0.239995
565.417123	0.240081
565.630141	0.240239
565.843140	0.240128
566.056122	0.240718
566.269085	0.240864
566.482030	0.240897
566.694957	0.241135
566.907866	0.241282
567.120756	0.241358
567.333628	0.241418
567.546482	0.241631
567.759318	0.241975
567.972135	0.241537
568.184935	0.241789
568.397716	0.242166
568.610478	0.241925
568.823223	0.242316
569.035949	0.242512
569.248657	0.242353
569.461347	0.242667
569.674019	0.242605
569.886672	0.242784
570.099308	0.242933
570.311925	0.243166
570.524523	0.243316
570.737104	0.243261
570.949666	0.243222
571.162210	0.243460
571.374736	0.242708
571.587244	0.242765
571.799733	0.243112
572.012205	0.243200
572.224658	0.243236
572.437092	0.243413
572.649509	0.243165
572.861907	0.243327
573.074287	0.243654
573.286649	0.243971
573.498993	0.244318
573.711318	0.244674
573.923625	0.244740
574.135914	0.245062
574.348185	0.245171
574.560438	0.245801
574.772672	0.246071
574.984888	0.246650
575.197086	0.246989
575.409266	0.246906
575.621427	0.246802
575.833570	0.247029
576.045695	0.246717
576.257802	0.246738
576.469890	0.246576
576.681961	0.246424
576.894013	0.246233
577.106046	0.246837
577.318062	0.247127
577.530059	0.247739
577.742039	0.247827
577.954000	0.248258
578.165942	0.248604
578.377867	0.248870
578.589773	0.248893
578.801661	0.249220
579.013531	0.249050
579.225382	0.249349
579.437216	0.249059
579.649031	0.249382
579.860828	0.249501
580.072606	0.249595
580.284367	0.249554
580.496109	0.249899
580.707833	0.249957
580.919539	0.250350
581.131227	0.250430
581.342896	0.250713
581.554547	0.250554
581.766180	0.251104
581.977795	0.251350
582.189391	0.251492
582.400969	0.251709
582.612529	0.251793
582.824071	0.251732
583.035595	0.252002
583.247100	0.252352
583.458587	0.252829
583.670056	0.252405
583.881506	0.252577
584.092939	0.253136
584.304353	0.252957
584.515749	0.252917
584.727127	0.253206
584.938486	0.253342
585.149828	0.253013
585.361151	0.252880
585.572456	0.253086
585.783742	0.252909
585.995011	0.252773
586.206261	0.252856
586.417493	0.253057
586.628706	0.253180
586.839902	0.253213
587.051079	0.253507
587.262238	0.253756
587.473379	0.253818
587.684502	0.254547
587.895606	0.254879
588.106692	0.255348
588.317760	0.255473
588.528810	0.255304
588.739841	0.255692
588.950855	0.255873
589.161850	0.255879
589.372827	0.256035
589.583785	0.255870
589.794726	0.256008
590.005648	0.256240
590.216552	0.256619
590.427437	0.256903
590.638305	0.256522
590.849154	0.256842
591.059985	0.257216
591.270798	0.257500
591.481592	0.257654
591.692369	0.257541
591.903127	0.257731
592.113867	0.257787
592.324588	0.257695
592.535292	0.258353
592.745977	0.258555
592.956644	0.258449
593.167293	0.258598
593.377923	0.258732
593.588536	0.259289
593.799130	0.259045
594.009706	0.259577
594.220263	0.260045
594.430803	0.259767
594.641324	0.259886
594.851827	0.260280
595.062312	0.260241
595.272778	0.260561
595.483227	0.260129
595.693657	0.260166
595.904069	0.259636
596.114462	0.259641
596.324838	0.259609
596.535195	0.259443
596.745534	0.259491
596.955855	0.259642
597.166157	0.259664
597.376441	0.260016
597.586707	0.260652
597.796955	0.261120
598.007185	0.261339
598.217396	0.262129
598.427589	0.262354
598.637764	0.262668
598.847921	0.262977
599.058060	0.263179
599.268180	0.263524
599.478282	0.263464
599.688366	0.263858
599.898431	0.264144
600.108479	0.263876
600.318508	0.263972
600.528519	0.264074
600.738511	0.264088
600.948486	0.264033
601.158442	0.264390
601.368380	0.264519
601.578300	0.264082
601.788202	0.264014
601.998085	0.264518
602.207950	0.264691
602.417797	0.264841
602.627626	0.265164
602.837436	0.265577
603.047228	0.265190
603.257002	0.265443
603.466758	0.266105
603.676496	0.266665
603.886215	0.266901
604.095916	0.267197
604.305599	0.266986
604.515264	0.267159
604.724910	0.266848
604.934538	0.267267
605.144148	0.267313
605.353740	0.267251
605.563314	0.266898
605.772869	0.266983
605.982406	0.267183
606.191925	0.267530
606.401425	0.267913
606.610908	0.268123
606.820372	0.268238
607.029818	0.268572
607.239246	0.268799
607.448655	0.269397
607.658047	0.269269
607.867420	0.269139
608.076775	0.269142
608.286111	0.268779
608.495430	0.269519
608.704730	0.269604
608.914012	0.269788
609.123275	0.269727
609.332521	0.269475
609.541748	0.269411
609.750957	0.269660
609.960148	0.269882
610.169321	0.270492
610.378475	0.270171
610.587611	0.270100
610.796729	0.270322
611.005829	0.270285
611.214910	0.270304
611.423974	0.270483
611.633019	0.270580
611.842045	0.270577
612.051054	0.270181
612.260044	0.270366
612.469017	0.270489
612.677970	0.270309
612.886906	0.270429
613.095824	0.270458
613.304723	0.270440
613.513604	0.270615
613.722467	0.270575
613.931311	0.271149
614.140138	0.271481
614.348946	0.271853
614.557736	0.272068
614.766507	0.272317
614.975261	0.272722
615.183996	0.273507
615.392713	0.273805
615.601412	0.274092
615.810092	0.274082
616.018754	0.273985
616.227399	0.274229
616.436024	0.274297
616.644632	0.274428
616.853222	0.275067
617.061793	0.274792
617.270346	0.274917
617.478880	0.275546
617.687397	0.275509
617.895895	0.275574
618.104375	0.275875
618.312837	0.276172
618.521281	0.276610
618.729706	0.276326
618.938113	0.276547
619.146502	0.276566
619.354873	0.276514
619.563226	0.276832
619.771560	0.277172
619.979876	0.277174
620.188174	0.277046
620.396453	0.277257
620.604715	0.277330
620.812958	0.277595
621.021183	0.277866
621.229390	0.278174
621.437578	0.278219
621.645748	0.278374
621.853900	0.278591
622.062034	0.279106
622.270150	0.279048
622.478247	0.279493
622.686326	0.279239
622.894387	0.279618
623.102430	0.279557
623.310454	0.279648
623.518461	0.279638
623.726449	0.279478
623.934418	0.279607
624.142370	0.279776
624.350303	0.279431
624.558218	0.279814
624.766115	0.279341
624.973994	0.279714
625.181855	0.279858
625.389697	0.280242
625.597521	0.280749
625.805327	0.280823
626.013114	0.281063
626.220883	0.281589
626.428634	0.281604
626.636367	0.282078
626.844082	0.281932
627.051778	0.282323
627.259457	0.282436
627.467117	0.282134
627.674758	0.282176
627.882382	0.282513
628.089987	0.282336
628.297574	0.282535
628.505143	0.282704
628.712694	0.282893
628.920226	0.282822
629.127740	0.282829
629.335236	0.283516
629.542714	0.283717
629.750174	0.283575
629.957615	0.284038
630.165038	0.284240
630.372443	0.284500
630.579829	0.284561
630.787198	0.284878
630.994548	0.285053
631.201880	0.284940
631.409194	0.285005
631.616489	0.285037
631.823766	0.285055
632.031025	0.285355
632.238266	0.285239
632.445489	0.285313
632.652693	0.285277
632.859879	0.285493
633.067047	0.285495
633.274197	0.285749
633.481329	0.286119
633.688442	0.286265
633.895537	0.286581
634.102614	0.286739
634.309672	0.286991
634.516713	0.287025
634.723735	0.286977
634.930739	0.287379
635.137724	0.287714
635.344692	0.287696
635.551641	0.287695
635.758572	0.287633
635.965485	0.287781
636.172379	0.287975
636.379256	0.287958
636.586114	0.288281
636.792954	0.288222
636.999775	0.288306
637.206579	0.288567
637.413364	0.288748
637.620131	0.288891
637.826880	0.289311
638.033610	0.289333
638.240323	0.290008
638.447017	0.290028
638.653692	0.290204
638.860350	0.290285
639.066990	0.290323
639.273611	0.290724
639.480214	0.291217
639.686798	0.291349
639.893365	0.291750
640.099913	0.291746
640.306443	0.291805
640.512955	0.292278
640.719449	0.292206
640.925924	0.292488
641.132381	0.292471
641.338820	0.292681
641.545241	0.292587
641.751644	0.292784
641.958028	0.293048
642.164394	0.293159
642.370742	0.293197
642.577071	0.293562
642.783383	0.293702
642.989676	0.293896
643.195951	0.293332
643.402207	0.293537
643.608446	0.293517
643.814666	0.293786
644.020868	0.294429
644.227052	0.294414
644.433218	0.294820
644.639365	0.295120
644.845494	0.295431
645.051605	0.295985
645.257698	0.296281
645.463772	0.296550
645.669828	0.296521
645.875866	0.296491
646.081886	0.296675
646.287888	0.296607
646.493871	0.296618
646.699836	0.297128
646.905783	0.297599
647.111712	0.297927
647.317622	0.298387
647.523514	0.298603
647.729388	0.298710
647.935244	0.299215
648.141082	0.299556
648.346901	0.299891
648.552702	0.299746
648.758485	0.299651
648.964250	0.299465
649.169996	0.299329
649.375724	0.299283
649.581434	0.299493
649.787126	0.299269
649.992800	0.299220
650.198455	0.299284
650.404092	0.299151
650.609711	0.299288
650.815311	0.299813
651.020894	0.300097
651.226458	0.300644
651.432004	0.300679
651.637532	0.300931
651.843041	0.301283
652.048532	0.301541
652.254006	0.302086
652.459460	0.302403
652.664897	0.302441
652.870315	0.302645
653.075716	0.302711
653.281097	0.302961
653.486461	0.303332
653.691807	0.303392
653.897134	0.303434
654.102443	0.303554
654.307734	0.303677
654.513006	0.303958
654.718261	0.304157
654.923497	0.304408
655.128715	0.304694
655.333915	0.304661
655.539096	0.305166
655.744259	0.305386
655.949404	0.305400
656.154531	0.305430
656.359640	0.305528
656.564730	0.305607
656.769802	0.305984
656.974856	0.306183
657.179892	0.306733
657.384909	0.306639
657.589908	0.307067
657.794889	0.307264
657.999852	0.307583
658.204797	0.307851
658.409723	0.308211
658.614631	0.308205
658.819521	0.308538
659.024393	0.308740
659.229246	0.309023
659.434081	0.308927
659.638898	0.309363
659.843697	0.309452
660.048478	0.309731
660.253240	0.309814
660.457984	0.309826
660.662710	0.309694
660.867417	0.309813
661.072107	0.309898
661.276778	0.310308
661.481431	0.310458
661.686066	0.310784
661.890682	0.310946
662.095281	0.311441
662.299861	0.311845
662.504422	0.312339
662.708966	0.312317
662.913491	0.312535
663.117999	0.312567
663.322488	0.312707
663.526958	0.312888
663.731411	0.313106
663.935845	0.312948
664.140261	0.313194
664.344659	0.313450
664.549038	0.313934
664.753400	0.314393
664.957743	0.314778
665.162068	0.314939
665.366375	0.315224
665.570663	0.315548
665.774933	0.315822
665.979185	0.316158
666.183419	0.316397
666.387635	0.316667
666.591832	0.316906
666.796011	0.317056
667.000172	0.317605
667.204315	0.317691
667.408439	0.317785
667.612545	0.317749
667.816634	0.317984
668.020703	0.318015
668.224755	0.318288
668.428788	0.318477
668.632803	0.318799
668.836800	0.318911
669.040779	0.319325
669.244739	0.319573
669.448681	0.320164
669.652605	0.320270
669.856511	0.320609
670.060399	0.320641
670.264268	0.320970
670.468119	0.321326
670.671952	0.321483
670.875767	0.321527
671.079563	0.321776
671.283341	0.321913
671.487101	0.322040
671.690843	0.322135
671.894567	0.322367
672.098272	0.322183
672.301959	0.322171
672.505628	0.322238
672.709278	0.322577
672.912911	0.322939
673.116525	0.323066
673.320121	0.323352
673.523699	0.323798
673.727258	0.324020
673.930799	0.324421
674.134322	0.324852
674.337827	0.325256
674.541314	0.325543
674.744782	0.325683
674.948232	0.326111
675.151664	0.326361
675.355078	0.326361
675.558474	0.326837
675.761851	0.327001
675.965210	0.326971
676.168551	0.326937
676.371873	0.327188
676.575178	0.327398
676.778464	0.327600
676.981732	0.327556
677.184981	0.327999
677.388213	0.327973
677.591426	0.328478
677.794621	0.328846
677.997798	0.328855
678.200956	0.329003
678.404097	0.329185
678.607219	0.329081
678.810323	0.329315
679.013408	0.329222
679.216476	0.329294
679.419525	0.329094
679.622556	0.329173
679.825569	0.329614
680.028563	0.329654
680.231540	0.329808
680.434498	0.330273
680.637438	0.330448
680.840359	0.330966
681.043263	0.331107
681.246148	0.331526
681.449015	0.331778
681.651864	0.332006
681.854694	0.332205
682.057506	0.332310
682.260301	0.332349
682.463076	0.332741
682.665834	0.332574
682.868573	0.332742
683.071295	0.332767
683.273998	0.332876
683.476682	0.332765
683.679349	0.332840
683.881997	0.333055
684.084627	0.333408
684.287239	0.333643
684.489833	0.334162
684.692408	0.334664
684.894965	0.335158
685.097504	0.335387
685.300025	0.335881
685.502527	0.335997
685.705012	0.336086
685.907478	0.336309
686.109925	0.336437
686.312355	0.336352
686.514766	0.336301
686.717159	0.336440
686.919534	0.336682
687.121891	0.336997
687.324230	0.337553
687.526550	0.337766
687.728852	0.337636
687.931136	0.337494
688.133401	0.337561
688.335649	0.337649
688.537878	0.337727
688.740089	0.337907
688.942281	0.338049
689.144456	0.338020
689.346612	0.338085
689.548750	0.338571
689.750870	0.338830
689.952971	0.339346
690.155055	0.339781
690.357120	0.339717
690.559167	0.340032
690.761195	0.340066
690.963206	0.340459
691.165198	0.340740
691.367172	0.340816
691.569128	0.341087
691.771065	0.341209
691.972984	0.341202
692.174885	0.341479
692.376768	0.341360
692.578633	0.341732
692.780479	0.341843
692.982308	0.341861
693.184118	0.341632
693.385909	0.341723
693.587683	0.341755
