sample name	sample
index	137
start time	 02-15-2021  01:40:26 PM


Wavelength (nm)	Absorbance
494.344910	-1.325854
494.563924	-1.325854
494.782919	-1.325854
495.001897	-0.393531
495.220856	-0.360477
495.439797	-0.245373
495.658719	-0.141057
495.877624	-0.227200
496.096510	-0.077065
496.315378	0.043510
496.534227	0.345455
496.753059	0.239904
496.971872	0.331741
497.190667	0.141307
497.409444	0.150443
497.628203	0.158374
497.846943	0.163044
498.065665	0.161204
498.284369	0.162900
498.503055	0.160266
498.721723	0.164871
498.940372	0.166492
499.159003	0.167618
499.377616	0.168613
499.596210	0.165223
499.814787	0.165742
500.033345	0.162924
500.251885	0.158742
500.470406	0.161731
500.688910	0.156353
500.907395	0.154409
501.125862	0.155184
501.344311	0.155096
501.562742	0.156141
501.781154	0.157321
501.999548	0.160057
502.217924	0.164474
502.436282	0.163668
502.654621	0.166200
502.872942	0.166688
503.091245	0.164987
503.309530	0.163095
503.527797	0.163088
503.746045	0.159806
503.964275	0.158930
504.182487	0.157887
504.400681	0.158602
504.618856	0.159662
504.837013	0.160492
505.055152	0.161436
505.273273	0.163265
505.491376	0.164060
505.709460	0.168724
505.927526	0.169105
506.145574	0.169973
506.363604	0.168782
506.581615	0.168280
506.799608	0.167130
507.017583	0.167383
507.235540	0.166202
507.453478	0.165040
507.671399	0.165437
507.889301	0.166312
508.107185	0.165643
508.325050	0.165432
508.542898	0.165825
508.760727	0.167486
508.978538	0.169422
509.196330	0.170095
509.414105	0.169969
509.631861	0.168406
509.849599	0.166827
510.067319	0.168120
510.285021	0.167775
510.502704	0.166192
510.720369	0.166393
510.938016	0.164612
511.155645	0.167007
511.373255	0.167306
511.590848	0.167431
511.808422	0.168936
512.025977	0.167344
512.243515	0.169879
512.461034	0.171143
512.678536	0.169640
512.896018	0.170279
513.113483	0.166814
513.330930	0.168872
513.548358	0.168884
513.765768	0.167629
513.983160	0.167912
514.200533	0.168261
514.417889	0.168351
514.635226	0.168213
514.852545	0.168091
515.069845	0.168949
515.287128	0.168030
515.504392	0.167431
515.721638	0.167939
515.938866	0.167291
516.156075	0.166939
516.373267	0.167089
516.590440	0.166844
516.807594	0.165969
517.024731	0.166802
517.241850	0.166504
517.458950	0.168167
517.676032	0.168755
517.893095	0.170119
518.110141	0.169041
518.327168	0.168889
518.544177	0.168486
518.761168	0.169739
518.978141	0.170621
519.195095	0.171468
519.412031	0.168760
519.628949	0.168286
519.845849	0.168098
520.062731	0.168288
520.279594	0.169524
520.496439	0.170891
520.713266	0.170971
520.930074	0.171912
521.146865	0.172276
521.363637	0.174193
521.580391	0.175049
521.797127	0.175826
522.013844	0.177071
522.230543	0.177060
522.447224	0.178900
522.663887	0.179212
522.880532	0.178863
523.097158	0.179023
523.313766	0.179884
523.530356	0.180416
523.746928	0.179370
523.963481	0.178534
524.180017	0.177776
524.396534	0.177661
524.613032	0.179009
524.829513	0.179776
525.045975	0.179484
525.262420	0.179387
525.478845	0.181137
525.695253	0.181372
525.911643	0.181120
526.128014	0.181308
526.344367	0.181925
526.560702	0.181390
526.777018	0.181699
526.993316	0.181078
527.209597	0.180931
527.425858	0.178826
527.642102	0.179971
527.858328	0.180803
528.074535	0.181176
528.290724	0.179391
528.506894	0.179398
528.723047	0.178972
528.939181	0.179586
529.155297	0.179248
529.371395	0.179478
529.587475	0.180287
529.803536	0.180651
530.019579	0.182300
530.235604	0.184159
530.451611	0.183914
530.667600	0.184614
530.883570	0.185788
531.099522	0.186465
531.315456	0.187145
531.531372	0.186807
531.747269	0.187561
531.963148	0.187860
532.179009	0.188101
532.394852	0.188450
532.610676	0.188211
532.826482	0.187693
533.042271	0.188354
533.258040	0.187640
533.473792	0.188542
533.689525	0.190279
533.905240	0.189841
534.120937	0.189445
534.336616	0.189596
534.552277	0.191319
534.767919	0.192714
534.983543	0.192112
535.199149	0.192842
535.414736	0.193027
535.630306	0.193006
535.845857	0.192404
536.061390	0.192971
536.276904	0.193528
536.492401	0.192616
536.707879	0.191974
536.923339	0.193977
537.138781	0.195617
537.354204	0.195489
537.569610	0.195034
537.784997	0.197380
538.000366	0.197486
538.215716	0.198250
538.431049	0.198308
538.646363	0.198377
538.861659	0.197871
539.076937	0.198484
539.292196	0.199106
539.507438	0.199171
539.722661	0.198118
539.937866	0.199152
540.153052	0.199212
540.368221	0.199274
540.583371	0.200092
540.798503	0.201255
541.013617	0.201298
541.228712	0.200645
541.443789	0.200668
541.658848	0.201793
541.873889	0.202110
542.088912	0.202901
542.303916	0.203204
542.518902	0.203455
542.733870	0.202386
542.948820	0.202990
543.163752	0.204763
543.378665	0.205283
543.593560	0.205062
543.808437	0.204988
544.023295	0.204233
544.238136	0.204143
544.452958	0.204590
544.667762	0.204927
544.882548	0.205126
545.097315	0.205096
545.312064	0.204692
545.526795	0.205450
545.741508	0.206061
545.956203	0.207212
546.170879	0.208879
546.385537	0.209169
546.600177	0.209833
546.814799	0.209300
547.029402	0.209427
547.243988	0.210132
547.458555	0.209305
547.673103	0.208883
547.887634	0.208690
548.102146	0.209008
548.316640	0.209433
548.531116	0.210311
548.745574	0.210448
548.960013	0.210020
549.174435	0.210691
549.388838	0.210996
549.603222	0.212133
549.817589	0.212620
550.031937	0.210968
550.246267	0.211135
550.460579	0.210789
550.674873	0.210875
550.889148	0.211524
551.103405	0.212217
551.317644	0.212948
551.531865	0.212358
551.746068	0.212886
551.960252	0.216319
552.174418	0.215538
552.388566	0.216046
552.602696	0.216836
552.816807	0.217654
553.030900	0.217046
553.244975	0.217627
553.459032	0.218260
553.673070	0.217572
553.887091	0.216157
554.101093	0.218510
554.315077	0.218166
554.529042	0.218903
554.742990	0.219436
554.956919	0.219198
555.170830	0.219368
555.384722	0.219221
555.598597	0.220562
555.812453	0.220059
556.026291	0.218965
556.240111	0.219631
556.453913	0.218650
556.667696	0.217526
556.881461	0.218580
557.095208	0.218472
557.308937	0.219500
557.522647	0.219251
557.736339	0.220078
557.950013	0.221471
558.163669	0.221737
558.377307	0.222466
558.590926	0.223648
558.804527	0.223748
559.018110	0.224183
559.231675	0.224145
559.445221	0.224754
559.658749	0.225550
559.872259	0.224667
560.085751	0.225320
560.299225	0.225448
560.512680	0.225739
560.726117	0.225689
560.939536	0.225325
561.152937	0.225662
561.366319	0.225745
561.579683	0.225263
561.793029	0.225000
562.006357	0.224968
562.219667	0.225687
562.432958	0.226001
562.646231	0.225704
562.859486	0.226519
563.072723	0.225619
563.285941	0.225486
563.499141	0.226062
563.712323	0.226783
563.925487	0.226469
564.138632	0.226828
564.351760	0.226625
564.564869	0.227458
564.777960	0.227143
564.991032	0.228966
565.204087	0.229326
565.417123	0.229075
565.630141	0.228661
565.843140	0.228764
566.056122	0.227256
566.269085	0.227797
566.482030	0.228071
566.694957	0.229199
566.907866	0.227510
567.120756	0.228322
567.333628	0.228693
567.546482	0.229902
567.759318	0.230244
567.972135	0.231561
568.184935	0.231124
568.397716	0.231354
568.610478	0.231143
568.823223	0.232076
569.035949	0.231431
569.248657	0.231974
569.461347	0.231514
569.674019	0.232430
569.886672	0.232125
570.099308	0.232703
570.311925	0.232107
570.524523	0.231914
570.737104	0.232092
570.949666	0.232720
571.162210	0.232153
571.374736	0.233116
571.587244	0.232140
571.799733	0.232942
572.012205	0.232858
572.224658	0.233842
572.437092	0.234907
572.649509	0.235819
572.861907	0.236145
573.074287	0.235898
573.286649	0.236481
573.498993	0.237223
573.711318	0.237549
573.923625	0.237595
574.135914	0.237826
574.348185	0.237310
574.560438	0.236810
574.772672	0.236293
574.984888	0.237835
575.197086	0.237473
575.409266	0.238457
575.621427	0.238855
575.833570	0.239451
576.045695	0.239454
576.257802	0.240130
576.469890	0.240160
576.681961	0.240852
576.894013	0.239826
577.106046	0.239654
577.318062	0.239033
577.530059	0.239227
577.742039	0.238919
577.954000	0.239608
578.165942	0.239363
578.377867	0.240208
578.589773	0.240088
578.801661	0.240756
579.013531	0.241267
579.225382	0.241450
579.437216	0.240656
579.649031	0.240664
579.860828	0.240488
580.072606	0.241063
580.284367	0.240762
580.496109	0.241297
580.707833	0.241801
580.919539	0.242435
581.131227	0.242802
581.342896	0.243624
581.554547	0.243759
581.766180	0.244502
581.977795	0.244252
582.189391	0.244712
582.400969	0.244840
582.612529	0.245051
582.824071	0.244541
583.035595	0.244609
583.247100	0.244568
583.458587	0.244979
583.670056	0.244678
583.881506	0.245687
584.092939	0.246418
584.304353	0.246212
584.515749	0.246382
584.727127	0.246672
584.938486	0.246793
585.149828	0.247122
585.361151	0.247940
585.572456	0.247746
585.783742	0.247956
585.995011	0.247546
586.206261	0.247644
586.417493	0.247872
586.628706	0.249518
586.839902	0.250189
587.051079	0.249707
587.262238	0.250370
587.473379	0.250530
587.684502	0.249626
587.895606	0.249805
588.106692	0.250530
588.317760	0.250246
588.528810	0.249101
588.739841	0.250354
588.950855	0.250275
589.161850	0.250175
589.372827	0.251490
589.583785	0.251550
589.794726	0.251679
590.005648	0.252263
590.216552	0.252988
590.427437	0.252579
590.638305	0.251825
590.849154	0.251952
591.059985	0.251364
591.270798	0.250043
591.481592	0.250126
591.692369	0.250196
591.903127	0.250121
592.113867	0.249997
592.324588	0.250349
592.535292	0.249837
592.745977	0.251090
592.956644	0.251499
593.167293	0.253128
593.377923	0.254093
593.588536	0.254233
593.799130	0.253956
594.009706	0.254601
594.220263	0.255333
594.430803	0.256174
594.641324	0.256425
594.851827	0.256355
595.062312	0.256921
595.272778	0.257181
595.483227	0.257937
595.693657	0.258580
595.904069	0.259395
596.114462	0.259626
596.324838	0.259313
596.535195	0.259898
596.745534	0.259851
596.955855	0.259406
597.166157	0.258871
597.376441	0.258406
597.586707	0.258245
597.796955	0.257959
598.007185	0.258330
598.217396	0.258727
598.427589	0.258150
598.637764	0.259039
598.847921	0.258202
599.058060	0.259281
599.268180	0.259270
599.478282	0.258861
599.688366	0.258306
599.898431	0.258329
600.108479	0.258963
600.318508	0.259653
600.528519	0.259794
600.738511	0.260551
600.948486	0.260167
601.158442	0.260847
601.368380	0.261740
601.578300	0.262883
601.788202	0.263527
601.998085	0.263737
602.207950	0.263796
602.417797	0.263736
602.627626	0.263985
602.837436	0.265022
603.047228	0.265182
603.257002	0.265056
603.466758	0.264169
603.676496	0.264133
603.886215	0.264307
604.095916	0.264574
604.305599	0.265208
604.515264	0.265923
604.724910	0.264725
604.934538	0.265032
605.144148	0.265783
605.353740	0.266746
605.563314	0.266425
605.772869	0.266431
605.982406	0.267134
606.191925	0.267931
606.401425	0.268441
606.610908	0.269169
606.820372	0.269043
607.029818	0.269132
607.239246	0.269003
607.448655	0.268562
607.658047	0.268170
607.867420	0.267540
608.076775	0.267222
608.286111	0.267377
608.495430	0.267254
608.704730	0.267672
608.914012	0.267962
609.123275	0.268464
609.332521	0.269099
609.541748	0.269963
609.750957	0.270526
609.960148	0.270056
610.169321	0.269069
610.378475	0.269520
610.587611	0.268892
610.796729	0.269085
611.005829	0.268995
611.214910	0.269753
611.423974	0.270114
611.633019	0.270544
611.842045	0.271354
612.051054	0.272129
612.260044	0.272358
612.469017	0.273669
612.677970	0.273198
612.886906	0.273232
613.095824	0.273200
613.304723	0.273486
613.513604	0.273041
613.722467	0.272864
613.931311	0.272773
614.140138	0.273224
614.348946	0.273220
614.557736	0.274194
614.766507	0.274260
614.975261	0.274318
615.183996	0.273832
615.392713	0.274177
615.601412	0.274920
615.810092	0.275384
616.018754	0.275741
616.227399	0.275907
616.436024	0.275925
616.644632	0.276161
616.853222	0.276474
617.061793	0.276284
617.270346	0.275853
617.478880	0.275653
617.687397	0.276339
617.895895	0.276724
618.104375	0.276449
618.312837	0.276498
618.521281	0.276753
618.729706	0.276918
618.938113	0.277717
619.146502	0.279325
619.354873	0.279527
619.563226	0.279242
619.771560	0.278661
619.979876	0.279305
620.188174	0.279978
620.396453	0.280795
620.604715	0.280665
620.812958	0.281159
621.021183	0.280660
621.229390	0.281432
621.437578	0.281568
621.645748	0.282104
621.853900	0.281733
622.062034	0.281149
622.270150	0.280615
622.478247	0.280591
622.686326	0.280331
622.894387	0.280921
623.102430	0.280487
623.310454	0.280014
623.518461	0.280371
623.726449	0.280795
623.934418	0.281651
624.142370	0.281743
624.350303	0.282820
624.558218	0.283322
624.766115	0.283076
624.973994	0.283467
625.181855	0.284245
625.389697	0.284008
625.597521	0.284175
625.805327	0.284182
626.013114	0.284569
626.220883	0.284126
626.428634	0.284226
626.636367	0.284514
626.844082	0.284429
627.051778	0.284596
627.259457	0.285041
627.467117	0.285491
627.674758	0.286060
627.882382	0.286369
628.089987	0.287089
628.297574	0.286790
628.505143	0.286833
628.712694	0.287447
628.920226	0.287985
629.127740	0.287756
629.335236	0.288400
629.542714	0.287745
629.750174	0.287066
629.957615	0.286713
630.165038	0.286905
630.372443	0.287567
630.579829	0.287148
630.787198	0.286960
630.994548	0.287380
631.201880	0.287183
631.409194	0.287632
631.616489	0.288364
631.823766	0.288885
632.031025	0.289231
632.238266	0.288543
632.445489	0.289670
632.652693	0.290242
632.859879	0.290802
633.067047	0.291047
633.274197	0.291141
633.481329	0.291678
633.688442	0.291871
633.895537	0.292426
634.102614	0.293380
634.309672	0.292844
634.516713	0.292578
634.723735	0.292578
634.930739	0.292479
635.137724	0.292995
635.344692	0.293178
635.551641	0.293004
635.758572	0.292442
635.965485	0.292972
636.172379	0.293607
636.379256	0.293799
636.586114	0.294502
636.792954	0.295094
636.999775	0.295369
637.206579	0.296180
637.413364	0.296990
637.620131	0.297531
637.826880	0.297520
638.033610	0.297555
638.240323	0.298223
638.447017	0.298305
638.653692	0.298321
638.860350	0.298200
639.066990	0.297784
639.273611	0.297858
639.480214	0.298018
639.686798	0.297879
639.893365	0.298809
640.099913	0.298959
640.306443	0.298765
640.512955	0.299411
640.719449	0.300007
640.925924	0.300566
641.132381	0.300928
641.338820	0.302118
641.545241	0.302709
641.751644	0.302233
641.958028	0.302286
642.164394	0.302413
642.370742	0.302245
642.577071	0.302349
642.783383	0.302405
642.989676	0.302676
643.195951	0.302049
643.402207	0.301754
643.608446	0.301565
643.814666	0.301549
644.020868	0.301967
644.227052	0.302128
644.433218	0.302268
644.639365	0.302883
644.845494	0.302288
645.051605	0.302555
645.257698	0.303326
645.463772	0.304017
645.669828	0.304756
645.875866	0.304499
646.081886	0.304824
646.287888	0.304788
646.493871	0.304355
646.699836	0.304704
646.905783	0.305581
647.111712	0.305859
647.317622	0.306117
647.523514	0.305747
647.729388	0.306452
647.935244	0.306125
648.141082	0.307016
648.346901	0.307539
648.552702	0.308599
648.758485	0.308531
648.964250	0.308811
649.169996	0.308990
649.375724	0.309877
649.581434	0.309737
649.787126	0.310608
649.992800	0.310023
650.198455	0.309688
650.404092	0.309830
650.609711	0.309939
650.815311	0.310016
651.020894	0.310194
651.226458	0.309941
651.432004	0.310380
651.637532	0.310303
651.843041	0.311173
652.048532	0.312419
652.254006	0.312403
652.459460	0.312689
652.664897	0.312660
652.870315	0.312267
653.075716	0.312602
653.281097	0.313242
653.486461	0.313771
653.691807	0.313600
653.897134	0.313445
654.102443	0.313394
654.307734	0.313861
654.513006	0.314106
654.718261	0.314695
654.923497	0.314842
655.128715	0.314649
655.333915	0.314889
655.539096	0.315748
655.744259	0.315729
655.949404	0.315818
656.154531	0.315854
656.359640	0.315765
656.564730	0.316110
656.769802	0.316356
656.974856	0.316837
657.179892	0.317396
657.384909	0.317224
657.589908	0.317958
657.794889	0.318234
657.999852	0.318208
658.204797	0.318860
658.409723	0.319118
658.614631	0.319667
658.819521	0.319768
659.024393	0.319277
659.229246	0.319348
659.434081	0.319566
659.638898	0.320245
659.843697	0.320631
660.048478	0.320749
660.253240	0.321005
660.457984	0.321048
660.662710	0.321485
660.867417	0.322183
661.072107	0.322536
661.276778	0.322474
661.481431	0.322349
661.686066	0.322765
661.890682	0.322551
662.095281	0.322821
662.299861	0.323353
662.504422	0.323390
662.708966	0.323601
662.913491	0.323126
663.117999	0.323468
663.322488	0.323657
663.526958	0.323881
663.731411	0.325426
663.935845	0.325396
664.140261	0.325644
664.344659	0.325510
664.549038	0.325776
664.753400	0.326954
664.957743	0.327073
665.162068	0.327455
665.366375	0.327356
665.570663	0.326732
665.774933	0.327510
665.979185	0.327557
666.183419	0.328491
666.387635	0.328782
666.591832	0.328539
666.796011	0.328894
667.000172	0.329372
667.204315	0.330341
667.408439	0.330462
667.612545	0.330406
667.816634	0.331095
668.020703	0.331232
668.224755	0.331302
668.428788	0.331758
668.632803	0.332098
668.836800	0.332771
669.040779	0.332464
669.244739	0.333134
669.448681	0.333441
669.652605	0.333350
669.856511	0.333470
670.060399	0.333833
670.264268	0.334492
670.468119	0.334196
670.671952	0.334027
670.875767	0.334117
671.079563	0.334150
671.283341	0.334945
671.487101	0.335666
671.690843	0.335675
671.894567	0.336172
672.098272	0.336170
672.301959	0.336965
672.505628	0.337534
672.709278	0.338194
672.912911	0.338261
673.116525	0.338280
673.320121	0.338026
673.523699	0.338774
673.727258	0.338579
673.930799	0.339024
674.134322	0.339154
674.337827	0.338880
674.541314	0.339055
674.744782	0.339890
674.948232	0.340137
675.151664	0.340944
675.355078	0.341432
675.558474	0.342217
675.761851	0.342304
675.965210	0.342929
676.168551	0.343594
676.371873	0.343774
676.575178	0.343631
676.778464	0.344014
676.981732	0.343649
677.184981	0.343608
677.388213	0.343923
677.591426	0.344192
677.794621	0.344630
677.997798	0.344770
678.200956	0.345070
678.404097	0.345230
678.607219	0.345117
678.810323	0.345219
679.013408	0.345249
679.216476	0.345307
679.419525	0.345170
679.622556	0.344857
679.825569	0.345337
680.028563	0.345821
680.231540	0.346161
680.434498	0.346418
680.637438	0.347447
680.840359	0.347935
681.043263	0.348165
681.246148	0.348531
681.449015	0.348839
681.651864	0.349022
681.854694	0.349060
682.057506	0.349494
682.260301	0.349952
682.463076	0.349707
682.665834	0.349759
682.868573	0.350231
683.071295	0.351298
683.273998	0.351658
683.476682	0.351609
683.679349	0.351671
683.881997	0.352081
684.084627	0.352471
684.287239	0.352703
684.489833	0.352923
684.692408	0.352343
684.894965	0.352228
685.097504	0.352498
685.300025	0.353018
685.502527	0.353566
685.705012	0.353376
685.907478	0.353266
686.109925	0.353501
686.312355	0.353848
686.514766	0.354844
686.717159	0.354918
686.919534	0.355192
687.121891	0.355336
687.324230	0.355812
687.526550	0.356483
687.728852	0.356579
687.931136	0.356509
688.133401	0.356613
688.335649	0.356245
688.537878	0.356701
688.740089	0.357091
688.942281	0.357649
689.144456	0.357302
689.346612	0.357230
689.548750	0.357366
689.750870	0.357767
689.952971	0.358181
690.155055	0.358318
690.357120	0.358151
690.559167	0.358367
690.761195	0.358162
690.963206	0.358688
691.165198	0.359110
691.367172	0.359855
691.569128	0.360132
691.771065	0.360488
691.972984	0.360763
692.174885	0.361501
692.376768	0.361085
692.578633	0.361483
692.780479	0.361855
692.982308	0.361800
693.184118	0.361639
693.385909	0.362120
