sample name	sample
index	23
start time	 02-11-2021  12:13:00 PM


Wavelength (nm)	Absorbance
494.344910	-0.218696
494.563924	-0.218696
494.782919	-0.218696
495.001897	0.113963
495.220856	-0.122401
495.439797	-0.095289
495.658719	-0.074193
495.877624	-0.039759
496.096510	-0.047225
496.315378	0.025422
496.534227	0.012378
496.753059	0.052463
496.971872	0.113459
497.190667	0.113472
497.409444	0.114247
497.628203	0.111183
497.846943	0.108452
498.065665	0.101382
498.284369	0.102435
498.503055	0.104014
498.721723	0.105575
498.940372	0.104447
499.159003	0.105450
499.377616	0.105887
499.596210	0.105779
499.814787	0.106409
500.033345	0.110066
500.251885	0.108689
500.470406	0.111176
500.688910	0.109494
500.907395	0.109083
501.125862	0.108094
501.344311	0.107653
501.562742	0.107322
501.781154	0.107116
501.999548	0.106368
502.217924	0.106006
502.436282	0.105373
502.654621	0.105186
502.872942	0.106650
503.091245	0.104741
503.309530	0.102279
503.527797	0.102390
503.746045	0.102141
503.964275	0.104280
504.182487	0.103251
504.400681	0.102095
504.618856	0.102172
504.837013	0.101734
505.055152	0.103647
505.273273	0.104848
505.491376	0.107104
505.709460	0.106238
505.927526	0.104092
506.145574	0.105401
506.363604	0.104374
506.581615	0.101611
506.799608	0.099950
507.017583	0.100762
507.235540	0.102507
507.453478	0.101272
507.671399	0.102470
507.889301	0.103697
508.107185	0.102187
508.325050	0.102875
508.542898	0.105980
508.760727	0.107886
508.978538	0.105850
509.196330	0.103251
509.414105	0.103257
509.631861	0.101964
509.849599	0.101392
510.067319	0.102477
510.285021	0.102926
510.502704	0.102470
510.720369	0.100679
510.938016	0.100690
511.155645	0.101903
511.373255	0.100767
511.590848	0.101668
511.808422	0.102283
512.025977	0.101705
512.243515	0.101408
512.461034	0.102798
512.678536	0.103532
512.896018	0.103485
513.113483	0.103783
513.330930	0.105867
513.548358	0.106744
513.765768	0.105384
513.983160	0.106552
514.200533	0.107680
514.417889	0.104070
514.635226	0.105339
514.852545	0.106133
515.069845	0.107220
515.287128	0.107445
515.504392	0.106844
515.721638	0.108662
515.938866	0.108274
516.156075	0.107248
516.373267	0.109191
516.590440	0.108548
516.807594	0.108230
517.024731	0.106599
517.241850	0.107843
517.458950	0.107701
517.676032	0.108711
517.893095	0.109248
518.110141	0.109556
518.327168	0.110276
518.544177	0.109195
518.761168	0.110712
518.978141	0.111647
519.195095	0.108493
519.412031	0.108060
519.628949	0.106426
519.845849	0.106602
520.062731	0.107607
520.279594	0.108471
520.496439	0.109138
520.713266	0.108270
520.930074	0.109162
521.146865	0.109899
521.363637	0.110430
521.580391	0.110196
521.797127	0.109759
522.013844	0.107512
522.230543	0.106968
522.447224	0.107021
522.663887	0.107478
522.880532	0.106348
523.097158	0.107490
523.313766	0.108903
523.530356	0.108955
523.746928	0.109434
523.963481	0.111246
524.180017	0.111430
524.396534	0.111179
524.613032	0.110369
524.829513	0.111194
525.045975	0.110535
525.262420	0.110051
525.478845	0.110666
525.695253	0.110719
525.911643	0.110976
526.128014	0.110359
526.344367	0.110899
526.560702	0.112590
526.777018	0.112079
526.993316	0.112480
527.209597	0.112048
527.425858	0.112013
527.642102	0.111274
527.858328	0.111492
528.074535	0.112824
528.290724	0.112964
528.506894	0.112630
528.723047	0.112440
528.939181	0.112113
529.155297	0.112614
529.371395	0.112598
529.587475	0.113210
529.803536	0.112623
530.019579	0.112787
530.235604	0.112001
530.451611	0.111366
530.667600	0.112531
530.883570	0.113054
531.099522	0.112936
531.315456	0.112054
531.531372	0.112771
531.747269	0.113497
531.963148	0.113303
532.179009	0.114636
532.394852	0.114970
532.610676	0.114754
532.826482	0.115417
533.042271	0.115475
533.258040	0.116713
533.473792	0.116734
533.689525	0.117506
533.905240	0.116697
534.120937	0.116923
534.336616	0.117049
534.552277	0.116672
534.767919	0.116452
534.983543	0.117853
535.199149	0.117252
535.414736	0.117156
535.630306	0.116831
535.845857	0.118147
536.061390	0.117647
536.276904	0.118470
536.492401	0.118962
536.707879	0.119653
536.923339	0.119014
537.138781	0.120504
537.354204	0.120424
537.569610	0.121612
537.784997	0.121201
538.000366	0.121282
538.215716	0.121272
538.431049	0.121439
538.646363	0.120816
538.861659	0.120621
539.076937	0.120278
539.292196	0.121119
539.507438	0.119837
539.722661	0.119899
539.937866	0.120232
540.153052	0.120689
540.368221	0.120698
540.583371	0.121679
540.798503	0.122924
541.013617	0.123348
541.228712	0.123347
541.443789	0.123893
541.658848	0.124395
541.873889	0.124230
542.088912	0.123691
542.303916	0.124164
542.518902	0.123874
542.733870	0.123357
542.948820	0.123632
543.163752	0.123732
543.378665	0.123524
543.593560	0.123677
543.808437	0.124635
544.023295	0.125022
544.238136	0.124845
544.452958	0.124943
544.667762	0.124417
544.882548	0.124431
545.097315	0.124236
545.312064	0.125829
545.526795	0.125427
545.741508	0.125276
545.956203	0.125511
546.170879	0.125844
546.385537	0.126023
546.600177	0.126338
546.814799	0.126493
547.029402	0.126290
547.243988	0.125092
547.458555	0.125358
547.673103	0.124489
547.887634	0.123488
548.102146	0.123250
548.316640	0.122818
548.531116	0.122783
548.745574	0.122283
548.960013	0.122432
549.174435	0.122372
549.388838	0.122119
549.603222	0.122886
549.817589	0.123555
550.031937	0.123883
550.246267	0.124094
550.460579	0.124600
550.674873	0.124643
550.889148	0.124365
551.103405	0.123972
551.317644	0.124471
551.531865	0.124440
551.746068	0.123968
551.960252	0.124218
552.174418	0.124329
552.388566	0.123743
552.602696	0.123839
552.816807	0.124202
553.030900	0.124552
553.244975	0.124733
553.459032	0.124621
553.673070	0.124832
553.887091	0.124265
554.101093	0.123955
554.315077	0.124687
554.529042	0.124874
554.742990	0.125148
554.956919	0.125338
555.170830	0.125490
555.384722	0.125909
555.598597	0.126311
555.812453	0.126799
556.026291	0.128042
556.240111	0.127480
556.453913	0.127144
556.667696	0.127361
556.881461	0.127646
557.095208	0.127167
557.308937	0.127126
557.522647	0.126890
557.736339	0.126614
557.950013	0.125059
558.163669	0.125220
558.377307	0.125681
558.590926	0.125330
558.804527	0.125471
559.018110	0.125316
559.231675	0.124725
559.445221	0.125187
559.658749	0.125707
559.872259	0.126885
560.085751	0.127299
560.299225	0.127217
560.512680	0.126737
560.726117	0.126024
560.939536	0.125911
561.152937	0.125840
561.366319	0.125730
561.579683	0.125245
561.793029	0.124699
562.006357	0.125028
562.219667	0.125745
562.432958	0.126395
562.646231	0.126371
562.859486	0.126773
563.072723	0.127750
563.285941	0.128176
563.499141	0.128736
563.712323	0.128905
563.925487	0.128486
564.138632	0.128286
564.351760	0.128142
564.564869	0.128547
564.777960	0.128856
564.991032	0.128721
565.204087	0.128539
565.417123	0.128571
565.630141	0.128782
565.843140	0.129045
566.056122	0.129377
566.269085	0.129800
566.482030	0.130329
566.694957	0.130366
566.907866	0.130912
567.120756	0.131718
567.333628	0.132178
567.546482	0.132634
567.759318	0.133215
567.972135	0.132641
568.184935	0.132779
568.397716	0.133215
568.610478	0.132749
568.823223	0.132638
569.035949	0.131776
569.248657	0.131136
569.461347	0.131172
569.674019	0.130555
569.886672	0.131352
570.099308	0.130997
570.311925	0.130714
570.524523	0.131774
570.737104	0.131976
570.949666	0.132375
571.162210	0.132768
571.374736	0.132721
571.587244	0.132862
571.799733	0.132593
572.012205	0.133819
572.224658	0.134103
572.437092	0.133661
572.649509	0.133503
572.861907	0.133158
573.074287	0.133271
573.286649	0.132768
573.498993	0.132852
573.711318	0.132572
573.923625	0.132376
574.135914	0.132187
574.348185	0.132612
574.560438	0.131946
574.772672	0.132387
574.984888	0.131865
575.197086	0.132246
575.409266	0.132297
575.621427	0.132154
575.833570	0.132125
576.045695	0.132392
576.257802	0.132339
576.469890	0.132306
576.681961	0.132082
576.894013	0.132076
577.106046	0.132412
577.318062	0.132731
577.530059	0.133316
577.742039	0.132327
577.954000	0.131440
578.165942	0.131274
578.377867	0.131986
578.589773	0.132314
578.801661	0.132967
579.013531	0.132099
579.225382	0.131252
579.437216	0.130662
579.649031	0.131224
579.860828	0.131565
580.072606	0.131504
580.284367	0.131508
580.496109	0.131617
580.707833	0.130509
580.919539	0.131458
581.131227	0.132361
581.342896	0.132991
581.554547	0.133095
581.766180	0.133270
581.977795	0.133155
582.189391	0.133654
582.400969	0.133606
582.612529	0.134945
582.824071	0.134877
583.035595	0.134504
583.247100	0.134509
583.458587	0.134583
583.670056	0.135084
583.881506	0.135339
584.092939	0.135184
584.304353	0.135580
584.515749	0.135242
584.727127	0.135596
584.938486	0.135570
585.149828	0.135501
585.361151	0.136496
585.572456	0.136530
585.783742	0.136844
585.995011	0.137013
586.206261	0.137100
586.417493	0.137248
586.628706	0.137284
586.839902	0.137668
587.051079	0.137777
587.262238	0.137305
587.473379	0.137243
587.684502	0.137415
587.895606	0.137551
588.106692	0.137727
588.317760	0.137853
588.528810	0.137303
588.739841	0.137515
588.950855	0.137648
589.161850	0.137290
589.372827	0.137530
589.583785	0.137564
589.794726	0.137442
590.005648	0.136914
590.216552	0.137262
590.427437	0.137793
590.638305	0.137864
590.849154	0.137999
591.059985	0.138655
591.270798	0.138910
591.481592	0.138560
591.692369	0.138525
591.903127	0.139005
592.113867	0.139147
592.324588	0.138797
592.535292	0.138630
592.745977	0.138470
592.956644	0.138135
593.167293	0.137617
593.377923	0.137802
593.588536	0.137614
593.799130	0.137056
594.009706	0.136373
594.220263	0.136272
594.430803	0.136477
594.641324	0.136493
594.851827	0.136384
595.062312	0.135915
595.272778	0.135918
595.483227	0.135797
595.693657	0.136194
595.904069	0.136477
596.114462	0.137192
596.324838	0.136840
596.535195	0.136800
596.745534	0.136878
596.955855	0.137323
597.166157	0.137733
597.376441	0.137935
597.586707	0.138119
597.796955	0.138401
598.007185	0.138023
598.217396	0.138359
598.427589	0.138536
598.637764	0.138542
598.847921	0.139165
599.058060	0.138944
599.268180	0.139274
599.478282	0.139509
599.688366	0.139503
599.898431	0.139838
600.108479	0.139847
600.318508	0.139788
600.528519	0.139890
600.738511	0.139714
600.948486	0.140122
601.158442	0.139885
601.368380	0.139904
601.578300	0.139894
601.788202	0.140199
601.998085	0.140330
602.207950	0.140279
602.417797	0.140548
602.627626	0.140784
602.837436	0.140698
603.047228	0.141055
603.257002	0.140856
603.466758	0.140687
603.676496	0.140698
603.886215	0.141095
604.095916	0.141269
604.305599	0.141201
604.515264	0.141296
604.724910	0.140974
604.934538	0.141402
605.144148	0.141447
605.353740	0.142003
605.563314	0.141352
605.772869	0.141252
605.982406	0.141240
606.191925	0.141201
606.401425	0.141490
606.610908	0.141235
606.820372	0.140795
607.029818	0.140790
607.239246	0.141066
607.448655	0.141205
607.658047	0.141289
607.867420	0.140988
608.076775	0.140971
608.286111	0.140532
608.495430	0.141200
608.704730	0.141063
608.914012	0.141164
609.123275	0.140698
609.332521	0.140916
609.541748	0.140733
609.750957	0.141563
609.960148	0.142032
610.169321	0.142651
610.378475	0.143028
610.587611	0.143255
610.796729	0.143434
611.005829	0.143523
611.214910	0.143991
611.423974	0.144233
611.633019	0.143912
611.842045	0.143545
612.051054	0.143253
612.260044	0.142839
612.469017	0.143062
612.677970	0.143204
612.886906	0.142976
613.095824	0.142163
613.304723	0.142484
613.513604	0.142538
613.722467	0.142713
613.931311	0.142616
614.140138	0.142708
614.348946	0.142817
614.557736	0.142619
614.766507	0.142668
614.975261	0.143269
615.183996	0.142725
615.392713	0.143135
615.601412	0.142942
615.810092	0.142881
616.018754	0.143402
616.227399	0.143588
616.436024	0.143511
616.644632	0.144007
616.853222	0.144195
617.061793	0.144268
617.270346	0.143992
617.478880	0.143978
617.687397	0.144165
617.895895	0.143624
618.104375	0.143456
618.312837	0.143582
618.521281	0.143325
618.729706	0.143236
618.938113	0.143666
619.146502	0.143654
619.354873	0.143794
619.563226	0.143911
619.771560	0.144199
619.979876	0.144178
620.188174	0.144232
620.396453	0.144517
620.604715	0.144493
620.812958	0.144080
621.021183	0.144214
621.229390	0.144310
621.437578	0.144123
621.645748	0.143657
621.853900	0.143525
622.062034	0.143171
622.270150	0.142883
622.478247	0.143062
622.686326	0.142973
622.894387	0.142992
623.102430	0.143162
623.310454	0.143046
623.518461	0.143398
623.726449	0.143668
623.934418	0.144119
624.142370	0.144196
624.350303	0.144404
624.558218	0.145078
624.766115	0.145264
624.973994	0.145460
625.181855	0.145609
625.389697	0.145785
625.597521	0.145777
625.805327	0.146024
626.013114	0.146508
626.220883	0.146321
626.428634	0.146329
626.636367	0.146257
626.844082	0.146381
627.051778	0.146728
627.259457	0.146903
627.467117	0.147014
627.674758	0.147165
627.882382	0.147130
628.089987	0.147281
628.297574	0.146886
628.505143	0.146974
628.712694	0.146956
628.920226	0.146424
629.127740	0.146444
629.335236	0.146485
629.542714	0.146329
629.750174	0.146099
629.957615	0.146376
630.165038	0.146606
630.372443	0.146617
630.579829	0.146518
630.787198	0.147010
630.994548	0.147197
631.201880	0.147249
631.409194	0.147222
631.616489	0.147553
631.823766	0.147708
632.031025	0.147796
632.238266	0.148238
632.445489	0.148496
632.652693	0.148841
632.859879	0.148914
633.067047	0.149478
633.274197	0.149612
633.481329	0.149794
633.688442	0.149701
633.895537	0.149995
634.102614	0.149933
634.309672	0.149793
634.516713	0.149870
634.723735	0.149768
634.930739	0.149428
635.137724	0.149404
635.344692	0.149500
635.551641	0.149972
635.758572	0.150378
635.965485	0.150588
636.172379	0.151085
636.379256	0.151139
636.586114	0.151358
636.792954	0.151365
636.999775	0.151464
637.206579	0.151489
637.413364	0.151214
637.620131	0.150580
637.826880	0.150297
638.033610	0.149751
638.240323	0.149784
638.447017	0.149907
638.653692	0.149977
638.860350	0.150317
639.066990	0.150249
639.273611	0.149979
639.480214	0.150219
639.686798	0.150501
639.893365	0.150713
640.099913	0.150671
640.306443	0.150515
640.512955	0.150736
640.719449	0.150463
640.925924	0.150762
641.132381	0.151333
641.338820	0.151894
641.545241	0.151986
641.751644	0.152267
641.958028	0.152198
642.164394	0.152427
642.370742	0.152516
642.577071	0.152867
642.783383	0.152662
642.989676	0.152269
643.195951	0.151921
643.402207	0.151669
643.608446	0.151598
643.814666	0.151670
644.020868	0.151727
644.227052	0.151388
644.433218	0.151172
644.639365	0.151120
644.845494	0.151293
645.051605	0.151289
645.257698	0.151629
645.463772	0.151867
645.669828	0.151898
645.875866	0.151545
646.081886	0.151845
646.287888	0.151716
646.493871	0.151655
646.699836	0.151733
646.905783	0.151648
647.111712	0.151487
647.317622	0.151743
647.523514	0.151542
647.729388	0.151585
647.935244	0.151380
648.141082	0.151464
648.346901	0.151457
648.552702	0.151612
648.758485	0.151602
648.964250	0.151421
649.169996	0.150945
649.375724	0.151368
649.581434	0.151281
649.787126	0.151860
649.992800	0.152385
650.198455	0.152959
650.404092	0.152784
650.609711	0.153169
650.815311	0.153470
651.020894	0.153697
651.226458	0.153682
651.432004	0.154522
651.637532	0.154194
651.843041	0.154092
652.048532	0.153956
652.254006	0.154391
652.459460	0.154164
652.664897	0.154318
652.870315	0.154470
653.075716	0.154525
653.281097	0.154291
653.486461	0.154571
653.691807	0.154912
653.897134	0.155189
654.102443	0.155321
654.307734	0.155515
654.513006	0.155704
654.718261	0.155503
654.923497	0.155813
655.128715	0.155899
655.333915	0.156279
655.539096	0.155869
655.744259	0.155679
655.949404	0.155417
656.154531	0.155616
656.359640	0.155806
656.564730	0.156421
656.769802	0.156649
656.974856	0.156870
657.179892	0.156645
657.384909	0.157065
657.589908	0.157550
657.794889	0.157974
657.999852	0.157961
658.204797	0.157887
658.409723	0.157746
658.614631	0.157720
658.819521	0.157946
659.024393	0.158142
659.229246	0.158220
659.434081	0.158275
659.638898	0.158469
659.843697	0.159225
660.048478	0.159604
660.253240	0.159597
660.457984	0.159821
660.662710	0.160052
660.867417	0.160461
661.072107	0.160841
661.276778	0.160909
661.481431	0.160837
661.686066	0.160327
661.890682	0.160293
662.095281	0.160596
662.299861	0.160699
662.504422	0.160663
662.708966	0.160404
662.913491	0.160290
663.117999	0.160032
663.322488	0.159961
663.526958	0.160271
663.731411	0.160396
663.935845	0.160406
664.140261	0.160345
664.344659	0.159857
664.549038	0.159934
664.753400	0.160357
664.957743	0.160697
665.162068	0.160807
665.366375	0.161000
665.570663	0.160839
665.774933	0.160950
665.979185	0.161133
666.183419	0.161545
666.387635	0.161578
666.591832	0.161300
666.796011	0.161253
667.000172	0.161115
667.204315	0.161033
667.408439	0.161203
667.612545	0.161355
667.816634	0.161253
668.020703	0.161622
668.224755	0.161611
668.428788	0.161925
668.632803	0.162109
668.836800	0.162162
669.040779	0.162431
669.244739	0.162878
669.448681	0.162915
669.652605	0.163194
669.856511	0.162892
670.060399	0.163122
670.264268	0.162926
670.468119	0.163036
670.671952	0.163466
670.875767	0.163635
671.079563	0.163268
671.283341	0.163416
671.487101	0.163122
671.690843	0.163312
671.894567	0.163773
672.098272	0.164009
672.301959	0.164214
672.505628	0.164354
672.709278	0.164307
672.912911	0.164797
673.116525	0.164679
673.320121	0.165028
673.523699	0.164961
673.727258	0.164577
673.930799	0.164714
674.134322	0.164579
674.337827	0.164377
674.541314	0.164180
674.744782	0.164114
674.948232	0.164448
675.151664	0.164193
675.355078	0.164602
675.558474	0.164760
675.761851	0.164640
675.965210	0.164836
676.168551	0.165110
676.371873	0.165261
676.575178	0.165103
676.778464	0.165029
676.981732	0.165032
677.184981	0.164920
677.388213	0.165088
677.591426	0.165156
677.794621	0.165260
677.997798	0.165460
678.200956	0.165558
678.404097	0.165985
678.607219	0.166149
678.810323	0.166606
679.013408	0.166760
679.216476	0.166843
679.419525	0.166792
679.622556	0.167043
679.825569	0.166918
680.028563	0.167088
680.231540	0.166900
680.434498	0.166874
680.637438	0.166874
680.840359	0.166961
681.043263	0.166991
681.246148	0.167618
681.449015	0.167478
681.651864	0.167872
681.854694	0.168009
682.057506	0.168185
682.260301	0.168344
682.463076	0.168650
682.665834	0.168374
682.868573	0.168447
683.071295	0.168249
683.273998	0.168439
683.476682	0.168496
683.679349	0.168464
683.881997	0.168430
684.084627	0.168258
684.287239	0.168008
684.489833	0.168430
684.692408	0.168658
684.894965	0.169053
685.097504	0.169017
685.300025	0.168938
685.502527	0.168880
685.705012	0.169013
685.907478	0.169299
686.109925	0.169681
686.312355	0.169883
686.514766	0.169673
686.717159	0.169207
686.919534	0.169623
687.121891	0.170077
687.324230	0.170272
687.526550	0.170838
687.728852	0.171060
687.931136	0.171345
688.133401	0.171265
688.335649	0.171764
688.537878	0.172491
688.740089	0.172548
688.942281	0.172507
689.144456	0.172579
689.346612	0.172291
689.548750	0.172517
689.750870	0.172420
689.952971	0.172670
690.155055	0.172521
690.357120	0.172230
690.559167	0.172082
690.761195	0.171704
690.963206	0.171910
691.165198	0.172242
691.367172	0.172347
691.569128	0.172543
691.771065	0.172534
691.972984	0.172940
692.174885	0.173128
692.376768	0.173172
692.578633	0.173446
692.780479	0.173267
692.982308	0.173177
693.184118	0.172923
693.385909	0.172658
