sample name	sample
index	418
start time	 03-08-2021  11:27:20 AM


Wavelength (nm)	Absorbance
494.344910	-0.490323
494.563924	-0.490323
494.782919	-0.490323
495.001897	0.190673
495.220856	-0.195767
495.439797	-0.113238
495.658719	-0.025567
495.877624	0.116224
496.096510	0.040657
496.315378	-0.035489
496.534227	0.027917
496.753059	0.048213
496.971872	0.070758
497.190667	0.072760
497.409444	0.071284
497.628203	0.074991
497.846943	0.074924
498.065665	0.074775
498.284369	0.074406
498.503055	0.073479
498.721723	0.074774
498.940372	0.074791
499.159003	0.075533
499.377616	0.075523
499.596210	0.074891
499.814787	0.074731
500.033345	0.075865
500.251885	0.077210
500.470406	0.077748
500.688910	0.077678
500.907395	0.077522
501.125862	0.077165
501.344311	0.077741
501.562742	0.077612
501.781154	0.077258
501.999548	0.076047
502.217924	0.075177
502.436282	0.074644
502.654621	0.073315
502.872942	0.073228
503.091245	0.073222
503.309530	0.073646
503.527797	0.073483
503.746045	0.074100
503.964275	0.074588
504.182487	0.074650
504.400681	0.075416
504.618856	0.076669
504.837013	0.077282
505.055152	0.076619
505.273273	0.075604
505.491376	0.075907
505.709460	0.076277
505.927526	0.077450
506.145574	0.077543
506.363604	0.077640
506.581615	0.077465
506.799608	0.078166
507.017583	0.078557
507.235540	0.078865
507.453478	0.078973
507.671399	0.078174
507.889301	0.077377
508.107185	0.077929
508.325050	0.078342
508.542898	0.078414
508.760727	0.076882
508.978538	0.077870
509.196330	0.078082
509.414105	0.078114
509.631861	0.078383
509.849599	0.079205
510.067319	0.079167
510.285021	0.079259
510.502704	0.079620
510.720369	0.080733
510.938016	0.080841
511.155645	0.080495
511.373255	0.080584
511.590848	0.080663
511.808422	0.079860
512.025977	0.079315
512.243515	0.079052
512.461034	0.078683
512.678536	0.078933
512.896018	0.079061
513.113483	0.079593
513.330930	0.079179
513.548358	0.078722
513.765768	0.078835
513.983160	0.079345
514.200533	0.078846
514.417889	0.079301
514.635226	0.079351
514.852545	0.078929
515.069845	0.078632
515.287128	0.079677
515.504392	0.080858
515.721638	0.081108
515.938866	0.081310
516.156075	0.082385
516.373267	0.082641
516.590440	0.082445
516.807594	0.082407
517.024731	0.082811
517.241850	0.082120
517.458950	0.081473
517.676032	0.081666
517.893095	0.081906
518.110141	0.081262
518.327168	0.080844
518.544177	0.080659
518.761168	0.081249
518.978141	0.081708
519.195095	0.082272
519.412031	0.082250
519.628949	0.082435
519.845849	0.082200
520.062731	0.082154
520.279594	0.082032
520.496439	0.082029
520.713266	0.081824
520.930074	0.081692
521.146865	0.081323
521.363637	0.081898
521.580391	0.082022
521.797127	0.081562
522.013844	0.081583
522.230543	0.082927
522.447224	0.083017
522.663887	0.083150
522.880532	0.083828
523.097158	0.084353
523.313766	0.084553
523.530356	0.084646
523.746928	0.085236
523.963481	0.085981
524.180017	0.085367
524.396534	0.085804
524.613032	0.086579
524.829513	0.085822
525.045975	0.085650
525.262420	0.085556
525.478845	0.085547
525.695253	0.085897
525.911643	0.085351
526.128014	0.085528
526.344367	0.085442
526.560702	0.084773
526.777018	0.085280
526.993316	0.085497
527.209597	0.086093
527.425858	0.086057
527.642102	0.086062
527.858328	0.086930
528.074535	0.086692
528.290724	0.087191
528.506894	0.087517
528.723047	0.088106
528.939181	0.088090
529.155297	0.087796
529.371395	0.088291
529.587475	0.088831
529.803536	0.088629
530.019579	0.089110
530.235604	0.088886
530.451611	0.089356
530.667600	0.089168
530.883570	0.089596
531.099522	0.089535
531.315456	0.089440
531.531372	0.089467
531.747269	0.090164
531.963148	0.090247
532.179009	0.090332
532.394852	0.090382
532.610676	0.090534
532.826482	0.090692
533.042271	0.090909
533.258040	0.091046
533.473792	0.090721
533.689525	0.089926
533.905240	0.090275
534.120937	0.090657
534.336616	0.090638
534.552277	0.090863
534.767919	0.091326
534.983543	0.091648
535.199149	0.091608
535.414736	0.092095
535.630306	0.092528
535.845857	0.092364
536.061390	0.092275
536.276904	0.092146
536.492401	0.092376
536.707879	0.092020
536.923339	0.091916
537.138781	0.092017
537.354204	0.092423
537.569610	0.092515
537.784997	0.092881
538.000366	0.093141
538.215716	0.093634
538.431049	0.093464
538.646363	0.093882
538.861659	0.094363
539.076937	0.095203
539.292196	0.094877
539.507438	0.095142
539.722661	0.095286
539.937866	0.095900
540.153052	0.095867
540.368221	0.095842
540.583371	0.096222
540.798503	0.096178
541.013617	0.096107
541.228712	0.096130
541.443789	0.096226
541.658848	0.096529
541.873889	0.096243
542.088912	0.096860
542.303916	0.097320
542.518902	0.097092
542.733870	0.096985
542.948820	0.097024
543.163752	0.097548
543.378665	0.098117
543.593560	0.098277
543.808437	0.098503
544.023295	0.098558
544.238136	0.098758
544.452958	0.099020
544.667762	0.099306
544.882548	0.099041
545.097315	0.099416
545.312064	0.098785
545.526795	0.098741
545.741508	0.098550
545.956203	0.098455
546.170879	0.098562
546.385537	0.098787
546.600177	0.098737
546.814799	0.099234
547.029402	0.098855
547.243988	0.099628
547.458555	0.099335
547.673103	0.099565
547.887634	0.099934
548.102146	0.099838
548.316640	0.099972
548.531116	0.100227
548.745574	0.100037
548.960013	0.100293
549.174435	0.100149
549.388838	0.100621
549.603222	0.100899
549.817589	0.100666
550.031937	0.101040
550.246267	0.100660
550.460579	0.100875
550.674873	0.101482
550.889148	0.101519
551.103405	0.101745
551.317644	0.101683
551.531865	0.101932
551.746068	0.102251
551.960252	0.102313
552.174418	0.102626
552.388566	0.102517
552.602696	0.102208
552.816807	0.102551
553.030900	0.102155
553.244975	0.102318
553.459032	0.102791
553.673070	0.102699
553.887091	0.102618
554.101093	0.102694
554.315077	0.102654
554.529042	0.102691
554.742990	0.102483
554.956919	0.102909
555.170830	0.102884
555.384722	0.102301
555.598597	0.102424
555.812453	0.102806
556.026291	0.102871
556.240111	0.103616
556.453913	0.103986
556.667696	0.104200
556.881461	0.104429
557.095208	0.104991
557.308937	0.105205
557.522647	0.105371
557.736339	0.104914
557.950013	0.105023
558.163669	0.104912
558.377307	0.105037
558.590926	0.105158
558.804527	0.105316
559.018110	0.105121
559.231675	0.105118
559.445221	0.105274
559.658749	0.105448
559.872259	0.105526
560.085751	0.105298
560.299225	0.104998
560.512680	0.105092
560.726117	0.105388
560.939536	0.105516
561.152937	0.106073
561.366319	0.105986
561.579683	0.106297
561.793029	0.106477
562.006357	0.106798
562.219667	0.107124
562.432958	0.107120
562.646231	0.106512
562.859486	0.106308
563.072723	0.105948
563.285941	0.106011
563.499141	0.106077
563.712323	0.106057
563.925487	0.106357
564.138632	0.106266
564.351760	0.106389
564.564869	0.107062
564.777960	0.107636
564.991032	0.108134
565.204087	0.108630
565.417123	0.109109
565.630141	0.109329
565.843140	0.109294
566.056122	0.109700
566.269085	0.109838
566.482030	0.109549
566.694957	0.109460
566.907866	0.109317
567.120756	0.109478
567.333628	0.109377
567.546482	0.109626
567.759318	0.109553
567.972135	0.109208
568.184935	0.109628
568.397716	0.109980
568.610478	0.110245
568.823223	0.110374
569.035949	0.110156
569.248657	0.109838
569.461347	0.109771
569.674019	0.110246
569.886672	0.110833
570.099308	0.110661
570.311925	0.110516
570.524523	0.110521
570.737104	0.110492
570.949666	0.110326
571.162210	0.110402
571.374736	0.110477
571.587244	0.110306
571.799733	0.110156
572.012205	0.110331
572.224658	0.110773
572.437092	0.111072
572.649509	0.111460
572.861907	0.111828
573.074287	0.112282
573.286649	0.112164
573.498993	0.112488
573.711318	0.112654
573.923625	0.112422
574.135914	0.112499
574.348185	0.112099
574.560438	0.112022
574.772672	0.111936
574.984888	0.111889
575.197086	0.112238
575.409266	0.112295
575.621427	0.112574
575.833570	0.112754
576.045695	0.112671
576.257802	0.112705
576.469890	0.112930
576.681961	0.113254
576.894013	0.113485
577.106046	0.113683
577.318062	0.113471
577.530059	0.113503
577.742039	0.113482
577.954000	0.113803
578.165942	0.114035
578.377867	0.113678
578.589773	0.113945
578.801661	0.114021
579.013531	0.114026
579.225382	0.114257
579.437216	0.114370
579.649031	0.114809
579.860828	0.114853
580.072606	0.115207
580.284367	0.115833
580.496109	0.115602
580.707833	0.115727
580.919539	0.116093
581.131227	0.116217
581.342896	0.116570
581.554547	0.116692
581.766180	0.116857
581.977795	0.116495
582.189391	0.116341
582.400969	0.116961
582.612529	0.117216
582.824071	0.117247
583.035595	0.117620
583.247100	0.117496
583.458587	0.117575
583.670056	0.117702
583.881506	0.117900
584.092939	0.118177
584.304353	0.117821
584.515749	0.118081
584.727127	0.117996
584.938486	0.117866
585.149828	0.118123
585.361151	0.118049
585.572456	0.117934
585.783742	0.118207
585.995011	0.118364
586.206261	0.118394
586.417493	0.118287
586.628706	0.118069
586.839902	0.118117
587.051079	0.118267
587.262238	0.118327
587.473379	0.118703
587.684502	0.118908
587.895606	0.118797
588.106692	0.119333
588.317760	0.119380
588.528810	0.119589
588.739841	0.119661
588.950855	0.119124
589.161850	0.119454
589.372827	0.119380
589.583785	0.119429
589.794726	0.119670
590.005648	0.119414
590.216552	0.119636
590.427437	0.119755
590.638305	0.119607
590.849154	0.120165
591.059985	0.120034
591.270798	0.120363
591.481592	0.120486
591.692369	0.120340
591.903127	0.120518
592.113867	0.120474
592.324588	0.120660
592.535292	0.120913
592.745977	0.120827
592.956644	0.121206
593.167293	0.121157
593.377923	0.121307
593.588536	0.121379
593.799130	0.121509
594.009706	0.121464
594.220263	0.121647
594.430803	0.122121
594.641324	0.122477
594.851827	0.122621
595.062312	0.122683
595.272778	0.122788
595.483227	0.123240
595.693657	0.123579
595.904069	0.123968
596.114462	0.124065
596.324838	0.123854
596.535195	0.123744
596.745534	0.123870
596.955855	0.123678
597.166157	0.123683
597.376441	0.123465
597.586707	0.123331
597.796955	0.123132
598.007185	0.123150
598.217396	0.123381
598.427589	0.123566
598.637764	0.123286
598.847921	0.123487
599.058060	0.123542
599.268180	0.123423
599.478282	0.123373
599.688366	0.123412
599.898431	0.123546
600.108479	0.123488
600.318508	0.123445
600.528519	0.123388
600.738511	0.123754
600.948486	0.124036
601.158442	0.124507
601.368380	0.124486
601.578300	0.124850
601.788202	0.125167
601.998085	0.125440
602.207950	0.125500
602.417797	0.126006
602.627626	0.126025
602.837436	0.125882
603.047228	0.125854
603.257002	0.126107
603.466758	0.125938
603.676496	0.125955
603.886215	0.125853
604.095916	0.126123
604.305599	0.126069
604.515264	0.126133
604.724910	0.126186
604.934538	0.126425
605.144148	0.126336
605.353740	0.126679
605.563314	0.126686
605.772869	0.126763
605.982406	0.126697
606.191925	0.126763
606.401425	0.126713
606.610908	0.126831
606.820372	0.126958
607.029818	0.127311
607.239246	0.127099
607.448655	0.127195
607.658047	0.127314
607.867420	0.127431
608.076775	0.127563
608.286111	0.127613
608.495430	0.127792
608.704730	0.127791
608.914012	0.127679
609.123275	0.128025
609.332521	0.127804
609.541748	0.127941
609.750957	0.128330
609.960148	0.128422
610.169321	0.128518
610.378475	0.128594
610.587611	0.128612
610.796729	0.128821
611.005829	0.128883
611.214910	0.129452
611.423974	0.129398
611.633019	0.129336
611.842045	0.129453
612.051054	0.129676
612.260044	0.129845
612.469017	0.130041
612.677970	0.129941
612.886906	0.129962
613.095824	0.130038
613.304723	0.130147
613.513604	0.130047
613.722467	0.130016
613.931311	0.129770
614.140138	0.129790
614.348946	0.129991
614.557736	0.130195
614.766507	0.130269
614.975261	0.130164
615.183996	0.130301
615.392713	0.130490
615.601412	0.130778
615.810092	0.131058
616.018754	0.131191
616.227399	0.131215
616.436024	0.131235
616.644632	0.131252
616.853222	0.131396
617.061793	0.131576
617.270346	0.131408
617.478880	0.131325
617.687397	0.131687
617.895895	0.131539
618.104375	0.131506
618.312837	0.131667
618.521281	0.131706
618.729706	0.131592
618.938113	0.131536
619.146502	0.131809
619.354873	0.131648
619.563226	0.131423
619.771560	0.131734
619.979876	0.131687
620.188174	0.131707
620.396453	0.131716
620.604715	0.131708
620.812958	0.131695
621.021183	0.131661
621.229390	0.131851
621.437578	0.131780
621.645748	0.131791
621.853900	0.132272
622.062034	0.132255
622.270150	0.132332
622.478247	0.132441
622.686326	0.132622
622.894387	0.132578
623.102430	0.132608
623.310454	0.132583
623.518461	0.132589
623.726449	0.132377
623.934418	0.132727
624.142370	0.132913
624.350303	0.133067
624.558218	0.133360
624.766115	0.133582
624.973994	0.133872
625.181855	0.134222
625.389697	0.134261
625.597521	0.134272
625.805327	0.134393
626.013114	0.134460
626.220883	0.134481
626.428634	0.134405
626.636367	0.134753
626.844082	0.134837
627.051778	0.135095
627.259457	0.135437
627.467117	0.135677
627.674758	0.135729
627.882382	0.135985
628.089987	0.136197
628.297574	0.136140
628.505143	0.136316
628.712694	0.136416
628.920226	0.136467
629.127740	0.136520
629.335236	0.136538
629.542714	0.136513
629.750174	0.136321
629.957615	0.136373
630.165038	0.136708
630.372443	0.136531
630.579829	0.136319
630.787198	0.136224
630.994548	0.136002
631.201880	0.135954
631.409194	0.135779
631.616489	0.136040
631.823766	0.136218
632.031025	0.136151
632.238266	0.136176
632.445489	0.136572
632.652693	0.136525
632.859879	0.136858
633.067047	0.137047
633.274197	0.137075
633.481329	0.137025
633.688442	0.136971
633.895537	0.137047
634.102614	0.136905
634.309672	0.136683
634.516713	0.136824
634.723735	0.137059
634.930739	0.137150
635.137724	0.137470
635.344692	0.137650
635.551641	0.137806
635.758572	0.137786
635.965485	0.138246
636.172379	0.138568
636.379256	0.138850
636.586114	0.138789
636.792954	0.138875
636.999775	0.138867
637.206579	0.139138
637.413364	0.139294
637.620131	0.139453
637.826880	0.139480
638.033610	0.139575
638.240323	0.139457
638.447017	0.139271
638.653692	0.139345
638.860350	0.139540
639.066990	0.139392
639.273611	0.139251
639.480214	0.139471
639.686798	0.139493
639.893365	0.139581
640.099913	0.139649
640.306443	0.139955
640.512955	0.140235
640.719449	0.140405
640.925924	0.140558
641.132381	0.140720
641.338820	0.140951
641.545241	0.141116
641.751644	0.141182
641.958028	0.141389
642.164394	0.141444
642.370742	0.141309
642.577071	0.141333
642.783383	0.141444
642.989676	0.141511
643.195951	0.141267
643.402207	0.141313
643.608446	0.141338
643.814666	0.141488
644.020868	0.141520
644.227052	0.141560
644.433218	0.141444
644.639365	0.141513
644.845494	0.141759
645.051605	0.141870
645.257698	0.141751
645.463772	0.141817
645.669828	0.141633
645.875866	0.141537
646.081886	0.141529
646.287888	0.141844
646.493871	0.141872
646.699836	0.142050
646.905783	0.142266
647.111712	0.142383
647.317622	0.142466
647.523514	0.142764
647.729388	0.143007
647.935244	0.143040
648.141082	0.143058
648.346901	0.143215
648.552702	0.143152
648.758485	0.143288
648.964250	0.143352
649.169996	0.143479
649.375724	0.143619
649.581434	0.143909
649.787126	0.144153
649.992800	0.144384
650.198455	0.144472
650.404092	0.144377
650.609711	0.144320
650.815311	0.144539
651.020894	0.144442
651.226458	0.144349
651.432004	0.144203
651.637532	0.144426
651.843041	0.144385
652.048532	0.144368
652.254006	0.144342
652.459460	0.144380
652.664897	0.144572
652.870315	0.144870
653.075716	0.144961
653.281097	0.145182
653.486461	0.145119
653.691807	0.145289
653.897134	0.145568
654.102443	0.145871
654.307734	0.145924
654.513006	0.145749
654.718261	0.145749
654.923497	0.146122
655.128715	0.146263
655.333915	0.146356
655.539096	0.146377
655.744259	0.146506
655.949404	0.146616
656.154531	0.146743
656.359640	0.146924
656.564730	0.146931
656.769802	0.146760
656.974856	0.146881
657.179892	0.147071
657.384909	0.147038
657.589908	0.146754
657.794889	0.146911
657.999852	0.147221
658.204797	0.147477
658.409723	0.147634
658.614631	0.147862
658.819521	0.147789
659.024393	0.147721
659.229246	0.148095
659.434081	0.148198
659.638898	0.148379
659.843697	0.148406
660.048478	0.148518
660.253240	0.148671
660.457984	0.148981
660.662710	0.149152
660.867417	0.149336
661.072107	0.149174
661.276778	0.149364
661.481431	0.149334
661.686066	0.149228
661.890682	0.149316
662.095281	0.149446
662.299861	0.149297
662.504422	0.149444
662.708966	0.149707
662.913491	0.149914
663.117999	0.150133
663.322488	0.150295
663.526958	0.150621
663.731411	0.150617
663.935845	0.150589
664.140261	0.150633
664.344659	0.150596
664.549038	0.150509
664.753400	0.150600
664.957743	0.150655
665.162068	0.150843
665.366375	0.150937
665.570663	0.150878
665.774933	0.151083
665.979185	0.151270
666.183419	0.151417
666.387635	0.151734
666.591832	0.151955
666.796011	0.152305
667.000172	0.152281
667.204315	0.152328
667.408439	0.152707
667.612545	0.152808
667.816634	0.152896
668.020703	0.153098
668.224755	0.152947
668.428788	0.153070
668.632803	0.153098
668.836800	0.153107
669.040779	0.153337
669.244739	0.153435
669.448681	0.153739
669.652605	0.153806
669.856511	0.153963
670.060399	0.154338
670.264268	0.154496
670.468119	0.154567
670.671952	0.154693
670.875767	0.154703
671.079563	0.154702
671.283341	0.154547
671.487101	0.154649
671.690843	0.154724
671.894567	0.154570
672.098272	0.154402
672.301959	0.154428
672.505628	0.154534
672.709278	0.154542
672.912911	0.154557
673.116525	0.154674
673.320121	0.154835
673.523699	0.154862
673.727258	0.154925
673.930799	0.155010
674.134322	0.155154
674.337827	0.155226
674.541314	0.155495
674.744782	0.155698
674.948232	0.155753
675.151664	0.155978
675.355078	0.156060
675.558474	0.156243
675.761851	0.156383
675.965210	0.156388
676.168551	0.156662
676.371873	0.156592
676.575178	0.156865
676.778464	0.157273
676.981732	0.157171
677.184981	0.157404
677.388213	0.157499
677.591426	0.157537
677.794621	0.157726
677.997798	0.157607
678.200956	0.157675
678.404097	0.157689
678.607219	0.157652
678.810323	0.157676
679.013408	0.157752
679.216476	0.158022
679.419525	0.158027
679.622556	0.157876
679.825569	0.158161
680.028563	0.158290
680.231540	0.158143
680.434498	0.158228
680.637438	0.158389
680.840359	0.158254
681.043263	0.158164
681.246148	0.158410
681.449015	0.158681
681.651864	0.158769
681.854694	0.158918
682.057506	0.159171
682.260301	0.159337
682.463076	0.159539
682.665834	0.159685
682.868573	0.159806
683.071295	0.160096
683.273998	0.160369
683.476682	0.160382
683.679349	0.160496
683.881997	0.160744
684.084627	0.160846
684.287239	0.160741
684.489833	0.160789
684.692408	0.160928
684.894965	0.160845
685.097504	0.160873
685.300025	0.161081
685.502527	0.161053
685.705012	0.161057
685.907478	0.161185
686.109925	0.161554
686.312355	0.161841
686.514766	0.162008
686.717159	0.162363
686.919534	0.162348
687.121891	0.162365
687.324230	0.162709
687.526550	0.162722
687.728852	0.162741
687.931136	0.162756
688.133401	0.162880
688.335649	0.162909
688.537878	0.162820
688.740089	0.162866
688.942281	0.162888
689.144456	0.163029
689.346612	0.163277
689.548750	0.163298
689.750870	0.163492
689.952971	0.163571
690.155055	0.163667
690.357120	0.163788
690.559167	0.163955
690.761195	0.164115
690.963206	0.164043
691.165198	0.164074
691.367172	0.164134
691.569128	0.163835
691.771065	0.163911
691.972984	0.163768
692.174885	0.163821
692.376768	0.163751
692.578633	0.163898
692.780479	0.163796
692.982308	0.163614
693.184118	0.163870
693.385909	0.164284
