sample name	sample
index	100
start time	 02-15-2021  11:07:58 AM
880	-0.035991
Peak Time (s)	91.037
Peak Height 	-0.03599
calc peak height	90,93
Baseline Time (s)	9.036
Baseline Value 	-7.4213E-4
subtract baseline	10,4
Abs	-0.005349
Peak Time (s)	90.537
Peak Height 	-0.005349
calc peak height	90,93
Baseline Time (s)	11.537
Baseline Value 	0.01261
subtract baseline	10,3
PK_550	-0.001735
Peak Time (s)	91.037
Peak Height 	-0.001735
calc peak height	90,93
Baseline Time (s)	11.037
Baseline Value 	5.1103E-4
subtract baseline	10,2
PK_880	0.000284
Peak Time (s)	90.537
Peak Height 	2.8424E-4
calc peak height	90,93
Baseline Time (s)	9.537
Baseline Value 	-5.3722E-4
subtract baseline	10,1


Time (s)	A880-A510	A880-A775	A880-A975	A880	I510	I775	I975	I880	
0.036000	-0.000248	-0.000733	-0.015092	0.006747	4117.718722	14633.174949	3188.478343	8459.723768
0.536000	-0.001741	-0.000460	-0.008308	0.004243	4120.388508	14707.668117	3194.274667	8491.562161
1.037500	-0.000596	-0.000199	-0.010673	0.003618	4125.076530	14731.559286	3193.179837	8499.545709
1.537000	0.002144	0.002330	-0.015728	0.001061	4139.212782	14869.502488	3191.614743	8532.287871
2.037500	-0.002368	-0.000961	-0.016430	0.006261	4113.421175	14640.094279	3187.952790	8465.888375
2.535000	0.000596	0.000558	-0.015245	-0.000433	4139.068855	14861.937249	3192.852569	8551.520161
3.035000	0.004927	0.001088	-0.010101	-0.000789	4151.725423	14886.119118	3196.325567	8556.113472
3.536000	0.001310	-0.000352	-0.010226	0.000247	4139.159520	14818.644414	3195.588750	8542.760592
4.036000	0.003058	-0.000080	-0.020063	0.001609	4140.197246	14789.073932	3188.582022	8525.259111
4.536500	-0.001394	-0.000506	-0.009514	0.000221	4131.991638	14815.169176	3196.056740	8543.094395
5.039000	-0.000440	-0.000536	-0.004369	0.003179	4126.654488	14734.281113	3197.448645	8505.146392
5.537000	0.003500	0.001981	-0.013296	0.001682	4141.191393	14843.081296	3192.748357	8524.325166
6.037500	0.003193	0.000367	-0.006347	0.000416	4143.772145	14833.591348	3197.949704	8540.579055
6.540500	-0.001390	-0.000187	-0.013757	-0.000218	4133.174427	14835.786341	3193.652871	8548.751031
7.035000	0.000535	-0.000004	0.009069	0.000598	4136.140416	14818.586424	3207.861340	8538.249822
7.534500	0.000425	-0.000679	-0.016643	-0.001024	4140.197641	14844.307581	3192.346243	8559.141388
8.035500	0.000289	-0.000287	-0.001400	0.000133	4136.726450	14823.521518	3201.313911	8544.230301
8.538500	0.002760	0.000667	-0.009745	0.000403	4142.639456	14842.104239	3195.794901	8540.752017
9.035500	-0.000157	-0.000371	0.001425	0.000000	4135.888483	14824.837177	3203.233780	8545.940176
9.536500	0.000000	-0.000799	-0.015399	-0.000923	4138.785597	14838.326947	3193.063833	8557.844373
10.036500	0.003920	0.000049	-0.008040	0.000265	4146.141033	14829.060700	3196.966522	8542.527889
10.537000	0.001334	0.000803	0.001159	0.000689	4138.039579	14838.038884	3202.613034	8537.078484
11.036500	-0.002742	0.000000	0.004392	-0.000329	4129.861096	14843.876840	3205.388651	8550.173662
11.537500	-0.001685	-0.000923	0.000000	-0.000388	4132.840327	14820.390557	3202.559465	8550.942734
12.035000	0.000619	0.001495	-0.016276	0.001271	4134.564188	14841.049306	3191.142019	8529.600227
12.534500	0.002681	0.001635	-0.000609	0.001501	4139.475932	14838.588643	3200.940958	8526.649588
13.036000	-0.004393	-0.001437	-0.001871	-0.002587	4131.480211	14866.258550	3202.772090	8579.353105
13.540000	-0.001782	-0.001528	-0.019225	-0.002951	4139.444656	14873.718119	3191.936917	8584.075102
14.036500	-0.001787	0.001227	-0.014910	0.002828	4124.012568	14791.465801	3191.022556	8509.642361
14.539500	-0.002025	0.000608	-0.018652	0.002038	4125.476689	14796.117812	3189.189324	8519.761276
15.036500	-0.000073	0.000489	-0.009162	0.003588	4126.541293	14750.909882	3194.149575	8499.921900
15.537000	0.001898	-0.000291	-0.009021	-0.000752	4143.429497	14847.474816	3196.989433	8555.633477
16.037500	0.002137	0.000733	-0.004507	-0.001649	4146.496626	14899.918155	3200.457629	8567.220177
16.535500	0.001212	0.000823	-0.003191	-0.000696	4141.429739	14876.330449	3200.691668	8554.905496
17.035000	0.002393	0.001767	-0.023076	0.003487	4133.382585	14788.242902	3185.577995	8501.214432
17.536000	0.000917	0.000003	-0.001475	0.000169	4138.313450	14830.430943	3201.241785	8543.763871
18.038500	0.000068	-0.000429	0.000412	0.001046	4133.691981	14794.887957	3201.896047	8532.488901
18.536000	-0.002449	0.001167	-0.023653	0.001777	4125.041154	14818.352066	3186.270574	8523.100434
19.036500	0.000088	-0.000430	-0.020081	0.001186	4133.370677	14791.066573	3188.831914	8530.689628
19.536500	0.002347	-0.000165	0.001000	0.001039	4139.817295	14802.216330	3202.281773	8532.572342
20.036500	0.000888	-0.001056	0.001171	-0.000047	4138.816922	14807.512364	3203.099065	8546.540013
20.537500	0.003152	0.001397	-0.005200	0.002874	4137.055510	14794.808415	3197.113631	8509.050826
21.034500	-0.000012	-0.000379	-0.005872	0.000323	4135.411988	14815.855405	3198.313568	8541.782670
21.535000	0.001230	-0.000024	-0.006918	0.000813	4137.426815	14812.200484	3197.332642	8535.485503
22.035000	0.000389	0.000479	-0.001257	0.001294	4133.886848	14812.783917	3200.656052	8529.302068
22.535500	0.002253	0.000419	-0.013901	0.001530	4138.248329	14804.762705	3192.464502	8526.275657
23.036000	0.002183	-0.000674	0.000591	0.000731	4140.205200	14796.773719	3202.216636	8536.538595
23.536000	0.000552	0.000005	-0.013638	0.000671	4135.991104	14816.829460	3193.168114	8537.305681
24.036500	0.002798	0.001294	-0.001480	0.002214	4137.874406	14809.930161	3199.918632	8517.497558
24.536500	0.001142	-0.001499	-0.013433	0.000099	4139.106604	14791.529101	3193.656779	8544.661720
25.037000	0.002595	0.001967	-0.000314	0.002672	4136.103360	14815.778171	3200.374831	8511.633339
25.537000	-0.002566	0.000610	0.004110	0.000886	4127.096051	14827.424146	3204.408172	8534.537001
26.037500	0.001436	-0.000208	-0.013576	0.000987	4137.513033	14802.482787	3193.008612	8533.246180
26.534500	0.001862	0.000469	0.013561	0.000879	4138.944050	14823.781420	3210.662210	8534.628805
27.035500	-0.000505	0.000019	0.004820	0.000787	4132.852185	14814.063174	3204.937410	8535.810133
27.538500	0.002405	0.001957	-0.015524	0.000731	4140.802400	14868.337398	3191.948416	8536.535647
28.036000	-0.004172	-0.000995	-0.016704	-0.001609	4129.463902	14851.665361	3192.675095	8566.702094
28.539000	-0.000891	-0.000346	-0.005423	-0.001708	4138.499868	14872.056279	3199.905257	8567.979258
29.036000	-0.001382	-0.001201	-0.007784	-0.001581	4136.840633	14845.259956	3198.308387	8566.334930
29.537000	0.002043	0.000375	-0.008569	-0.000400	4142.874294	14856.046008	3197.053452	8551.099695
30.036500	-0.000119	-0.000146	-0.010162	-0.000242	4136.639788	14837.569215	3195.939755	8549.062754
30.534000	0.002757	0.000627	-0.012373	-0.000274	4144.455810	14859.453277	3194.560020	8549.467701
31.035000	0.000620	0.000816	-0.012788	0.002233	4131.994800	14796.442552	3192.721451	8517.251978
31.535000	-0.000235	0.000924	-0.002156	0.000446	4134.485974	14847.932583	3200.622624	8540.193210
32.038000	0.004151	0.000046	-0.001119	-0.000087	4147.717904	14838.560317	3201.638339	8547.064138
32.536000	0.002211	0.000100	-0.003748	-0.000367	4143.236409	14847.633862	3200.120360	8550.664097
33.036000	-0.001620	0.000528	-0.016970	0.005040	4118.601651	14712.806496	3188.373081	8481.407150
33.539500	0.000040	-0.002062	-0.011005	-0.002529	4143.210914	14847.649115	3196.857507	8578.604159
34.037000	-0.001241	0.000880	0.005736	0.001970	4127.736780	14805.312702	3204.762501	8520.621640
34.537000	0.003662	-0.001161	-0.009002	0.000859	4143.844133	14780.129605	3195.977402	8534.894358
35.034500	0.001543	0.000651	-0.006915	0.002117	4134.772445	14795.119880	3196.503782	8518.748129
35.534500	-0.000077	-0.000121	-0.016091	0.000896	4133.706260	14807.307083	3191.491304	8534.413699
36.035000	0.000526	0.002221	-0.007864	0.003802	4127.565234	14791.983023	3194.833581	8497.185253
36.535000	0.002910	0.000007	-0.004918	0.001893	4139.036888	14783.734813	3197.919648	8521.609881
37.035500	0.002391	0.000112	-0.001526	0.002508	4135.995205	14769.940170	3199.700069	8513.735612
37.536000	0.004209	0.001852	-0.008260	0.003447	4138.350506	14791.609192	3194.807657	8501.721411
38.035500	-0.001532	0.000664	0.013839	0.002363	4125.919982	14788.810350	3209.857243	8515.590266
38.537000	-0.001709	0.001263	-0.006198	0.003346	4122.845491	14778.393130	3196.178527	8503.017135
39.037000	0.000654	0.000928	-0.001308	0.002860	4130.413038	14782.483791	3199.614189	8509.228363
39.537500	0.004052	-0.000259	-0.003995	0.002184	4141.324154	14768.659705	3198.324017	8517.884664
40.034500	0.000171	0.000114	-0.011922	0.002534	4129.994400	14769.267509	3193.076159	8513.400756
40.535000	-0.002184	-0.000848	-0.005197	0.001799	4125.686626	14763.144492	3197.801166	8522.818941
41.035000	-0.001712	0.001020	-0.006269	0.002965	4123.846754	14782.151855	3196.375521	8507.886736
41.538500	-0.002016	-0.000512	-0.003030	0.002246	4124.945449	14760.129932	3198.902004	8517.085302
42.035500	0.003347	-0.000265	-0.012413	0.003135	4136.876405	14742.779557	3192.390792	8505.708720
42.536500	-0.003107	-0.001226	-0.015525	0.000877	4125.685539	14777.867010	3191.856528	8534.656812
43.036500	0.001591	0.001091	-0.015298	0.003105	4132.262298	14780.278581	3190.608874	8506.100730
43.536500	0.000445	-0.001255	-0.009169	0.001483	4133.531304	14760.677769	3195.475362	8526.873660
44.037000	0.005349	0.002589	0.004696	0.000875	4148.356063	14881.633533	3204.799166	8534.679702
44.537500	0.005056	0.000404	-0.020090	-0.000880	4152.321289	14869.916145	3190.106990	8557.287971
45.034500	0.002330	-0.000720	-0.001749	0.002882	4134.830944	14737.330116	3199.316064	8508.945694
45.535000	0.004942	0.002125	0.019702	0.003686	4139.679544	14792.557246	3212.900035	8498.677822
46.035000	0.006346	0.001107	-0.016049	0.001103	4150.439272	14835.035914	3191.387849	8531.751052
46.535500	0.004306	0.000076	-0.005679	-0.000358	4148.871146	14846.757275	3198.873911	8550.554994
47.036000	-0.000995	0.000099	-0.009621	0.003902	4123.263586	14731.935442	3193.662563	8495.918376
47.539000	0.000803	0.000774	-0.006872	0.002883	4130.748373	14777.686430	3196.043967	8508.930052
48.036500	0.000689	-0.000047	-0.017517	0.003322	4129.276841	14743.629209	3189.096610	8503.320227
48.536500	0.005068	0.001969	-0.003910	0.001625	4145.570612	14844.290955	3198.736270	8525.053811
49.037000	0.001788	-0.001749	-0.017044	0.001126	4138.086319	14756.983498	3190.753883	8531.463121
49.537000	0.005692	0.000055	-0.006403	0.002292	4145.452526	14774.222544	3196.718127	8516.500717
50.035000	0.002492	0.001885	-0.000465	-0.000507	4144.372161	14900.180053	3202.334292	8552.471520
50.535000	0.002206	-0.000648	-0.000700	-0.008782	4166.120477	15058.296991	3207.603254	8660.182218
51.038000	-0.001906	-0.001159	0.003747	-0.002660	4138.331533	14875.835566	3206.497838	8580.305488
51.535500	-0.069048	-0.036995	-0.010234	0.162545	3655.435853	10482.670180	3109.755781	6799.784336
52.036500	-0.037403	-0.020222	-0.028093	-0.057790	4192.225482	15902.438492	3222.262535	9341.943464
52.536500	-0.010442	-0.013093	-0.008701	-0.136835	4529.334558	18729.862893	3299.074472	10617.320090
53.036500	-0.022741	-0.013616	-0.002998	-0.079253	4297.996971	16762.561755	3256.429372	9665.628287
53.536000	-0.010978	-0.010263	-0.013762	-0.068488	4301.043250	16530.005976	3240.174736	9501.281332
54.034000	-0.012602	-0.006709	-0.007546	-0.102132	4402.670605	17738.171565	3270.919063	10028.727904
54.534500	0.002394	-0.004159	-0.008327	-0.121483	4520.343405	18499.397004	3286.234308	10351.122929
55.037000	0.004729	-0.002707	-0.012228	-0.123092	4534.459400	18608.893543	3284.308897	10378.580827
55.535500	-0.012456	-0.005143	-0.012566	-0.089382	4361.770387	17363.956615	3256.863710	9824.011061
56.035500	-0.002846	-0.002855	-0.016411	-0.093350	4405.882006	17572.105138	3256.959281	9887.082229
56.535500	-0.003435	-0.004943	-0.011752	-0.079912	4360.334380	17061.041981	3250.222896	9675.815964
57.036000	0.004483	-0.002509	-0.006708	-0.079294	4383.854780	17119.900467	3253.601907	9666.258865
57.536500	0.001975	-0.003110	-0.009563	-0.082101	4384.828176	17191.670910	3253.565018	9709.786287
58.036500	-0.002588	-0.003074	-0.015741	-0.080283	4364.233251	17133.654917	3247.486044	9681.559379
58.537000	-0.003167	-0.003743	-0.010884	-0.073690	4341.444788	16899.629542	3246.180913	9580.189588
59.034500	-0.003460	-0.004517	-0.010354	-0.066359	4317.626604	16642.981690	3241.118103	9469.255511
59.535000	-0.001054	-0.002723	-0.015119	-0.054241	4287.890324	16322.973379	3228.887272	9289.959144
60.035000	-0.005266	-0.002467	-0.005500	-0.053241	4272.198892	16300.186363	3235.071284	9275.376689
60.538000	-0.002469	-0.004211	-0.003090	-0.035542	4228.372162	15718.770650	3224.183747	9022.896654
61.035500	-0.007599	-0.003585	-0.019261	-0.050738	4257.811101	16189.952215	3223.502667	9239.043954
61.535500	-0.003182	-0.003637	-0.008414	-0.049113	4266.098628	16139.173701	3230.009523	9215.570686
62.035500	-0.004886	-0.005098	-0.021553	-0.037207	4226.200957	15741.560798	3212.656305	9046.220180
62.536500	-0.007773	-0.005185	-0.026792	-0.039566	4224.675965	15808.273704	3210.723818	9079.397549
63.037000	-0.005849	-0.003844	-0.016040	-0.038706	4227.747442	15822.427144	3217.414225	9067.281493
63.537000	-0.006877	-0.004090	-0.016743	-0.040472	4229.882282	15867.312623	3218.142110	9092.195441
64.038500	0.001002	-0.003668	-0.021648	-0.048971	4278.192977	16133.959149	3220.617501	9213.526977
64.538500	-0.000675	-0.003395	-0.005517	-0.052012	4282.299758	16234.426418	3234.169920	9257.518363
65.038000	-0.005753	-0.004001	-0.027312	-0.055818	4278.470603	16332.150234	3221.436670	9313.011556
65.535000	-0.007563	-0.002675	-0.006638	-0.050694	4257.788274	16216.244592	3232.412566	9238.411268
66.036000	-0.004883	-0.002140	0.003801	-0.057263	4285.447521	16433.872571	3244.876609	9334.203839
66.536000	0.000190	-0.000430	-0.003751	-0.056892	4299.737236	16475.293651	3239.009502	9328.757199
67.036500	-0.002348	-0.003515	-0.021580	-0.056987	4292.292123	16382.945081	3226.258987	9330.145751
67.537000	-0.006091	-0.003040	-0.003045	-0.052279	4266.864311	16253.344022	3236.155597	9261.385739
68.036500	-0.002967	-0.003071	-0.016418	-0.057771	4292.795200	16420.823539	3230.476327	9341.674604
68.534500	-0.001052	-0.002600	-0.011851	-0.056648	4295.204307	16400.707794	3232.945332	9325.173004
69.034500	-0.011184	-0.002591	-0.023236	-0.052589	4252.691002	16276.504082	3222.024055	9265.891003
69.535000	-0.008431	-0.003786	-0.029384	-0.050969	4256.034818	16190.840045	3216.675600	9242.390184
70.035500	-0.009692	-0.003984	-0.015695	-0.056125	4267.596247	16342.074933	3229.817710	9317.503889
70.535500	-0.002322	-0.003956	-0.015421	-0.055177	4286.880663	16313.864403	3229.337240	9303.617918
71.036000	-0.008055	-0.002112	-0.028013	-0.049169	4251.834111	16187.037778	3216.383035	9216.376815
71.536000	-0.001443	-0.004908	-0.006581	-0.053600	4284.772750	16236.713019	3234.548657	9280.610087
72.036000	-0.001410	-0.003890	-0.017402	-0.052266	4280.848088	16227.080595	3225.876411	9261.200320
72.536500	-0.003819	-0.004087	-0.003139	-0.051449	4271.166354	16196.256215	3235.483984	9249.338176
73.037000	-0.008035	-0.002884	-0.020952	-0.046067	4242.790635	16070.113274	3219.094720	9171.805297
73.534500	-0.001832	-0.002790	-0.008510	-0.048433	4268.095520	16144.214649	3229.456548	9205.767709
74.035000	0.003103	-0.003135	0.011332	-0.048265	4282.392201	16128.743004	3243.782450	9203.359243
74.537500	-0.000808	-0.002545	-0.008131	-0.047128	4267.259133	16112.243417	3228.797863	9187.009761
75.036000	-0.000142	-0.002550	-0.009109	-0.043652	4258.908463	16007.717935	3225.650188	9137.309314
75.535500	-0.002123	-0.002642	-0.013728	-0.039465	4240.773634	15880.389670	3219.522224	9077.981173
76.035500	0.000501	-0.002998	-0.022623	-0.045834	4267.305726	16059.679246	3217.787713	9168.470318
76.536000	0.003423	-0.001800	-0.004851	-0.044484	4271.996119	16055.098005	3229.250086	9149.170617
77.036500	0.002261	-0.003435	-0.015041	-0.044983	4270.014692	16021.068086	3222.433382	9156.298162
77.537000	-0.003404	-0.001896	-0.006954	-0.037748	4232.053586	15851.675267	3223.026482	9053.816050
78.037500	-0.000774	-0.001092	0.005121	-0.044450	4259.401806	16075.356299	3236.400153	9148.685628
78.534500	0.000978	-0.001867	-0.023435	-0.044471	4264.664597	16052.700258	3216.301286	9148.985832
79.035000	-0.003258	-0.001865	-0.001834	-0.044517	4252.261692	16054.171119	3231.427732	9149.651276
79.535500	-0.003906	-0.003250	-0.014671	-0.039498	4235.673891	15863.372623	3218.895763	9078.441585
80.036000	-0.003523	-0.000957	-0.002932	-0.043803	4249.380142	16059.968865	3230.132068	9139.467327
80.536000	-0.002549	-0.002962	-0.013711	-0.044940	4255.601061	16033.947817	3223.329410	9155.680278
81.035500	-0.008773	-0.003334	-0.022698	-0.045374	4238.613744	16035.794980	3217.421214	9161.889008
81.536500	-0.006185	-0.003833	-0.008338	-0.038705	4226.773502	15822.749888	3222.729184	9067.268799
82.036500	-0.000933	-0.003103	-0.017658	-0.044451	4258.932426	16015.083460	3220.250555	9148.698925
82.534000	-0.002980	-0.004059	-0.016373	-0.044593	4253.306088	15990.746957	3221.238471	9150.734751
83.037000	-0.001039	-0.002193	-0.018338	-0.042008	4251.408260	15969.281001	3218.101760	9113.951739
83.535000	-0.004181	-0.003367	-0.021316	-0.037359	4228.675184	15796.812062	3212.918144	9048.350010
84.038000	-0.000110	-0.002610	-0.002082	-0.042541	4255.720629	15972.758382	3229.838298	9121.520595
84.535500	-0.005987	-0.002865	-0.009283	-0.042531	4238.445211	15964.844122	3224.741680	9121.365619
85.038000	-0.005347	-0.003198	-0.004550	-0.042821	4241.161589	15963.564041	3228.282982	9125.498426
85.536500	-0.005235	-0.002323	-0.019603	-0.035728	4220.935992	15779.569042	3212.973365	9025.503019
86.036500	0.001290	-0.004462	-0.005483	-0.042366	4259.341676	15912.432021	3227.300093	9119.025227
86.536500	-0.004199	-0.002493	-0.007172	-0.040287	4237.117755	15909.175796	3224.648742	9089.580171
87.036500	-0.003652	-0.004998	-0.019231	-0.039406	4236.144853	15809.057145	3215.714951	9077.142493
87.537500	-0.001720	-0.003607	-0.013761	-0.035723	4231.061810	15741.743209	3216.932997	9025.428812
88.040500	-0.003061	-0.002893	-0.013662	-0.039788	4238.980552	15882.510633	3219.790517	9082.532973
88.535500	-0.002613	-0.004935	-0.015381	-0.040658	4242.828235	15847.854195	3219.205990	9094.830355
89.035000	-0.002101	-0.003011	-0.010239	-0.039020	4239.540597	15856.323121	3221.627209	9071.711075
89.535500	-0.005290	-0.003262	-0.005414	-0.032843	4212.517187	15667.718574	3220.690832	8985.303542
90.036000	-0.002351	-0.003731	-0.010585	-0.037826	4235.334109	15799.851030	3220.560180	9054.905390
90.536500	0.000284	-0.002282	-0.005349	-0.036719	4239.785465	15809.921024	3223.427994	9039.373830
91.036500	-0.000184	-0.001735	-0.015269	-0.035991	4236.301280	15804.594613	3216.087233	9029.181128
91.536500	-0.002562	-0.003947	-0.018278	-0.037738	4234.467090	15790.932704	3215.229523	9053.678129
92.037000	-0.004230	-0.002676	-0.007148	-0.037077	4227.718587	15808.883834	3222.424225	9044.398857
92.534000	-0.002150	-0.003627	-0.009149	-0.038033	4236.522877	15809.011569	3221.698217	9057.815511
93.035000	0.001010	-0.002799	-0.006924	-0.036104	4240.107460	15776.620840	3221.903542	9030.758558
93.538000	-0.000849	-0.003152	-0.007263	-0.036700	4236.429544	15783.767131	3222.082669	9039.111798
94.035500	-0.002206	-0.003219	-0.033315	-0.035749	4229.730746	15753.895292	3203.892018	9025.795495
94.535500	-0.002411	-0.004474	-0.004316	-0.036304	4230.742631	15733.364792	3223.859319	9033.556237
95.035500	-0.005058	-0.003784	-0.022915	-0.032522	4212.260313	15643.182448	3208.613875	8980.834252
95.536500	0.000049	-0.002820	-0.004568	-0.034964	4233.991237	15742.564479	3222.749392	9014.827405
96.036500	-0.001618	-0.005086	-0.023548	-0.035779	4231.521259	15700.146108	3210.361227	9026.217497
96.537000	-0.002446	-0.003361	-0.018020	-0.034137	4224.382429	15702.546547	3212.968029	9003.294130
