sample name	sample
index	1518
start time	 05-18-2021  03:22:16 PM


Wavelength (nm)	Absorbance
494.344910	1.014091
494.563924	1.014091
494.782919	1.014091
495.001897	-0.060969
495.220856	0.249745
495.439797	0.205806
495.658719	0.199478
495.877624	0.194400
496.096510	0.244838
496.315378	0.195175
496.534227	0.317370
496.753059	0.318499
496.971872	0.341162
497.190667	0.194560
497.409444	0.184451
497.628203	0.180424
497.846943	0.179260
498.065665	0.179169
498.284369	0.179680
498.503055	0.179312
498.721723	0.179372
498.940372	0.179104
499.159003	0.180246
499.377616	0.181148
499.596210	0.180694
499.814787	0.181531
500.033345	0.181687
500.251885	0.181458
500.470406	0.182190
500.688910	0.181052
500.907395	0.181864
501.125862	0.180807
501.344311	0.180487
501.562742	0.182256
501.781154	0.181308
501.999548	0.179715
502.217924	0.180743
502.436282	0.178857
502.654621	0.180291
502.872942	0.180194
503.091245	0.180871
503.309530	0.181186
503.527797	0.180801
503.746045	0.181108
503.964275	0.183327
504.182487	0.181642
504.400681	0.182733
504.618856	0.183289
504.837013	0.183889
505.055152	0.184023
505.273273	0.183604
505.491376	0.184097
505.709460	0.184668
505.927526	0.184812
506.145574	0.184788
506.363604	0.184612
506.581615	0.183279
506.799608	0.183419
507.017583	0.182673
507.235540	0.182252
507.453478	0.182131
507.671399	0.181662
507.889301	0.180968
508.107185	0.180666
508.325050	0.181602
508.542898	0.182791
508.760727	0.181926
508.978538	0.182778
509.196330	0.182662
509.414105	0.182662
509.631861	0.182935
509.849599	0.182868
510.067319	0.183985
510.285021	0.183427
510.502704	0.183236
510.720369	0.183881
510.938016	0.184416
511.155645	0.185909
511.373255	0.186080
511.590848	0.186325
511.808422	0.186799
512.025977	0.186396
512.243515	0.186712
512.461034	0.186376
512.678536	0.186354
512.896018	0.185776
513.113483	0.184820
513.330930	0.184478
513.548358	0.184075
513.765768	0.184540
513.983160	0.185202
514.200533	0.185819
514.417889	0.186022
514.635226	0.185234
514.852545	0.185815
515.069845	0.186395
515.287128	0.186729
515.504392	0.187209
515.721638	0.186838
515.938866	0.186416
516.156075	0.186238
516.373267	0.187595
516.590440	0.188257
516.807594	0.188635
517.024731	0.189444
517.241850	0.189764
517.458950	0.189323
517.676032	0.189553
517.893095	0.189611
518.110141	0.189536
518.327168	0.188986
518.544177	0.189658
518.761168	0.188963
518.978141	0.189285
519.195095	0.189055
519.412031	0.190229
519.628949	0.190012
519.845849	0.191024
520.062731	0.191813
520.279594	0.191568
520.496439	0.191804
520.713266	0.192262
520.930074	0.190962
521.146865	0.191008
521.363637	0.191124
521.580391	0.191620
521.797127	0.191950
522.013844	0.191177
522.230543	0.191019
522.447224	0.191331
522.663887	0.192104
522.880532	0.192812
523.097158	0.193562
523.313766	0.193297
523.530356	0.193181
523.746928	0.192943
523.963481	0.193816
524.180017	0.194319
524.396534	0.194422
524.613032	0.194371
524.829513	0.195198
525.045975	0.195518
525.262420	0.196106
525.478845	0.195918
525.695253	0.196090
525.911643	0.196034
526.128014	0.196268
526.344367	0.195846
526.560702	0.195656
526.777018	0.195126
526.993316	0.195182
527.209597	0.195497
527.425858	0.196712
527.642102	0.196548
527.858328	0.196831
528.074535	0.197443
528.290724	0.197508
528.506894	0.197250
528.723047	0.197822
528.939181	0.197751
529.155297	0.196861
529.371395	0.196581
529.587475	0.197525
529.803536	0.197748
530.019579	0.197737
530.235604	0.198023
530.451611	0.198876
530.667600	0.198827
530.883570	0.198827
531.099522	0.199641
531.315456	0.200144
531.531372	0.199659
531.747269	0.200599
531.963148	0.200544
532.179009	0.200886
532.394852	0.201153
532.610676	0.201540
532.826482	0.202367
533.042271	0.202733
533.258040	0.202782
533.473792	0.202931
533.689525	0.202741
533.905240	0.203756
534.120937	0.204486
534.336616	0.205412
534.552277	0.205870
534.767919	0.205340
534.983543	0.206075
535.199149	0.206548
535.414736	0.207314
535.630306	0.207527
535.845857	0.207295
536.061390	0.207257
536.276904	0.206731
536.492401	0.206761
536.707879	0.206926
536.923339	0.207423
537.138781	0.207226
537.354204	0.207797
537.569610	0.208242
537.784997	0.208721
538.000366	0.208997
538.215716	0.209506
538.431049	0.209659
538.646363	0.210245
538.861659	0.209971
539.076937	0.210470
539.292196	0.210011
539.507438	0.210163
539.722661	0.210489
539.937866	0.211309
540.153052	0.211063
540.368221	0.211439
540.583371	0.212028
540.798503	0.211945
541.013617	0.212752
541.228712	0.213520
541.443789	0.213467
541.658848	0.213398
541.873889	0.213642
542.088912	0.214630
542.303916	0.215063
542.518902	0.214956
542.733870	0.215391
542.948820	0.215225
543.163752	0.215358
543.378665	0.215501
543.593560	0.215612
543.808437	0.215145
544.023295	0.214966
544.238136	0.215005
544.452958	0.215067
544.667762	0.215058
544.882548	0.214960
545.097315	0.215052
545.312064	0.215094
545.526795	0.215651
545.741508	0.215344
545.956203	0.214970
546.170879	0.215070
546.385537	0.215205
546.600177	0.215784
546.814799	0.216045
547.029402	0.216121
547.243988	0.216015
547.458555	0.216454
547.673103	0.218252
547.887634	0.218690
548.102146	0.219207
548.316640	0.219823
548.531116	0.220077
548.745574	0.220303
548.960013	0.220431
549.174435	0.220748
549.388838	0.220053
549.603222	0.218926
549.817589	0.219563
550.031937	0.220025
550.246267	0.220035
550.460579	0.219707
550.674873	0.219603
550.889148	0.219805
551.103405	0.220000
551.317644	0.220318
551.531865	0.220476
551.746068	0.219995
551.960252	0.219715
552.174418	0.219625
552.388566	0.219998
552.602696	0.219915
552.816807	0.220246
553.030900	0.221519
553.244975	0.221742
553.459032	0.222232
553.673070	0.222715
553.887091	0.222914
554.101093	0.223335
554.315077	0.223530
554.529042	0.224147
554.742990	0.224068
554.956919	0.223090
555.170830	0.223343
555.384722	0.223313
555.598597	0.223497
555.812453	0.223265
556.026291	0.223441
556.240111	0.223362
556.453913	0.223257
556.667696	0.223263
556.881461	0.223943
557.095208	0.224299
557.308937	0.224330
557.522647	0.224576
557.736339	0.224989
557.950013	0.225161
558.163669	0.225474
558.377307	0.225974
558.590926	0.226051
558.804527	0.226035
559.018110	0.225903
559.231675	0.226197
559.445221	0.226703
559.658749	0.226774
559.872259	0.227144
560.085751	0.226793
560.299225	0.227229
560.512680	0.227740
560.726117	0.228125
560.939536	0.228156
561.152937	0.228542
561.366319	0.228616
561.579683	0.228703
561.793029	0.228636
562.006357	0.229202
562.219667	0.228864
562.432958	0.229106
562.646231	0.228983
562.859486	0.229097
563.072723	0.229205
563.285941	0.229115
563.499141	0.228883
563.712323	0.228715
563.925487	0.228790
564.138632	0.229131
564.351760	0.228759
564.564869	0.229073
564.777960	0.229066
564.991032	0.228870
565.204087	0.228302
565.417123	0.229195
565.630141	0.229364
565.843140	0.229520
566.056122	0.229802
566.269085	0.229889
566.482030	0.229870
566.694957	0.230413
566.907866	0.230443
567.120756	0.231104
567.333628	0.231007
567.546482	0.231419
567.759318	0.231715
567.972135	0.231709
568.184935	0.232301
568.397716	0.232541
568.610478	0.232714
568.823223	0.233061
569.035949	0.233546
569.248657	0.233759
569.461347	0.233841
569.674019	0.233813
569.886672	0.233478
570.099308	0.233567
570.311925	0.233488
570.524523	0.233276
570.737104	0.233383
570.949666	0.233153
571.162210	0.233028
571.374736	0.233436
571.587244	0.233498
571.799733	0.233919
572.012205	0.233922
572.224658	0.234066
572.437092	0.234200
572.649509	0.234302
572.861907	0.234392
573.074287	0.234558
573.286649	0.234354
573.498993	0.234136
573.711318	0.233953
573.923625	0.234017
574.135914	0.233711
574.348185	0.234095
574.560438	0.234380
574.772672	0.234652
574.984888	0.234499
575.197086	0.234823
575.409266	0.235247
575.621427	0.235733
575.833570	0.236335
576.045695	0.236937
576.257802	0.236931
576.469890	0.236965
576.681961	0.237023
576.894013	0.237523
577.106046	0.237345
577.318062	0.237916
577.530059	0.238206
577.742039	0.238191
577.954000	0.238350
578.165942	0.238508
578.377867	0.238820
578.589773	0.239235
578.801661	0.239253
579.013531	0.239206
579.225382	0.238877
579.437216	0.238893
579.649031	0.238839
579.860828	0.238866
580.072606	0.238947
580.284367	0.239407
580.496109	0.239212
580.707833	0.239316
580.919539	0.239607
581.131227	0.239864
581.342896	0.239884
581.554547	0.240026
581.766180	0.240008
581.977795	0.240382
582.189391	0.240312
582.400969	0.240565
582.612529	0.240578
582.824071	0.240602
583.035595	0.240719
583.247100	0.240732
583.458587	0.240989
583.670056	0.241094
583.881506	0.241300
584.092939	0.241058
584.304353	0.240856
584.515749	0.241235
584.727127	0.241833
584.938486	0.241995
585.149828	0.242513
585.361151	0.242812
585.572456	0.242984
585.783742	0.242947
585.995011	0.243442
586.206261	0.243772
586.417493	0.243689
586.628706	0.243727
586.839902	0.244103
587.051079	0.244318
587.262238	0.243851
587.473379	0.244243
587.684502	0.244478
587.895606	0.244275
588.106692	0.244157
588.317760	0.244448
588.528810	0.244334
588.739841	0.244224
588.950855	0.244106
589.161850	0.244172
589.372827	0.243949
589.583785	0.244128
589.794726	0.244205
590.005648	0.244699
590.216552	0.244818
590.427437	0.245172
590.638305	0.245025
590.849154	0.244830
591.059985	0.244946
591.270798	0.245168
591.481592	0.245109
591.692369	0.245470
591.903127	0.245598
592.113867	0.245790
592.324588	0.246044
592.535292	0.246349
592.745977	0.246923
592.956644	0.247338
593.167293	0.247593
593.377923	0.247880
593.588536	0.248180
593.799130	0.248056
594.009706	0.248440
594.220263	0.248582
594.430803	0.249111
594.641324	0.249530
594.851827	0.249663
595.062312	0.250153
595.272778	0.250034
595.483227	0.250267
595.693657	0.250726
595.904069	0.250401
596.114462	0.250526
596.324838	0.250556
596.535195	0.250536
596.745534	0.250967
596.955855	0.250944
597.166157	0.251475
597.376441	0.251329
597.586707	0.251494
597.796955	0.252147
598.007185	0.252039
598.217396	0.252099
598.427589	0.252341
598.637764	0.252327
598.847921	0.252511
599.058060	0.252369
599.268180	0.252189
599.478282	0.251940
599.688366	0.251542
599.898431	0.251610
600.108479	0.251553
600.318508	0.251249
600.528519	0.251443
600.738511	0.251312
600.948486	0.251607
601.158442	0.251819
601.368380	0.252162
601.578300	0.252554
601.788202	0.252708
601.998085	0.252867
602.207950	0.253117
602.417797	0.253002
602.627626	0.253185
602.837436	0.253031
603.047228	0.253587
603.257002	0.253594
603.466758	0.253795
603.676496	0.253969
603.886215	0.254057
604.095916	0.253805
604.305599	0.254180
604.515264	0.254190
604.724910	0.254332
604.934538	0.253946
605.144148	0.254236
605.353740	0.254263
605.563314	0.254428
605.772869	0.254601
605.982406	0.254718
606.191925	0.254760
606.401425	0.254806
606.610908	0.254776
606.820372	0.255119
607.029818	0.255373
607.239246	0.255581
607.448655	0.255733
607.658047	0.256131
607.867420	0.256596
608.076775	0.256866
608.286111	0.257244
608.495430	0.257813
608.704730	0.258056
608.914012	0.258032
609.123275	0.258065
609.332521	0.258169
609.541748	0.257580
609.750957	0.257632
609.960148	0.257538
610.169321	0.257705
610.378475	0.257515
610.587611	0.257418
610.796729	0.257475
611.005829	0.257409
611.214910	0.257463
611.423974	0.258246
611.633019	0.258621
611.842045	0.258771
612.051054	0.258730
612.260044	0.258781
612.469017	0.258997
612.677970	0.259138
612.886906	0.259556
613.095824	0.259778
613.304723	0.259729
613.513604	0.260035
613.722467	0.259961
613.931311	0.260241
614.140138	0.260321
614.348946	0.260486
614.557736	0.260753
614.766507	0.260598
614.975261	0.260599
615.183996	0.260863
615.392713	0.260335
615.601412	0.260667
615.810092	0.260803
616.018754	0.260904
616.227399	0.261103
616.436024	0.261065
616.644632	0.261305
616.853222	0.261412
617.061793	0.261221
617.270346	0.261525
617.478880	0.261441
617.687397	0.261388
617.895895	0.261662
618.104375	0.261740
618.312837	0.261774
618.521281	0.261755
618.729706	0.262028
618.938113	0.262360
619.146502	0.262498
619.354873	0.262603
619.563226	0.262809
619.771560	0.262938
619.979876	0.262924
620.188174	0.263449
620.396453	0.263748
620.604715	0.263795
620.812958	0.263978
621.021183	0.264124
621.229390	0.264389
621.437578	0.264833
621.645748	0.264706
621.853900	0.265120
622.062034	0.265100
622.270150	0.264897
622.478247	0.265149
622.686326	0.265235
622.894387	0.265337
623.102430	0.265369
623.310454	0.265180
623.518461	0.265621
623.726449	0.265463
623.934418	0.265402
624.142370	0.265548
624.350303	0.265708
624.558218	0.265640
624.766115	0.265781
624.973994	0.266098
625.181855	0.266169
625.389697	0.266458
625.597521	0.266536
625.805327	0.266575
626.013114	0.266915
626.220883	0.266749
626.428634	0.266908
626.636367	0.267149
626.844082	0.267013
627.051778	0.266913
627.259457	0.266761
627.467117	0.267202
627.674758	0.267455
627.882382	0.267306
628.089987	0.267481
628.297574	0.267750
628.505143	0.267781
628.712694	0.268140
628.920226	0.268278
629.127740	0.268491
629.335236	0.268241
629.542714	0.267795
629.750174	0.268114
629.957615	0.268091
630.165038	0.268050
630.372443	0.268067
630.579829	0.268141
630.787198	0.268365
630.994548	0.268529
631.201880	0.268594
631.409194	0.269148
631.616489	0.269499
631.823766	0.269858
632.031025	0.270083
632.238266	0.270365
632.445489	0.270421
632.652693	0.270668
632.859879	0.270654
633.067047	0.270977
633.274197	0.271065
633.481329	0.271155
633.688442	0.271190
633.895537	0.270958
634.102614	0.271042
634.309672	0.271138
634.516713	0.271399
634.723735	0.271705
634.930739	0.271991
635.137724	0.271915
635.344692	0.272024
635.551641	0.271829
635.758572	0.272330
635.965485	0.272474
636.172379	0.272998
636.379256	0.272913
636.586114	0.273051
636.792954	0.273093
636.999775	0.273293
637.206579	0.273278
637.413364	0.273475
637.620131	0.273413
637.826880	0.273458
638.033610	0.273239
638.240323	0.273355
638.447017	0.273502
638.653692	0.273390
638.860350	0.273660
639.066990	0.273690
639.273611	0.273799
639.480214	0.273777
639.686798	0.273880
639.893365	0.273847
640.099913	0.273840
640.306443	0.273633
640.512955	0.273672
640.719449	0.274060
640.925924	0.274360
641.132381	0.274710
641.338820	0.274974
641.545241	0.275046
641.751644	0.275216
641.958028	0.275465
642.164394	0.275776
642.370742	0.276318
642.577071	0.276275
642.783383	0.276119
642.989676	0.276019
643.195951	0.276150
643.402207	0.276313
643.608446	0.276281
643.814666	0.276564
644.020868	0.276550
644.227052	0.276633
644.433218	0.276726
644.639365	0.277045
644.845494	0.277506
645.051605	0.277708
645.257698	0.278011
645.463772	0.278308
645.669828	0.278470
645.875866	0.278748
646.081886	0.278953
646.287888	0.279149
646.493871	0.279155
646.699836	0.279245
646.905783	0.279372
647.111712	0.279264
647.317622	0.279337
647.523514	0.279214
647.729388	0.279135
647.935244	0.278954
648.141082	0.279065
648.346901	0.279527
648.552702	0.279646
648.758485	0.280089
648.964250	0.280200
649.169996	0.280331
649.375724	0.280647
649.581434	0.280841
649.787126	0.281102
649.992800	0.281289
650.198455	0.281239
650.404092	0.281292
650.609711	0.281171
650.815311	0.281336
651.020894	0.281612
651.226458	0.281770
651.432004	0.282097
651.637532	0.282209
651.843041	0.282230
652.048532	0.282689
652.254006	0.282868
652.459460	0.282756
652.664897	0.283041
652.870315	0.283149
653.075716	0.283362
653.281097	0.283550
653.486461	0.283756
653.691807	0.283915
653.897134	0.283907
654.102443	0.284388
654.307734	0.284842
654.513006	0.284694
654.718261	0.284819
654.923497	0.284698
655.128715	0.284912
655.333915	0.285082
655.539096	0.285254
655.744259	0.285288
655.949404	0.285207
656.154531	0.285105
656.359640	0.285702
656.564730	0.286136
656.769802	0.286414
656.974856	0.286340
657.179892	0.286454
657.384909	0.286766
657.589908	0.287222
657.794889	0.287155
657.999852	0.287562
658.204797	0.287664
658.409723	0.287686
658.614631	0.287904
658.819521	0.288101
659.024393	0.288343
659.229246	0.288239
659.434081	0.288091
659.638898	0.288441
659.843697	0.288350
660.048478	0.288255
660.253240	0.288321
660.457984	0.288245
660.662710	0.288364
660.867417	0.288552
661.072107	0.288819
661.276778	0.288934
661.481431	0.289056
661.686066	0.289398
661.890682	0.289872
662.095281	0.290128
662.299861	0.290502
662.504422	0.290923
662.708966	0.290908
662.913491	0.291220
663.117999	0.291411
663.322488	0.291802
663.526958	0.291889
663.731411	0.291878
663.935845	0.291811
664.140261	0.292036
664.344659	0.291826
664.549038	0.291907
664.753400	0.292031
664.957743	0.292134
665.162068	0.292214
665.366375	0.292349
665.570663	0.292556
665.774933	0.292745
665.979185	0.292642
666.183419	0.293104
666.387635	0.293283
666.591832	0.293096
666.796011	0.293489
667.000172	0.293474
667.204315	0.293663
667.408439	0.293741
667.612545	0.293972
667.816634	0.294384
668.020703	0.294509
668.224755	0.294746
668.428788	0.295209
668.632803	0.295041
668.836800	0.295204
669.040779	0.295535
669.244739	0.295847
669.448681	0.296260
669.652605	0.296436
669.856511	0.296299
670.060399	0.296756
670.264268	0.297099
670.468119	0.297313
670.671952	0.297471
670.875767	0.297709
671.079563	0.297790
671.283341	0.297836
671.487101	0.297802
671.690843	0.298248
671.894567	0.297931
672.098272	0.297783
672.301959	0.297786
672.505628	0.297926
672.709278	0.297726
672.912911	0.297743
673.116525	0.297774
673.320121	0.297834
673.523699	0.297980
673.727258	0.298262
673.930799	0.298372
674.134322	0.298968
674.337827	0.299041
674.541314	0.299327
674.744782	0.299486
674.948232	0.299530
675.151664	0.299952
675.355078	0.299942
675.558474	0.300176
675.761851	0.300379
675.965210	0.300540
676.168551	0.300723
676.371873	0.300934
676.575178	0.301094
676.778464	0.301550
676.981732	0.301292
677.184981	0.301589
677.388213	0.301777
677.591426	0.302046
677.794621	0.302043
677.997798	0.302207
678.200956	0.302386
678.404097	0.302667
678.607219	0.302860
678.810323	0.303453
679.013408	0.303682
679.216476	0.304050
679.419525	0.304085
679.622556	0.304298
679.825569	0.304606
680.028563	0.304742
680.231540	0.304881
680.434498	0.304884
680.637438	0.305128
680.840359	0.305314
681.043263	0.305206
681.246148	0.305417
681.449015	0.305334
681.651864	0.305515
681.854694	0.305722
682.057506	0.305853
682.260301	0.305795
682.463076	0.305643
682.665834	0.305643
682.868573	0.305660
683.071295	0.305759
683.273998	0.305945
683.476682	0.305922
683.679349	0.305819
683.881997	0.305900
684.084627	0.306316
684.287239	0.306555
684.489833	0.306525
684.692408	0.306770
684.894965	0.306799
685.097504	0.307173
685.300025	0.307341
685.502527	0.307428
685.705012	0.307690
685.907478	0.307962
686.109925	0.308183
686.312355	0.308636
686.514766	0.308939
686.717159	0.309224
686.919534	0.309210
687.121891	0.309278
687.324230	0.309871
687.526550	0.310021
687.728852	0.309807
687.931136	0.309673
688.133401	0.309680
688.335649	0.309667
688.537878	0.309626
688.740089	0.309802
688.942281	0.309950
689.144456	0.309960
689.346612	0.309944
689.548750	0.310148
689.750870	0.310620
689.952971	0.310681
690.155055	0.311104
690.357120	0.311323
690.559167	0.311316
690.761195	0.311483
690.963206	0.311549
691.165198	0.311626
691.367172	0.311464
691.569128	0.311076
691.771065	0.311160
691.972984	0.311134
692.174885	0.311209
692.376768	0.311286
692.578633	0.311376
692.780479	0.311242
692.982308	0.311303
693.184118	0.311465
693.385909	0.311983
