sample name	sample
index	1134
start time	 04-22-2021  02:29:07 PM


Wavelength (nm)	Absorbance
494.344910	NaN
494.563924	NaN
494.782919	NaN
495.001897	-0.210110
495.220856	0.944568
495.439797	0.330078
495.658719	0.220203
495.877624	0.064979
496.096510	0.036996
496.315378	0.077709
496.534227	0.106017
496.753059	-0.112856
496.971872	-0.096275
497.190667	0.057101
497.409444	0.072083
497.628203	0.076034
497.846943	0.076650
498.065665	0.077841
498.284369	0.076694
498.503055	0.076152
498.721723	0.075017
498.940372	0.075332
499.159003	0.075255
499.377616	0.073743
499.596210	0.072557
499.814787	0.073346
500.033345	0.072697
500.251885	0.073191
500.470406	0.072864
500.688910	0.074422
500.907395	0.073793
501.125862	0.073163
501.344311	0.074804
501.562742	0.076002
501.781154	0.076640
501.999548	0.078336
502.217924	0.078042
502.436282	0.078122
502.654621	0.077229
502.872942	0.077453
503.091245	0.079076
503.309530	0.077977
503.527797	0.077983
503.746045	0.078147
503.964275	0.077085
504.182487	0.077765
504.400681	0.076873
504.618856	0.077662
504.837013	0.077005
505.055152	0.075289
505.273273	0.075660
505.491376	0.074967
505.709460	0.072784
505.927526	0.073139
506.145574	0.073632
506.363604	0.074593
506.581615	0.075067
506.799608	0.074786
507.017583	0.075896
507.235540	0.076103
507.453478	0.076573
507.671399	0.076330
507.889301	0.076948
508.107185	0.076336
508.325050	0.076362
508.542898	0.075923
508.760727	0.077653
508.978538	0.077756
509.196330	0.077417
509.414105	0.077545
509.631861	0.078421
509.849599	0.077400
510.067319	0.077861
510.285021	0.078135
510.502704	0.078382
510.720369	0.077987
510.938016	0.077592
511.155645	0.078182
511.373255	0.078025
511.590848	0.078827
511.808422	0.080198
512.025977	0.079326
512.243515	0.078712
512.461034	0.078221
512.678536	0.078047
512.896018	0.078303
513.113483	0.078275
513.330930	0.079001
513.548358	0.078546
513.765768	0.077744
513.983160	0.078809
514.200533	0.079123
514.417889	0.080065
514.635226	0.080257
514.852545	0.080574
515.069845	0.080701
515.287128	0.079878
515.504392	0.080432
515.721638	0.080190
515.938866	0.079390
516.156075	0.080641
516.373267	0.081268
516.590440	0.080598
516.807594	0.080083
517.024731	0.080010
517.241850	0.080225
517.458950	0.079828
517.676032	0.080765
517.893095	0.082324
518.110141	0.081694
518.327168	0.081754
518.544177	0.083203
518.761168	0.084065
518.978141	0.084864
519.195095	0.084926
519.412031	0.084961
519.628949	0.084874
519.845849	0.083993
520.062731	0.083642
520.279594	0.083248
520.496439	0.082464
520.713266	0.081977
520.930074	0.082203
521.146865	0.082561
521.363637	0.083273
521.580391	0.083121
521.797127	0.083863
522.013844	0.084662
522.230543	0.084541
522.447224	0.084549
522.663887	0.085011
522.880532	0.084317
523.097158	0.084728
523.313766	0.084544
523.530356	0.084977
523.746928	0.084276
523.963481	0.083985
524.180017	0.083730
524.396534	0.083621
524.613032	0.083610
524.829513	0.084066
525.045975	0.084623
525.262420	0.085044
525.478845	0.084999
525.695253	0.085870
525.911643	0.086658
526.128014	0.087750
526.344367	0.088391
526.560702	0.088175
526.777018	0.087738
526.993316	0.087022
527.209597	0.086562
527.425858	0.086006
527.642102	0.086030
527.858328	0.086161
528.074535	0.085785
528.290724	0.086032
528.506894	0.086452
528.723047	0.086625
528.939181	0.086967
529.155297	0.087376
529.371395	0.088255
529.587475	0.087730
529.803536	0.087371
530.019579	0.087425
530.235604	0.087937
530.451611	0.087908
530.667600	0.088487
530.883570	0.089400
531.099522	0.089867
531.315456	0.089293
531.531372	0.090152
531.747269	0.090679
531.963148	0.090671
532.179009	0.090364
532.394852	0.090981
532.610676	0.090813
532.826482	0.090295
533.042271	0.090465
533.258040	0.091544
533.473792	0.091890
533.689525	0.091593
533.905240	0.091684
534.120937	0.092307
534.336616	0.092757
534.552277	0.093457
534.767919	0.093396
534.983543	0.093367
535.199149	0.093138
535.414736	0.092869
535.630306	0.093073
535.845857	0.093409
536.061390	0.093161
536.276904	0.092631
536.492401	0.092937
536.707879	0.093218
536.923339	0.093396
537.138781	0.093786
537.354204	0.093747
537.569610	0.094173
537.784997	0.094065
538.000366	0.094405
538.215716	0.094516
538.431049	0.094519
538.646363	0.095275
538.861659	0.095646
539.076937	0.095058
539.292196	0.095346
539.507438	0.095435
539.722661	0.095753
539.937866	0.096006
540.153052	0.096353
540.368221	0.096086
540.583371	0.095418
540.798503	0.095254
541.013617	0.095834
541.228712	0.095553
541.443789	0.096131
541.658848	0.096323
541.873889	0.096794
542.088912	0.096961
542.303916	0.096985
542.518902	0.097591
542.733870	0.097894
542.948820	0.098564
543.163752	0.099592
543.378665	0.099045
543.593560	0.099515
543.808437	0.099118
544.023295	0.099463
544.238136	0.099956
544.452958	0.099911
544.667762	0.099806
544.882548	0.099006
545.097315	0.098962
545.312064	0.099268
545.526795	0.099101
545.741508	0.098859
545.956203	0.098768
546.170879	0.098878
546.385537	0.099508
546.600177	0.100169
546.814799	0.100785
547.029402	0.101016
547.243988	0.100923
547.458555	0.101475
547.673103	0.102378
547.887634	0.102252
548.102146	0.101805
548.316640	0.101555
548.531116	0.101293
548.745574	0.100861
548.960013	0.100660
549.174435	0.100956
549.388838	0.100807
549.603222	0.100599
549.817589	0.101088
550.031937	0.101736
550.246267	0.101823
550.460579	0.101769
550.674873	0.102080
550.889148	0.102039
551.103405	0.101984
551.317644	0.101836
551.531865	0.101707
551.746068	0.101568
551.960252	0.101579
552.174418	0.101863
552.388566	0.102203
552.602696	0.102385
552.816807	0.102751
553.030900	0.103087
553.244975	0.103657
553.459032	0.103873
553.673070	0.103842
553.887091	0.103885
554.101093	0.104062
554.315077	0.103934
554.529042	0.104166
554.742990	0.103964
554.956919	0.104163
555.170830	0.103819
555.384722	0.104160
555.598597	0.104043
555.812453	0.104289
556.026291	0.104094
556.240111	0.103885
556.453913	0.103950
556.667696	0.104055
556.881461	0.103960
557.095208	0.103862
557.308937	0.103790
557.522647	0.104172
557.736339	0.104071
557.950013	0.103962
558.163669	0.104132
558.377307	0.104263
558.590926	0.104418
558.804527	0.104503
559.018110	0.104701
559.231675	0.104536
559.445221	0.104936
559.658749	0.105117
559.872259	0.104881
560.085751	0.105157
560.299225	0.104858
560.512680	0.104633
560.726117	0.104905
560.939536	0.104857
561.152937	0.105090
561.366319	0.104462
561.579683	0.104222
561.793029	0.104613
562.006357	0.104409
562.219667	0.104520
562.432958	0.104687
562.646231	0.104559
562.859486	0.104736
563.072723	0.104309
563.285941	0.104524
563.499141	0.104323
563.712323	0.103820
563.925487	0.103976
564.138632	0.103851
564.351760	0.103673
564.564869	0.103250
564.777960	0.102983
564.991032	0.103447
565.204087	0.103438
565.417123	0.103684
565.630141	0.103942
565.843140	0.103783
566.056122	0.103990
566.269085	0.104234
566.482030	0.104308
566.694957	0.104658
566.907866	0.104312
567.120756	0.104491
567.333628	0.104681
567.546482	0.104750
567.759318	0.104706
567.972135	0.104537
568.184935	0.104907
568.397716	0.105000
568.610478	0.104841
568.823223	0.105233
569.035949	0.105113
569.248657	0.105179
569.461347	0.105223
569.674019	0.105396
569.886672	0.105785
570.099308	0.105383
570.311925	0.105181
570.524523	0.105183
570.737104	0.105104
570.949666	0.105346
571.162210	0.105191
571.374736	0.105108
571.587244	0.104961
571.799733	0.104641
572.012205	0.104694
572.224658	0.104803
572.437092	0.104878
572.649509	0.105143
572.861907	0.105127
573.074287	0.105042
573.286649	0.105358
573.498993	0.105933
573.711318	0.106135
573.923625	0.106365
574.135914	0.106429
574.348185	0.106453
574.560438	0.106027
574.772672	0.105958
574.984888	0.105980
575.197086	0.105609
575.409266	0.105314
575.621427	0.105198
575.833570	0.104672
576.045695	0.104757
576.257802	0.104662
576.469890	0.105014
576.681961	0.104749
576.894013	0.105064
577.106046	0.105467
577.318062	0.105424
577.530059	0.105636
577.742039	0.106109
577.954000	0.106323
578.165942	0.106586
578.377867	0.106309
578.589773	0.106499
578.801661	0.106436
579.013531	0.106313
579.225382	0.106323
579.437216	0.106329
579.649031	0.106113
579.860828	0.106132
580.072606	0.106018
580.284367	0.106016
580.496109	0.106109
580.707833	0.106284
580.919539	0.106592
581.131227	0.106914
581.342896	0.106852
581.554547	0.106639
581.766180	0.106500
581.977795	0.106446
582.189391	0.106756
582.400969	0.106747
582.612529	0.106558
582.824071	0.106386
583.035595	0.106333
583.247100	0.106268
583.458587	0.106731
583.670056	0.106792
583.881506	0.106798
584.092939	0.106755
584.304353	0.106938
584.515749	0.107154
584.727127	0.106963
584.938486	0.106809
585.149828	0.106938
585.361151	0.106990
585.572456	0.107004
585.783742	0.107107
585.995011	0.107167
586.206261	0.106900
586.417493	0.106616
586.628706	0.106730
586.839902	0.106690
587.051079	0.106740
587.262238	0.106468
587.473379	0.106706
587.684502	0.106541
587.895606	0.106652
588.106692	0.106804
588.317760	0.107282
588.528810	0.107682
588.739841	0.107988
588.950855	0.108099
589.161850	0.108519
589.372827	0.108427
589.583785	0.108711
589.794726	0.108542
590.005648	0.108739
590.216552	0.109145
590.427437	0.109078
590.638305	0.109133
590.849154	0.109350
591.059985	0.109572
591.270798	0.109566
591.481592	0.109763
591.692369	0.110244
591.903127	0.110122
592.113867	0.109775
592.324588	0.110055
592.535292	0.110433
592.745977	0.110341
592.956644	0.109870
593.167293	0.110365
593.377923	0.110478
593.588536	0.110672
593.799130	0.111124
594.009706	0.111018
594.220263	0.110800
594.430803	0.110474
594.641324	0.110849
594.851827	0.111025
595.062312	0.110973
595.272778	0.110898
595.483227	0.110779
595.693657	0.110455
595.904069	0.110557
596.114462	0.110517
596.324838	0.110729
596.535195	0.110410
596.745534	0.110428
596.955855	0.110444
597.166157	0.110690
597.376441	0.110443
597.586707	0.110581
597.796955	0.110467
598.007185	0.110715
598.217396	0.110592
598.427589	0.110732
598.637764	0.110833
598.847921	0.110771
599.058060	0.110615
599.268180	0.110760
599.478282	0.110719
599.688366	0.110866
599.898431	0.111139
600.108479	0.111160
600.318508	0.110901
600.528519	0.111015
600.738511	0.111460
600.948486	0.111767
601.158442	0.111655
601.368380	0.111858
601.578300	0.112140
601.788202	0.112046
601.998085	0.112099
602.207950	0.112323
602.417797	0.112463
602.627626	0.112081
602.837436	0.111742
603.047228	0.111678
603.257002	0.111761
603.466758	0.111473
603.676496	0.111337
603.886215	0.111348
604.095916	0.111315
604.305599	0.111274
604.515264	0.111296
604.724910	0.111364
604.934538	0.111498
605.144148	0.111505
605.353740	0.111731
605.563314	0.112090
605.772869	0.112278
605.982406	0.112374
606.191925	0.112103
606.401425	0.112170
606.610908	0.112701
606.820372	0.112818
607.029818	0.112846
607.239246	0.112617
607.448655	0.112423
607.658047	0.112487
607.867420	0.112738
608.076775	0.113408
608.286111	0.113645
608.495430	0.113682
608.704730	0.113700
608.914012	0.113955
609.123275	0.114215
609.332521	0.114155
609.541748	0.114052
609.750957	0.114159
609.960148	0.113881
610.169321	0.113753
610.378475	0.113613
610.587611	0.113848
610.796729	0.113850
611.005829	0.113947
611.214910	0.113934
611.423974	0.114122
611.633019	0.114102
611.842045	0.114023
612.051054	0.114152
612.260044	0.114367
612.469017	0.114682
612.677970	0.114708
612.886906	0.114623
613.095824	0.114646
613.304723	0.114837
613.513604	0.114973
613.722467	0.115065
613.931311	0.114914
614.140138	0.114599
614.348946	0.114222
614.557736	0.114268
614.766507	0.114643
614.975261	0.115012
615.183996	0.114949
615.392713	0.114672
615.601412	0.114714
615.810092	0.114936
616.018754	0.115024
616.227399	0.115250
616.436024	0.115305
616.644632	0.115111
616.853222	0.114989
617.061793	0.114858
617.270346	0.115097
617.478880	0.115043
617.687397	0.114926
617.895895	0.114756
618.104375	0.114593
618.312837	0.114339
618.521281	0.114373
618.729706	0.114371
618.938113	0.114474
619.146502	0.114529
619.354873	0.114866
619.563226	0.115135
619.771560	0.115629
619.979876	0.115817
620.188174	0.116013
620.396453	0.116236
620.604715	0.116507
620.812958	0.116597
621.021183	0.116640
621.229390	0.116922
621.437578	0.116957
621.645748	0.116733
621.853900	0.116698
622.062034	0.116642
622.270150	0.116709
622.478247	0.116423
622.686326	0.116440
622.894387	0.116626
623.102430	0.116410
623.310454	0.116510
623.518461	0.116664
623.726449	0.116629
623.934418	0.116734
624.142370	0.116631
624.350303	0.116957
624.558218	0.116919
624.766115	0.116778
624.973994	0.116812
625.181855	0.116860
625.389697	0.116887
625.597521	0.116902
625.805327	0.116931
626.013114	0.117017
626.220883	0.116833
626.428634	0.116839
626.636367	0.116988
626.844082	0.117170
627.051778	0.116948
627.259457	0.117004
627.467117	0.117159
627.674758	0.117386
627.882382	0.117489
628.089987	0.117574
628.297574	0.117779
628.505143	0.117715
628.712694	0.117819
628.920226	0.117933
629.127740	0.117866
629.335236	0.117890
629.542714	0.117646
629.750174	0.117486
629.957615	0.117434
630.165038	0.117366
630.372443	0.117652
630.579829	0.117464
630.787198	0.117550
630.994548	0.117483
631.201880	0.117709
631.409194	0.117810
631.616489	0.118035
631.823766	0.118269
632.031025	0.118312
632.238266	0.118243
632.445489	0.118233
632.652693	0.118162
632.859879	0.118209
633.067047	0.118067
633.274197	0.118248
633.481329	0.118222
633.688442	0.118339
633.895537	0.118350
634.102614	0.118296
634.309672	0.118346
634.516713	0.118627
634.723735	0.118888
634.930739	0.118940
635.137724	0.118982
635.344692	0.118819
635.551641	0.118778
635.758572	0.118895
635.965485	0.118799
636.172379	0.118591
636.379256	0.118571
636.586114	0.118587
636.792954	0.118934
636.999775	0.119037
637.206579	0.119480
637.413364	0.119667
637.620131	0.119929
637.826880	0.120249
638.033610	0.120684
638.240323	0.120720
638.447017	0.120867
638.653692	0.120592
638.860350	0.120747
639.066990	0.120567
639.273611	0.120620
639.480214	0.120531
639.686798	0.120595
639.893365	0.120690
640.099913	0.120912
640.306443	0.121037
640.512955	0.121246
640.719449	0.121183
640.925924	0.121648
641.132381	0.121604
641.338820	0.121508
641.545241	0.121395
641.751644	0.121298
641.958028	0.121415
642.164394	0.121429
642.370742	0.121509
642.577071	0.121717
642.783383	0.121375
642.989676	0.121309
643.195951	0.121352
643.402207	0.121507
643.608446	0.121711
643.814666	0.121455
644.020868	0.121301
644.227052	0.121284
644.433218	0.121116
644.639365	0.121280
644.845494	0.121534
645.051605	0.121902
645.257698	0.121993
645.463772	0.122061
645.669828	0.122149
645.875866	0.122359
646.081886	0.122386
646.287888	0.122559
646.493871	0.122509
646.699836	0.122534
646.905783	0.122461
647.111712	0.122575
647.317622	0.122748
647.523514	0.122964
647.729388	0.123307
647.935244	0.123683
648.141082	0.123886
648.346901	0.124015
648.552702	0.124103
648.758485	0.124551
648.964250	0.124807
649.169996	0.124905
649.375724	0.125084
649.581434	0.124829
649.787126	0.124785
649.992800	0.124896
650.198455	0.125070
650.404092	0.125159
650.609711	0.124727
650.815311	0.124573
651.020894	0.124680
651.226458	0.124725
651.432004	0.125110
651.637532	0.125160
651.843041	0.125062
652.048532	0.125158
652.254006	0.125219
652.459460	0.125611
652.664897	0.125655
652.870315	0.125580
653.075716	0.125487
653.281097	0.125368
653.486461	0.125315
653.691807	0.125429
653.897134	0.125515
654.102443	0.125521
654.307734	0.125697
654.513006	0.125983
654.718261	0.126033
654.923497	0.126157
655.128715	0.126180
655.333915	0.126391
655.539096	0.126265
655.744259	0.126274
655.949404	0.126672
656.154531	0.126409
656.359640	0.126367
656.564730	0.126485
656.769802	0.126729
656.974856	0.127108
657.179892	0.127302
657.384909	0.127589
657.589908	0.127802
657.794889	0.127748
657.999852	0.128042
658.204797	0.128128
658.409723	0.128295
658.614631	0.128200
658.819521	0.128232
659.024393	0.128093
659.229246	0.128332
659.434081	0.128302
659.638898	0.128234
659.843697	0.128295
660.048478	0.128254
660.253240	0.128296
660.457984	0.128422
660.662710	0.128326
660.867417	0.128434
661.072107	0.128522
661.276778	0.128688
661.481431	0.128845
661.686066	0.128793
661.890682	0.128841
662.095281	0.128865
662.299861	0.129037
662.504422	0.129079
662.708966	0.129184
662.913491	0.128939
663.117999	0.128789
663.322488	0.128772
663.526958	0.128809
663.731411	0.129092
663.935845	0.129178
664.140261	0.129096
664.344659	0.129218
664.549038	0.129360
664.753400	0.129722
664.957743	0.129802
665.162068	0.129840
665.366375	0.129874
665.570663	0.129801
665.774933	0.129998
665.979185	0.130092
666.183419	0.130209
666.387635	0.130303
666.591832	0.130357
666.796011	0.130649
667.000172	0.130844
667.204315	0.131106
667.408439	0.131306
667.612545	0.131299
667.816634	0.131631
668.020703	0.131730
668.224755	0.131845
668.428788	0.131919
668.632803	0.131960
668.836800	0.131974
669.040779	0.132153
669.244739	0.132431
669.448681	0.132692
669.652605	0.132749
669.856511	0.132998
670.060399	0.132984
670.264268	0.133139
670.468119	0.133130
670.671952	0.133460
670.875767	0.133548
671.079563	0.133566
671.283341	0.133469
671.487101	0.133394
671.690843	0.133443
671.894567	0.133544
672.098272	0.133478
672.301959	0.133701
672.505628	0.133682
672.709278	0.133861
672.912911	0.133899
673.116525	0.133937
673.320121	0.134221
673.523699	0.134115
673.727258	0.134496
673.930799	0.134665
674.134322	0.134598
674.337827	0.134527
674.541314	0.134468
674.744782	0.134596
674.948232	0.134801
675.151664	0.134657
675.355078	0.134881
675.558474	0.134732
675.761851	0.134784
675.965210	0.134861
676.168551	0.135113
676.371873	0.135189
676.575178	0.135317
676.778464	0.135358
676.981732	0.135494
677.184981	0.135527
677.388213	0.135749
677.591426	0.135892
677.794621	0.136109
677.997798	0.136266
678.200956	0.136222
678.404097	0.136208
678.607219	0.136191
678.810323	0.136448
679.013408	0.136454
679.216476	0.136280
679.419525	0.136453
679.622556	0.136648
679.825569	0.136783
680.028563	0.136998
680.231540	0.137026
680.434498	0.137376
680.637438	0.137415
680.840359	0.137800
681.043263	0.138083
681.246148	0.137985
681.449015	0.138168
681.651864	0.138193
681.854694	0.138350
682.057506	0.138610
682.260301	0.138644
682.463076	0.138848
682.665834	0.139024
682.868573	0.139233
683.071295	0.139437
683.273998	0.139372
683.476682	0.139428
683.679349	0.139321
683.881997	0.139298
684.084627	0.139414
684.287239	0.139314
684.489833	0.138977
684.692408	0.138798
684.894965	0.138749
685.097504	0.138836
685.300025	0.138909
685.502527	0.139151
685.705012	0.139308
685.907478	0.139398
686.109925	0.139349
686.312355	0.139516
686.514766	0.139596
686.717159	0.139793
686.919534	0.139846
687.121891	0.139889
687.324230	0.139840
687.526550	0.139822
687.728852	0.139596
687.931136	0.139535
688.133401	0.139803
688.335649	0.139916
688.537878	0.139820
688.740089	0.139801
688.942281	0.139896
689.144456	0.140102
689.346612	0.140007
689.548750	0.140304
689.750870	0.140639
689.952971	0.140222
690.155055	0.140208
690.357120	0.140378
690.559167	0.140212
690.761195	0.140015
690.963206	0.139929
691.165198	0.139939
691.367172	0.139913
691.569128	0.139791
691.771065	0.140085
691.972984	0.140143
692.174885	0.140247
692.376768	0.140326
692.578633	0.140580
692.780479	0.140687
692.982308	0.140750
693.184118	0.140795
693.385909	0.140745
693.587683	0.140787
