sample name	sample
index	1518
start time	 05-18-2021  03:20:42 PM
880	0.434012
Peak Time (s)	92.035
Peak Height 	0.434
calc peak height	90,93
Baseline Time (s)	10.037
Baseline Value 	-0.002731
subtract baseline	10,4
Abs	0.257695
Peak Time (s)	90.037
Peak Height 	0.2577
calc peak height	90,93
Baseline Time (s)	10.037
Baseline Value 	0.002025
subtract baseline	10,3
PK_550	0.148056
Peak Time (s)	91.537
Peak Height 	0.1481
calc peak height	90,93
Baseline Time (s)	11.535
Baseline Value 	-4.9819E-5
subtract baseline	10,2
PK_880	0.251284
Peak Time (s)	92.535
Peak Height 	0.2513
calc peak height	90,93
Baseline Time (s)	10.537
Baseline Value 	-3.3415E-6
subtract baseline	10,1


Time (s)	A880-A510	A880-A775	A880-A975	A880	I510	I775	I975	I880	
0.034000	-0.000474	0.000234	-0.004576	0.002098	6602.359890	44061.814567	4004.237132	22834.538689
0.537500	-0.003519	-0.000371	-0.001522	0.004711	6556.010612	43759.045174	4005.261265	22715.678576
1.037500	-0.000592	0.000348	-0.001171	0.004265	6583.573710	43868.404382	4007.114638	22735.921662
1.538000	0.000710	-0.000385	-0.003558	0.001204	6619.536442	44087.762757	4008.685136	22875.382828
2.035500	-0.001616	0.000358	-0.002409	0.000909	6602.750760	44186.010442	4012.055419	22888.869053
2.535500	0.000029	0.001016	0.001719	0.002343	6604.482675	44112.484169	4018.377383	22823.357082
3.036000	0.000932	0.000741	-0.000081	-0.000399	6634.683048	44346.393107	4020.597409	22948.794327
3.535500	-0.000721	-0.000691	0.000979	0.000633	6612.415844	44112.802061	4020.663888	22901.502797
4.036500	0.000114	0.000004	0.003106	0.001112	6615.359945	44133.289787	4024.558917	22879.591858
4.536500	-0.003447	-0.000385	0.000054	0.000430	6591.620518	44160.974581	4018.961687	22910.807578
5.040000	0.001012	0.000090	-0.004887	0.001176	6622.270459	44135.342726	4005.657217	22876.667149
5.537500	-0.001115	0.000606	-0.002091	0.001061	6605.624652	44195.002523	4012.442816	22881.899730
6.037500	-0.000529	0.000244	0.000812	0.000846	6612.238320	44181.116199	4019.767257	22891.737091
6.534500	-0.000212	-0.000313	-0.000048	0.000278	6619.562875	44182.154854	4019.078604	22917.757526
7.035500	0.003142	0.000788	-0.000968	0.000785	6643.233329	44238.476102	4015.723330	22894.554140
7.536000	0.000405	-0.000620	0.003289	-0.000100	6627.817644	44188.902046	4027.866474	22935.088993
8.035500	0.001172	0.001097	-0.000070	0.001568	6620.339280	44193.512913	4015.992003	22858.720922
8.536500	-0.000918	0.000341	-0.002750	0.000821	6609.226281	44192.628306	4011.464660	22892.872998
9.036500	0.000577	0.000615	0.000557	0.001063	6619.598301	44195.731233	4018.655007	22881.830639
9.539500	0.001278	0.000614	0.002865	0.000799	6627.598716	44220.569156	4024.727819	22893.876996
10.037000	-0.001316	-0.000218	0.000000	0.000000	6612.727809	44217.526837	4019.846906	22930.498509
10.537500	0.000000	-0.000285	-0.003593	-0.000088	6624.362166	44219.557949	4011.620566	22934.553526
11.038000	-0.001269	-0.000090	0.001939	-0.000390	6616.348609	44266.675719	4025.352248	22948.406197
11.535000	0.000500	0.000000	-0.003735	-0.000147	6629.006461	44252.173826	4011.426721	22937.262289
12.035500	0.002150	0.000117	-0.002837	-0.000077	6642.150246	44256.654925	4013.363271	22934.045043
12.536000	0.000193	0.000318	-0.006585	-0.000370	6628.304663	44303.509461	4005.303112	22947.471771
13.035500	-0.000954	-0.000178	0.004124	-0.000393	6618.973532	44258.577418	4030.549911	22948.518486
13.536500	0.000792	0.001701	0.002804	0.000920	6622.571900	44312.371024	4024.298352	22888.375670
14.037000	-0.002541	0.000215	-0.005945	0.004809	6563.173355	43804.801142	3994.810097	22711.203451
14.538500	-0.001542	-0.000368	-0.004763	0.001693	6596.903517	44043.289214	4004.744508	22853.047299
15.035000	-0.000320	0.000501	-0.000557	0.000221	6619.148042	44264.724093	4018.016445	22920.378120
15.537500	-0.001419	-0.000145	-0.001638	-0.000615	6616.964238	44282.774321	4017.439508	22958.726051
16.035000	-0.004665	-0.000619	0.000893	0.004212	6550.743473	43782.586371	4012.053320	22738.307841
16.534500	0.000848	-0.000057	-0.001104	-0.000327	6633.388398	44263.823886	4018.017495	22945.497252
17.036000	0.002434	0.001130	0.001318	-0.001407	6655.631836	44479.509486	4026.291999	22995.131038
17.535500	-0.000600	-0.000009	-0.002363	0.000622	6613.511081	44178.440789	4012.834481	22902.005237
18.036500	-0.000635	-0.000458	-0.004412	0.002667	6596.346684	43942.952593	4003.297158	22808.602689
18.536500	-0.000135	-0.000427	-0.003503	0.000973	6614.446877	44105.615065	4009.351412	22885.926961
19.036500	0.001146	0.000396	0.000327	0.000862	6625.981478	44193.995692	4018.585498	22891.011035
19.537000	0.000614	0.000032	-0.005703	0.000893	6621.322755	44156.695430	4004.419185	22889.618274
20.035000	-0.002274	-0.000181	-0.002624	0.002613	6583.326074	43974.147946	4007.577155	22811.065176
20.535000	0.000212	-0.000161	-0.000118	0.000781	6618.912660	44148.959444	4017.731471	22894.743530
21.035000	0.000165	-0.000496	0.001834	0.000471	6621.091771	44146.633731	4023.066036	22908.929615
21.535500	-0.000355	-0.000044	-0.003109	0.000906	6613.185480	44148.216067	4010.426705	22889.004178
22.036000	0.000504	-0.000459	0.000567	0.000431	6624.229702	44153.866193	4020.167495	22910.736648
22.536500	-0.001110	-0.000557	-0.002918	0.000508	6610.233572	44137.309403	4011.804116	22907.209483
23.036500	-0.001492	0.000413	-0.002939	0.000905	6603.802963	44191.525014	4010.826185	22889.034798
23.537000	-0.001244	0.000310	-0.002030	0.001394	6601.812049	44135.513546	4011.808248	22866.675416
24.037000	0.001694	0.001354	0.003517	0.002262	6618.920912	44152.201239	4022.808776	22827.049541
24.537500	0.000456	0.000150	0.001985	0.000928	6619.714658	44164.483127	4022.340699	22887.979659
25.037500	-0.001996	-0.000236	-0.001841	0.000973	6599.087321	44123.682614	4013.235011	22885.924067
25.535000	-0.000964	0.000216	0.000282	0.001310	6604.815885	44134.537202	4017.425376	22870.519993
26.035000	-0.003204	0.000092	-0.004909	0.003002	6572.523361	43963.217716	4001.370076	22793.348352
26.536000	-0.000163	0.000114	0.002162	0.001027	6613.772106	44151.751785	4022.525231	22883.480291
27.036000	0.001800	0.000567	-0.003058	0.001302	6627.762702	44168.590285	4009.621514	22870.903159
27.536000	0.000168	-0.000086	0.000136	-0.000759	6631.322729	44302.039572	4021.958812	22965.323544
28.036500	-0.001523	0.000361	-0.002025	0.005424	6566.468306	43760.845608	4002.438311	22683.350382
28.537000	0.001292	0.000195	0.003777	-0.000231	6636.287636	44278.642370	4029.337649	22941.098771
29.037000	-0.000288	0.000434	-0.002762	-0.000287	6623.621879	44306.659813	4014.029908	22943.671385
29.538000	-0.000188	0.001096	0.001194	0.000301	6619.576068	44313.582239	4021.953165	22916.687769
30.035000	-0.002817	0.000418	-0.002240	0.004662	6562.129503	43837.730096	4003.708652	22717.898133
30.534500	0.003245	0.000791	0.001441	0.000746	6644.414042	44242.477681	4021.485020	22896.315424
31.035500	-0.000155	0.000050	0.001364	0.002371	6602.740236	44018.718866	4017.476019	22822.092435
31.535500	-0.000542	0.000251	-0.001580	0.000104	6618.272376	44252.165403	4015.885845	22925.727540
32.036500	-0.000001	0.000118	0.000986	0.005708	6576.585131	43711.475057	4008.777694	22670.503396
32.536000	0.001128	-0.000652	-0.001896	-0.000660	6638.489129	44238.948591	4016.936953	22960.789189
33.037000	0.000913	0.001374	-0.000275	0.000144	6630.010441	44354.992845	4018.859593	22923.878033
33.537000	0.000208	0.001153	0.006119	0.000498	6621.227990	44300.427170	4033.183911	22907.697902
34.037000	-0.001178	-0.000362	-0.004392	0.002343	6594.541793	43982.463887	4004.092950	22823.342738
34.540000	-0.001376	0.000181	0.001704	0.001233	6602.058153	44138.591223	4020.959466	22874.058135
35.035000	-0.002928	-0.000159	-0.002716	0.001151	6589.951155	44114.097798	4010.772099	22877.787621
35.535500	-0.000495	-0.000856	-0.002650	0.000750	6613.322687	44086.191280	4011.864072	22896.155247
36.035500	-0.000090	-0.000101	0.000829	0.001733	6608.544593	44064.621466	4017.718922	22851.216169
36.536000	-0.000565	0.000387	-0.001035	0.001866	6603.525781	44098.202353	4013.031854	22845.143732
37.039000	-0.001022	-0.000581	-0.001351	0.000829	6608.311484	44104.693397	4014.722040	22892.536935
37.536500	0.000110	0.000633	-0.002626	0.001520	6611.957778	44154.210378	4010.122193	22860.940784
38.037000	-0.001227	0.000408	-0.000148	0.002750	6590.790308	44016.665323	4013.038619	22804.808229
38.537000	-0.000186	0.000498	-0.001443	0.001606	6608.796576	44133.305590	4012.686546	22857.005937
39.037000	0.000713	0.000425	0.002380	0.001854	6614.173599	44102.871741	4021.088174	22845.668820
39.534500	-0.000630	0.000163	-0.004250	0.001343	6607.297524	44126.363078	4006.747468	22868.998150
40.035000	0.000256	0.000112	0.001233	0.001531	6613.069567	44103.792347	4019.144119	22860.414193
40.535000	0.000830	0.000394	0.001402	0.001703	6616.402414	44114.322928	4019.137646	22852.588866
41.036000	-0.000220	0.000708	0.006073	0.002055	6604.810006	44110.668647	4029.361318	22836.487943
41.536000	-0.000031	0.000701	-0.001591	0.002077	6606.186673	44107.898498	4011.239419	22835.514893
42.036500	-0.000231	-0.000205	-0.000484	0.003477	6593.004054	43890.464996	4010.551349	22771.697582
42.536500	0.000053	-0.000265	-0.002244	0.001340	6612.974160	44086.261300	4011.434158	22869.164406
43.037000	-0.001623	0.000607	-0.003439	0.001787	6595.455603	44126.482683	4007.604731	22848.748053
43.537000	-0.000381	0.000568	-0.003420	0.001727	6606.186476	44128.378333	4007.786095	22851.456815
44.037500	-0.000530	0.000150	-0.004544	0.003078	6593.830213	43961.443265	4002.040104	22789.883151
44.535000	-0.000801	-0.000111	0.001876	-0.000305	6619.510305	44256.579504	4024.998746	22944.464851
45.035500	0.000861	0.000597	-0.002476	0.000082	6630.092311	44287.056658	4013.834342	22926.720348
45.535500	0.000171	0.000001	-0.000531	-0.000648	6630.425423	44299.713621	4020.122188	22960.221568
46.035500	-0.001258	0.000754	0.001655	0.003106	6587.611764	44015.769070	4016.433708	22788.604848
46.536500	0.001020	-0.000418	0.000557	-0.000039	6632.423352	44202.235681	4021.252634	22932.284424
47.036500	0.001428	0.000950	-0.002163	0.000850	6628.427740	44247.617654	4012.769413	22891.559402
47.536500	0.001607	-0.000206	0.003903	0.001905	6621.153778	44038.483705	4024.565303	22843.327764
48.037000	-0.001220	-0.000230	-0.002716	0.003289	6586.421909	43905.856531	4005.789677	22780.272183
48.540000	0.000881	0.001057	-0.002745	0.000674	6625.348111	44274.513898	4011.819970	22899.622366
49.035000	0.000875	0.000243	-0.001792	-0.000141	6632.065585	44274.598218	4015.963152	22936.966475
49.535500	-0.001436	0.000031	0.001977	0.000152	6610.481009	44226.664250	4024.158387	22923.529758
50.035000	-0.001228	-0.000043	-0.000440	0.004137	6579.398992	43843.672149	4009.116169	22741.716187
50.535500	0.001415	0.001040	0.002057	0.001849	6620.029192	44161.573487	4020.338118	22845.909612
51.036000	0.000291	0.000230	0.001122	0.003125	6600.198962	43964.535481	4015.137821	22787.734616
51.536500	-0.005821	-0.025832	0.054365	0.605448	3903.078130	12680.120561	3283.987929	7957.552236
52.036500	-0.008183	-0.018962	-0.013866	0.006817	6501.336800	41864.695353	3972.239455	22620.391327
52.536500	-0.020994	-0.058394	-0.010928	-0.215675	8661.042048	62211.704684	4636.398415	35736.971746
53.037000	-0.013452	-0.087624	-0.003933	-0.264159	9437.591230	64893.361162	4859.898765	39601.330414
53.537500	0.003289	-0.045765	0.012628	-0.199178	8763.061954	61687.266529	4663.278233	34517.450459
54.035000	0.014678	-0.024320	0.024395	-0.135345	8109.938840	56234.889280	4474.933566	30211.797439
54.535000	0.021672	-0.008157	0.027763	-0.071971	7490.431557	50756.825023	4284.105829	26519.530802
55.035500	0.021758	-0.007175	0.028586	-0.089700	7677.567156	52857.013347	4340.312213	27498.757209
55.536000	0.039187	-0.004916	0.048637	-0.115826	8168.746608	56220.811334	4491.101117	29016.656009
56.036000	0.052516	0.006831	0.062722	-0.041893	7498.332463	49127.837289	4298.661190	24946.997011
56.536000	0.068931	0.016195	0.076998	0.012358	7124.799032	44603.610659	4184.127068	22371.867287
57.036500	0.073231	0.025576	0.086862	0.086381	6516.194613	38857.558747	4020.981483	19338.964403
57.537000	0.093234	0.037491	0.101567	0.120631	6403.405839	37062.741654	3975.884504	18101.269234
58.039500	0.112546	0.046576	0.122037	0.153023	6303.069872	35285.771320	3949.356691	17017.240868
58.534000	0.126648	0.058884	0.134202	0.193478	6109.857033	33263.058498	3889.247171	15772.098251
59.035000	0.142827	0.067999	0.143780	0.227600	5984.858442	31572.659166	3840.175689	14808.375367
59.535500	0.153984	0.075627	0.157790	0.276105	5740.660132	29010.851077	3775.734479	13562.440844
60.035000	0.158905	0.081035	0.167027	0.311266	5557.761753	27292.158523	3730.564239	12742.403195
60.536000	0.174853	0.089020	0.179640	0.318776	5607.524661	27318.693736	3739.244007	12575.697648
61.036500	0.186032	0.096994	0.191033	0.335979	5571.899290	26808.469538	3729.370464	12204.502882
61.536500	0.192255	0.103408	0.203864	0.350070	5526.110550	26392.272890	3727.245183	11911.230147
62.036500	0.197699	0.108634	0.198001	0.389849	5335.711918	24607.388863	3654.316621	11132.862045
62.537500	0.204462	0.112483	0.213086	0.397653	5330.175800	24411.964468	3665.443154	10988.348363
63.037000	0.208042	0.116118	0.217062	0.400571	5333.701340	24447.320502	3667.076310	10934.988757
63.535000	0.215117	0.121596	0.225523	0.401459	5366.872792	24674.589310	3678.877003	10918.815576
64.038000	0.217111	0.122969	0.226694	0.400892	5380.746537	24771.415701	3681.615146	10929.139157
64.535500	0.219120	0.124907	0.225814	0.402556	5382.621291	24785.070853	3677.610208	10898.875399
65.035500	0.222272	0.126018	0.228677	0.402107	5402.283730	24863.278397	3682.827030	10907.034619
65.535500	0.223674	0.127291	0.232880	0.403037	5404.867941	24880.531542	3688.022524	10890.158515
66.036500	0.222626	0.130977	0.231979	0.412345	5348.704908	24599.787204	3671.949116	10723.234463
66.536500	0.229754	0.132007	0.234785	0.405454	5425.056432	24996.359163	3687.206058	10846.470435
67.037000	0.232352	0.133333	0.243762	0.405131	5441.280586	25079.877683	3702.163826	10852.300782
67.540000	0.235997	0.134106	0.244567	0.405125	5461.706189	25119.406501	3703.482555	10852.404830
68.037500	0.232206	0.134100	0.232474	0.403225	5451.107137	25215.827713	3687.075629	10886.751192
68.535000	0.235685	0.137653	0.245865	0.405365	5458.611638	25288.056510	3705.208270	10848.081342
69.035500	0.236475	0.136992	0.249503	0.404873	5465.812080	25279.394936	3711.982904	10856.947999
69.535500	0.240074	0.139917	0.251356	0.406289	5478.132078	25356.803934	3712.703799	10831.439988
70.035500	0.241098	0.139803	0.245513	0.406498	5482.743813	25340.178772	3702.788255	10827.677591
70.536500	0.247489	0.141844	0.246401	0.408372	5508.475686	25348.743976	3701.184930	10794.041284
71.036000	0.244379	0.142685	0.251022	0.409841	5482.393557	25316.510535	3706.320606	10767.785167
71.537000	0.247707	0.142639	0.248994	0.411089	5494.210280	25250.337464	3700.984097	10745.560484
72.039500	0.246858	0.143699	0.253726	0.412371	5482.101355	25238.927385	3706.604841	10722.770500
72.537000	0.246126	0.142323	0.253014	0.412158	5479.162886	25179.630633	3705.788977	10726.548928
73.034500	0.246023	0.141846	0.249465	0.413052	5473.534621	25109.923272	3698.567232	10710.711358
73.535000	0.249330	0.144077	0.251304	0.415692	5477.295000	25089.124337	3697.271724	10664.076008
74.035500	0.245921	0.143828	0.259205	0.421633	5424.993238	24777.285848	3700.444945	10560.206397
74.536000	0.249891	0.145310	0.252518	0.416308	5476.986592	25120.452315	3698.238381	10653.243822
75.038500	0.250537	0.145673	0.255356	0.415439	5485.570668	25183.163477	3704.256865	10668.545115
75.536500	0.248484	0.146222	0.251967	0.415024	5476.292453	25232.277954	3699.423893	10675.845110
76.036500	0.248328	0.144834	0.253554	0.418904	5453.579882	24964.894020	3695.721658	10607.736374
76.536500	0.251592	0.145841	0.251365	0.412958	5505.713457	25318.550729	3701.799582	10712.373284
77.037500	0.251529	0.146223	0.248418	0.412637	5507.191412	25354.608556	3697.545733	10718.056866
77.535000	0.250038	0.146419	0.253664	0.411719	5503.911185	25411.883937	3707.569466	10734.343269
78.035000	0.250310	0.146443	0.254542	0.418286	5468.193716	25077.576177	3698.313811	10618.558059
78.535000	0.250090	0.146446	0.251874	0.411137	5507.543842	25443.265126	3705.595511	10744.706466
79.035500	0.250965	0.147052	0.254724	0.411226	5512.041938	25469.907731	3710.118567	10743.107230
79.535500	0.250218	0.147089	0.248350	0.410851	5509.906653	25491.166612	3700.324655	10749.782482
80.036000	0.248878	0.148007	0.249539	0.418379	5459.617002	25152.329943	3690.123913	10616.932022
80.536500	0.251328	0.147919	0.254926	0.411595	5512.008093	25495.669665	3709.845074	10736.558014
81.036500	0.247183	0.147281	0.249912	0.411176	5490.732024	25484.319864	3702.334759	10744.007363
81.539500	0.251927	0.148387	0.258235	0.412393	5510.866413	25478.609661	3713.982335	10722.384776
82.037500	0.248084	0.148247	0.249614	0.412012	5491.103674	25491.059842	3700.493556	10729.149458
82.534500	0.253139	0.148773	0.253734	0.413263	5512.830052	25453.658395	3705.161242	10706.972485
83.035000	0.250172	0.149278	0.252507	0.413964	5491.871827	25443.508402	3702.019798	10694.558721
83.535500	0.250273	0.148683	0.258366	0.414276	5490.674413	25396.787388	3711.093038	10689.051019
84.035500	0.250397	0.149314	0.252055	0.415679	5483.413397	25357.089013	3698.507500	10664.310002
84.536000	0.249754	0.149267	0.251017	0.416109	5477.338973	25332.638562	3696.138197	10656.749808
85.036000	0.250326	0.148338	0.251918	0.415681	5482.998514	25306.961388	3698.282103	10664.276465
85.536500	0.249744	0.148027	0.250699	0.417431	5469.817920	25201.615533	3693.498861	10633.526481
86.037000	0.247908	0.149523	0.250411	0.424832	5418.293452	24902.504668	3681.263297	10504.855393
86.536500	0.248055	0.147658	0.254325	0.418101	5456.556296	25148.693478	3698.260689	10621.789563
87.034500	0.249092	0.147639	0.254456	0.419418	5454.986540	25080.820683	3696.346914	10598.768977
87.535000	0.248407	0.146375	0.253776	0.419587	5450.203901	25008.285146	3694.979728	10595.821317
88.035500	0.243719	0.145328	0.249402	0.426192	5387.857796	24624.810705	3677.535362	10481.435908
88.535500	0.249779	0.147261	0.257350	0.421872	5445.103565	24937.673970	3697.057137	10556.059148
89.036000	0.249600	0.147718	0.254402	0.423047	5437.561958	24901.485733	3690.434811	10535.687643
89.536500	0.248099	0.147118	0.254834	0.423864	5424.697973	24830.336004	3689.819022	10521.562293
90.036500	0.246244	0.147294	0.257695	0.430624	5377.489235	24502.670973	3683.619604	10405.659470
90.537000	0.248966	0.147493	0.257458	0.426479	5415.043364	24718.292669	3689.833516	10476.506084
91.040000	0.246586	0.147725	0.257426	0.427675	5395.416894	24670.255978	3687.874211	10455.999882
91.537000	0.249041	0.148056	0.245048	0.428379	5405.002578	24651.662674	3667.350474	10443.946752
92.034500	0.244557	0.147113	0.255169	0.434012	5350.117694	24327.126279	3674.321724	10348.254410
92.535000	0.251284	0.146973	0.252834	0.430363	5406.431718	24499.713871	3676.377650	10410.113807
93.035000	0.250651	0.147869	0.257554	0.431937	5394.338851	24466.267843	3681.321979	10383.365933
93.535000	0.251853	0.147170	0.253820	0.432367	5398.557542	24410.637896	3674.783862	10376.069787
94.036000	0.248794	0.147272	0.249151	0.435162	5366.729606	24278.656320	3663.220960	10328.868137
94.536500	0.250517	0.146583	0.252785	0.433310	5386.121386	24335.582315	3671.701031	10360.121518
95.036500	0.252945	0.146985	0.255912	0.435066	5389.783787	24269.300625	3673.836451	10330.491890
95.534000	0.250291	0.145930	0.254608	0.435295	5374.113501	24206.707805	3671.450002	10326.644548
96.037500	0.249666	0.147698	0.246157	0.441038	5339.866181	24013.940746	3649.737070	10230.623513
96.537500	0.252093	0.147528	0.254150	0.438744	5365.208023	24116.776666	3665.402357	10268.833883
