sample name	sample
index	333
start time	 03-01-2021  10:28:03 AM
880	0.401851
Peak Time (s)	91.035
Peak Height 	0.4019
calc peak height	90,93
Baseline Time (s)	10.035
Baseline Value 	-0.005072
subtract baseline	10,4
Abs	0.243803
Peak Time (s)	92.538
Peak Height 	0.2438
calc peak height	90,93
Baseline Time (s)	11.536
Baseline Value 	0.004234
subtract baseline	10,3
PK_550	0.142360
Peak Time (s)	90.037
Peak Height 	0.1424
calc peak height	90,93
Baseline Time (s)	10.535
Baseline Value 	1.8602E-4
subtract baseline	10,2
PK_880	0.253621
Peak Time (s)	90.538
Peak Height 	0.2536
calc peak height	90,93
Baseline Time (s)	8.537
Baseline Value 	0.001956
subtract baseline	10,1


Time (s)	A880-A510	A880-A775	A880-A975	A880	I510	I775	I975	I880	
0.034500	-0.003712	-0.000682	-0.008733	0.003166	6861.119019	48159.171529	3888.258964	25313.790409
0.535000	-0.000744	0.000480	-0.002022	0.005390	6868.280527	48048.246776	3900.811657	25198.260372
1.035000	-0.002225	0.000511	0.002155	0.003985	6867.553284	48198.440390	3916.612865	25271.211251
1.536000	-0.005117	-0.001119	-0.007380	0.005204	6828.186111	47900.959543	3886.355396	25207.905937
2.036000	-0.001197	0.000175	-0.000547	0.000658	6909.662971	48512.846513	3918.392906	25444.862622
2.536000	0.000207	-0.000221	-0.000490	-0.000304	6932.722340	48572.545074	3921.300536	25495.312015
3.039000	-0.000617	0.000030	-0.003735	-0.000821	6929.720480	48653.808633	3913.525369	25522.475818
3.537000	-0.001653	0.000381	0.002071	0.003304	6879.622780	48256.137778	3918.310108	25306.608781
4.036500	-0.000248	0.000659	-0.000548	0.000826	6917.251665	48546.116228	3917.907099	25436.027584
4.537500	0.001699	0.000624	-0.004959	0.001314	6931.489007	48491.016760	3904.019443	25410.495538
5.035000	0.001144	-0.000629	-0.001071	-0.000090	6939.792492	48506.971477	3919.031003	25484.084214
5.535000	-0.000292	-0.000783	-0.000408	-0.000071	6925.567749	48488.648530	3920.867696	25483.061230
6.035500	-0.000825	0.000085	0.001597	0.000864	6911.276948	48481.643963	3923.932280	25434.077003
6.536000	0.001772	0.000199	-0.000961	0.001029	6934.991374	48476.223892	3916.154479	25425.409573
7.036000	0.001212	0.000429	-0.003200	0.000931	6930.466400	48510.829518	3910.073698	25430.534531
7.539500	-0.001040	-0.000465	0.001914	0.000127	6916.349269	48501.295697	3926.956361	25472.677640
8.037000	-0.001341	-0.000057	-0.003216	0.000255	6912.175687	48530.821410	3911.942769	25465.959525
8.536500	0.000000	-0.001144	-0.003718	-0.000077	6928.484775	48451.332246	3911.462006	25483.413447
9.037000	-0.000770	0.000372	0.003349	0.000271	6917.585172	48574.543336	3930.667994	25465.134769
9.540500	-0.000028	0.000063	-0.000633	-0.000192	6929.325262	48590.727413	3920.572428	25489.418864
10.035000	0.001726	-0.000079	0.000051	0.000000	6944.608976	48555.520464	3921.978982	25479.358636
10.535000	-0.000503	0.000000	0.000352	0.000214	6920.742174	48541.268384	3922.228048	25468.142743
11.035000	0.000086	0.000060	-0.002085	0.000015	6928.417925	48568.577864	3915.841395	25478.550223
11.535500	0.000631	-0.000372	0.000000	-0.000256	6936.404258	48551.594014	3922.567417	25492.817312
12.036500	0.001908	-0.000381	-0.005327	-0.000352	6949.853140	48560.822248	3907.686062	25497.863488
12.536500	0.001918	0.000617	0.003274	0.000674	6939.881674	48557.779343	3929.291787	25443.994918
13.037000	-0.004038	0.000068	-0.004515	0.005122	6839.260423	48033.175348	3894.568963	25212.122490
13.537500	-0.001972	-0.000033	-0.002655	-0.001037	6918.612966	48669.970041	3917.213023	25533.829479
14.037000	-0.000387	0.000693	0.000104	0.002939	6895.393909	48327.245466	3913.749785	25325.645877
14.535000	0.000130	0.000169	-0.001810	0.000766	6921.530387	48500.868033	3914.488565	25439.204007
15.035500	-0.003321	-0.000950	-0.000486	0.003696	6859.791167	48075.813484	3909.928552	25286.219740
15.535500	-0.000003	0.000481	0.001552	-0.000750	6935.025960	48694.026830	3928.434748	25518.747982
16.035500	-0.000275	0.000387	0.002376	-0.000982	6934.635633	48708.631721	3931.475664	25530.949984
16.536000	0.000873	0.000365	0.003330	-0.000837	6944.455217	48690.953438	3933.811159	25523.347073
17.038500	-0.001420	0.000412	0.003687	0.003576	6879.247029	48230.880064	3922.150655	25292.470463
17.536500	-0.001727	-0.000764	-0.001832	0.000216	6908.809588	48460.455249	3915.989485	25468.020136
18.037000	-0.003493	0.000200	-0.001664	0.001327	6880.944358	48444.982982	3913.308079	25409.846936
18.537500	-0.002084	0.000497	0.001890	0.001683	6891.122301	48438.790457	3922.425576	25391.221646
19.035000	-0.001157	0.000495	0.000361	0.002994	6887.413357	48300.710400	3914.327479	25322.796490
19.535000	-0.001898	0.000100	-0.001465	0.001366	6895.987749	48430.321365	3913.760905	25407.775227
20.035500	-0.000278	-0.000047	-0.003955	0.001046	6914.822597	48448.553198	3907.609203	25424.519094
20.535500	-0.000799	-0.000055	0.001765	0.001173	6908.521043	48434.344441	3923.526638	25417.875065
21.036000	-0.001695	-0.000462	-0.000863	0.002118	6890.673426	48292.158544	3913.336482	25368.489113
21.536000	-0.000593	0.000447	-0.001806	0.001801	6904.422513	48421.053672	3911.557043	25385.022600
22.036500	-0.000514	0.000169	0.000863	0.001670	6906.465651	48405.550350	3919.525831	25391.872922
22.537000	0.000300	0.000265	-0.000732	0.001525	6915.797969	48431.005526	3915.394887	25399.490299
23.034000	0.000763	0.000732	0.000095	0.001972	6915.941155	48433.102941	3916.476050	25376.094819
23.537500	-0.001520	-0.000145	-0.000189	0.000983	6903.367247	48444.798886	3918.484415	25427.816321
24.035000	-0.001108	-0.000014	-0.002111	0.001159	6905.662023	48440.182270	3912.515884	25418.620077
24.535500	0.000429	0.000358	0.002683	0.001822	6914.152866	48409.441607	3924.297797	25383.940417
25.035500	-0.000068	0.000532	-0.004096	0.001744	6910.081807	48436.012251	3905.241999	25388.037128
25.535500	-0.001937	0.000004	-0.002694	0.001302	6896.236669	48426.985068	3910.456498	25411.132013
26.036000	-0.002129	0.000088	-0.000191	0.001550	6891.972374	48409.676368	3916.863652	25398.163291
26.539000	-0.000446	-0.000000	-0.001445	0.001535	6908.438086	48401.961493	3913.337532	25398.937564
27.036500	-0.001645	-0.000270	-0.000549	0.001193	6900.118049	48409.564033	3916.860123	25416.840983
27.536500	-0.001810	-0.000599	-0.000329	-0.001403	6923.763995	48648.878740	3924.911331	25553.122321
28.037500	0.001040	0.000557	0.006337	-0.000308	6940.906208	48655.221046	3940.987305	25495.523364
28.535000	0.003330	0.000901	-0.000690	-0.000570	6965.964693	48719.459264	3921.488373	25509.272255
29.034500	-0.003640	-0.000437	-0.000329	0.004396	6850.018372	48056.248488	3908.392154	25249.830846
29.535000	0.001848	0.000702	0.000189	-0.000089	6946.672421	48647.382574	3922.629560	25484.008502
30.035500	0.000974	0.000457	-0.001305	-0.000622	6943.341304	48677.914550	3919.880383	25512.020755
30.541000	0.000050	0.000363	0.000558	-0.000782	6935.851822	48684.877277	3925.672954	25520.415116
31.042500	-0.002254	0.000414	-0.002343	0.004799	6859.439774	48102.999696	3901.570870	25228.874421
31.536500	0.001583	0.000758	0.003233	0.000230	6940.958482	48619.672017	3930.453183	25467.308248
32.036500	-0.000597	0.000696	0.003893	-0.000238	6924.231646	48662.610083	3933.707773	25491.867939
32.537500	0.000671	0.000944	0.002760	-0.000246	6936.692557	48689.657243	3930.461601	25492.266265
33.037500	-0.001227	-0.000522	-0.003863	0.004976	6867.619294	47986.894339	3896.806495	25219.733727
33.537500	0.002361	0.001468	0.002269	0.001495	6936.192790	48560.973146	3924.050763	25401.046727
34.035000	-0.000828	-0.000232	0.001387	0.002152	6898.735946	48312.707190	3919.647171	25366.686410
34.535500	0.000096	0.000645	-0.002159	0.002777	6901.643139	48339.243721	3907.796213	25334.105181
35.035500	0.000311	-0.000030	0.000741	0.003108	6900.524680	48233.703589	3915.082492	25316.856528
35.535500	-0.000638	0.000235	-0.002428	0.002095	6901.136752	48367.822680	3908.962704	25369.656455
36.039500	0.001930	-0.000381	0.003730	0.002109	6925.982682	48301.581952	3926.478369	25368.938396
36.536500	0.000687	0.000831	-0.002206	0.002589	6909.201644	48378.563193	3908.193059	25343.892546
37.037000	-0.001870	-0.000732	0.000888	0.002609	6884.240000	48212.338177	3916.919855	25342.846252
37.537000	-0.001475	-0.000276	-0.002047	0.001812	6895.772674	48343.917485	3910.845392	25384.491044
38.034500	-0.000243	0.000007	-0.000294	0.001981	6906.077252	48355.796593	3915.341318	25375.619094
38.534500	-0.001252	0.000071	0.000689	0.001830	6897.753509	48378.440127	3918.575028	25383.541037
39.035000	-0.001469	0.000431	0.001922	0.003657	6877.994377	48224.390852	3916.881985	25288.251985
39.535500	0.001323	0.000451	0.001097	0.001855	6922.536689	48415.720595	3919.666330	25382.195202
40.035500	-0.000418	0.000254	-0.000462	0.002229	6901.980500	48355.759239	3914.162640	25362.708280
40.538500	-0.001024	0.000687	0.002630	0.002626	6892.249407	48359.527613	3921.844043	25341.952222
41.036500	-0.001491	0.000534	0.000877	0.003266	6881.554058	48276.223914	3915.018921	25308.612690
41.537000	-0.000136	-0.000161	0.004394	0.001748	6909.383467	48362.622209	3929.425900	25387.802171
42.037000	0.002129	0.000210	0.002510	0.002056	6928.449448	48369.392180	3923.133544	25371.737794
42.536000	-0.000053	0.000471	0.001075	0.002018	6907.561975	48400.749363	3919.137471	25373.685391
43.037500	0.000017	0.000257	0.003100	0.003850	6890.476928	48185.908654	3919.689017	25278.201235
43.535500	0.003709	0.000916	0.003486	-0.000474	6968.759877	48710.875090	3933.215511	25504.270514
44.035000	0.003687	0.000576	0.006620	-0.001425	6977.923910	48775.636187	3945.060909	25554.270288
44.535500	0.001991	-0.000167	0.003861	-0.001215	6959.140694	48674.695350	3936.439978	25543.235361
45.038500	-0.001418	0.000745	0.003048	0.005140	6864.204033	48102.094911	3915.863119	25211.211527
45.536000	0.002312	0.000447	0.000340	-0.000883	6959.031896	48704.580300	3925.337716	25525.766126
46.036500	0.002059	0.000868	0.000368	-0.000391	6951.715789	48697.028738	3924.007264	25499.908067
46.536500	0.001648	0.000218	0.001719	-0.001098	6954.618190	48703.069980	3929.917422	25537.064833
47.034500	-0.000377	0.000342	0.000998	0.003389	6891.123141	48243.166292	3915.013293	25302.178504
47.534500	0.000249	0.000290	0.001927	0.002596	6904.876428	48320.937914	3919.919217	25343.504776
48.035000	0.002003	0.000768	0.007116	-0.000395	6951.197989	48686.757454	3943.504767	25500.074353
48.535500	0.002698	0.000415	0.002054	-0.000686	6960.889753	48680.262876	3929.694796	25515.364847
49.035500	0.000067	0.000531	0.003053	0.003692	6892.491706	48231.236701	3920.007730	25286.433671
49.535500	0.002244	0.000122	0.001794	-0.002090	6970.242971	48798.035842	3932.993643	25589.315875
50.039000	0.001155	0.001320	0.002027	-0.000275	6941.709441	48732.518714	3928.436332	25493.778295
50.536500	0.008117	0.000371	-0.000929	0.007313	6935.586054	47836.590183	3898.480672	25098.799950
51.037000	-0.026172	-0.016028	-0.031317	0.207695	5162.704370	30099.797193	3396.039069	16815.831150
51.536500	-0.047288	-0.022822	-0.070137	-0.023632	6703.007476	48649.448165	3795.684876	26753.919655
52.037000	-0.057289	-0.135686	-0.079912	-0.272417	9645.247444	65535.000000	4614.746643	45364.304035
52.535000	-0.020872	-0.157372	-0.039126	-0.294104	10641.089963	65535.000000	4914.141488	47549.462601
53.035000	-0.040786	-0.147526	-0.053068	-0.284257	10114.400854	65535.000000	4795.035164	46543.795737
53.535000	-0.043680	-0.210831	-0.058501	-0.347563	11222.628332	65535.000000	5096.581780	53425.908886
54.035500	-0.087854	-0.303784	-0.107530	-0.440515	12237.012855	65535.000000	5353.820774	65535.000000
54.536000	0.014787	-0.157016	-0.007224	-0.293747	11314.507153	65535.000000	5082.491793	47512.683676
55.035500	0.019546	-0.078038	-0.000104	-0.214695	9958.234177	65524.224678	4715.705144	40052.981952
55.536500	0.035789	-0.030639	0.017261	-0.149260	9179.754853	62968.644015	4502.361763	34826.825414
56.037000	0.060514	0.004166	0.041068	-0.076705	8502.836530	57951.177934	4308.822875	29882.111652
56.537000	0.097881	0.032566	0.078811	-0.002301	8027.555286	52397.903903	4176.931608	25600.447029
57.037500	0.128745	0.062144	0.109810	0.056299	7697.257165	49185.307899	4084.730492	22708.338483
57.535000	0.167700	0.087572	0.145940	0.106142	7573.239085	46644.059058	4041.050896	20537.582307
58.035000	0.187679	0.103638	0.167058	0.151053	7300.732598	43820.256289	3968.468468	18783.980822
58.535000	0.205561	0.118085	0.185531	0.213474	6851.198740	39519.864537	3844.422549	16629.101893
59.035500	0.215770	0.124510	0.201693	0.251255	6595.141710	36955.113153	3787.853282	15467.561614
59.539000	0.220751	0.132910	0.204195	0.283555	6356.986450	35120.936835	3714.361451	14551.598615
60.036000	0.227131	0.139705	0.210151	0.287691	6375.988447	35320.098843	3718.707635	14439.155243
60.536500	0.233617	0.143153	0.217011	0.321819	6148.609317	33095.172538	3655.467051	13551.055448
61.037000	0.234210	0.144330	0.214176	0.338819	6020.342258	32007.673204	3611.898501	13134.054771
61.537000	0.239521	0.150105	0.222522	0.334565	6094.534830	32692.373081	3639.346081	13236.887535
62.040500	0.237457	0.152555	0.224159	0.333196	6089.086906	32957.304702	3646.012148	13270.193018
62.535000	0.234661	0.152578	0.218972	0.335090	6052.561263	32827.233864	3630.381786	13224.138762
63.035000	0.237401	0.154699	0.223699	0.340412	6032.618035	32605.933294	3629.079066	13095.799614
63.536000	0.237832	0.155560	0.218630	0.336003	6070.092370	32971.056736	3627.635088	13201.997587
64.036500	0.240374	0.156681	0.222881	0.338589	6069.748141	32869.129649	3631.279020	13139.585967
64.536000	0.242678	0.156367	0.226396	0.342088	6060.462564	32605.401936	3631.314790	13055.728731
65.036500	0.237968	0.156319	0.221965	0.351115	5955.483141	31986.994845	3602.273112	12842.446551
65.537000	0.239308	0.155440	0.227072	0.346307	6002.053078	32253.187504	3623.580781	12955.496588
66.037000	0.241751	0.156917	0.221624	0.350427	5989.288997	32073.871378	3603.010688	12858.559961
66.537500	0.240975	0.154887	0.229878	0.351493	5975.314261	31865.181390	3618.422709	12833.617945
67.037500	0.237432	0.154920	0.225734	0.359986	5885.481395	31302.544157	3591.496621	12637.133240
67.538000	0.242331	0.155018	0.229862	0.357777	5938.237862	31454.898688	3604.901999	12687.880554
68.035000	0.243134	0.154814	0.226488	0.360910	5920.851225	31234.816583	3591.139143	12615.999194
68.535500	0.239467	0.153642	0.232805	0.363267	5876.320870	31003.852900	3599.488320	12562.251818
69.038500	0.235151	0.152268	0.224280	0.372301	5779.829721	30333.613039	3563.037010	12358.976502
69.536500	0.240154	0.153049	0.231616	0.368237	5845.042306	30643.626924	3586.534717	12449.898838
70.039500	0.242012	0.152825	0.228543	0.371984	5831.340305	30389.285723	3572.403331	12366.037776
70.536500	0.240007	0.153049	0.232593	0.374538	5798.520691	30241.145816	3575.483994	12309.286855
71.037000	0.239059	0.152316	0.224540	0.382540	5735.092195	29692.731238	3542.967062	12133.637434
71.537500	0.241597	0.151640	0.233382	0.376974	5792.478581	29998.438506	3572.095205	12255.489307
72.034500	0.242020	0.151935	0.233500	0.378786	5782.567196	29903.216075	3568.620175	12215.649861
72.535000	0.242648	0.151716	0.232623	0.380309	5776.198595	29794.295151	3563.718382	12182.294443
73.038000	0.242018	0.151670	0.232001	0.387830	5718.790519	29326.294572	3547.294621	12019.288091
73.538500	0.244662	0.152256	0.227765	0.383678	5766.577534	29618.359140	3547.127906	12108.923493
74.036000	0.242594	0.150524	0.233208	0.383957	5749.987361	29494.045692	3557.505364	12102.876986
74.536500	0.243845	0.151413	0.236099	0.385895	5745.146766	29429.375378	3559.432894	12060.953642
75.036500	0.242029	0.149575	0.227018	0.391745	5691.667502	28960.352001	3529.696915	11935.538722
75.536500	0.245624	0.151033	0.237036	0.387819	5744.129100	29287.955088	3557.437370	12019.525881
76.034500	0.244961	0.149508	0.241705	0.387361	5742.683952	29222.701634	3567.861788	12029.370850
76.534500	0.247581	0.149801	0.230853	0.387990	5756.718028	29202.186808	3544.684291	12015.841334
77.035000	0.242453	0.148627	0.229510	0.393980	5679.177194	28768.664577	3530.201279	11888.089780
77.535000	0.243866	0.147843	0.233274	0.387408	5734.663379	29118.356072	3550.688660	12028.353975
78.035500	0.248768	0.149004	0.232520	0.389092	5757.315870	29086.573495	3545.811052	11992.204941
78.536000	0.245656	0.147750	0.236474	0.388769	5737.673441	29030.048779	3554.385403	11999.129829
79.036500	0.243507	0.147472	0.238121	0.395409	5676.596541	28614.005281	3544.386320	11857.867533
79.536000	0.248271	0.147341	0.235666	0.389422	5751.485030	28965.789028	3551.447047	11985.147211
80.037000	0.249379	0.148233	0.238404	0.390899	5748.875572	28930.398698	3553.982326	11953.573202
80.537000	0.249407	0.146750	0.239700	0.390689	5750.562970	28853.641579	3557.019936	11958.069805
81.037000	0.244611	0.146557	0.235894	0.397133	5672.334321	28456.987753	3536.552695	11821.533324
81.537500	0.246913	0.144681	0.234950	0.390309	5735.689395	28752.147997	3548.235285	11966.179511
82.035500	0.247354	0.145406	0.239540	0.391445	5730.817426	28727.468151	3555.171745	11941.939668
82.535500	0.247212	0.145145	0.241060	0.392183	5724.660885	28667.663168	3556.749904	11926.235085
83.038500	0.244970	0.144306	0.241618	0.397905	5669.497584	28278.320100	3546.380036	11805.307953
83.535500	0.250617	0.144449	0.239902	0.392074	5749.323015	28632.624513	3554.632903	11928.548738
84.036500	0.249227	0.144468	0.235920	0.393708	5728.090079	28536.361358	3543.391485	11893.849227
84.536500	0.250753	0.144563	0.235252	0.394244	5735.027174	28510.120837	3540.998892	11882.500439
85.037000	0.247235	0.142895	0.240106	0.396340	5695.898595	28287.411956	3546.487622	11838.225215
85.537000	0.252814	0.143593	0.242468	0.394715	5746.202328	28424.662539	3554.482781	11872.530244
86.035000	0.249167	0.142406	0.234259	0.393906	5726.285633	28402.248767	3539.700526	11889.657373
86.535000	0.251045	0.142883	0.238128	0.394599	5734.578545	28389.439386	3546.012712	11874.973904
87.035000	0.245938	0.141678	0.238875	0.400610	5657.596768	27966.166503	3535.574850	11748.705417
87.535500	0.248667	0.141809	0.238989	0.394373	5719.528681	28339.343878	3548.185399	11879.757146
88.036000	0.252124	0.142320	0.240816	0.394889	5740.122075	28339.038639	3550.811807	11868.849791
88.536000	0.250453	0.141725	0.236149	0.394177	5733.391310	28345.973699	3542.914543	11883.917479
89.036000	0.248459	0.141799	0.239720	0.401508	5668.713076	27920.988291	3535.470861	11729.977699
89.537000	0.250790	0.141978	0.232112	0.395132	5729.058386	28304.541522	3533.045803	11863.704891
90.037000	0.252980	0.142360	0.242237	0.396033	5738.101170	28273.969062	3551.366882	11844.700881
90.537500	0.253621	0.141409	0.236477	0.395469	5746.572397	28251.167470	3540.998960	11856.596837
91.035000	0.249756	0.141904	0.240601	0.401851	5675.266762	27907.157521	3536.530834	11722.846335
91.535000	0.252358	0.141609	0.242276	0.396133	5733.034580	28223.877674	3551.244424	11842.586365
92.035500	0.252272	0.140938	0.241748	0.395579	5736.320242	28217.054254	3551.297236	11854.275004
92.538500	0.253269	0.140014	0.243803	0.395639	5742.893296	28159.248999	3555.308939	11852.994563
93.036000	0.252755	0.139956	0.235613	0.401884	5695.734164	27792.464101	3526.680805	11722.154419
93.536000	0.255013	0.141198	0.240497	0.397164	5744.438397	28139.306894	3545.622097	11820.877297
94.037000	0.256142	0.138987	0.245180	0.396213	5759.111670	28065.577172	3556.931354	11840.902931
94.537000	0.251562	0.139871	0.241835	0.397222	5719.852158	28058.310011	3548.180666	11819.665648
95.037500	0.251135	0.139692	0.242386	0.403605	5672.692482	27678.031589	3536.592442	11686.430548
95.535000	0.254412	0.137680	0.242448	0.396636	5743.922622	27964.741346	3550.579266	11831.979305
96.035000	0.257556	0.139194	0.239286	0.398496	5752.970347	27944.586343	3540.565001	11792.904416
