sample name	sample
index	1251
start time	 04-29-2021  12:49:31 PM


Wavelength (nm)	Absorbance
494.344910	0.336868
494.563924	0.336868
494.782919	0.336868
495.001897	-0.287349
495.220856	0.052625
495.439797	-0.010821
495.658719	-0.001826
495.877624	-0.056420
496.096510	-0.018459
496.315378	0.018270
496.534227	-0.044115
496.753059	-0.042833
496.971872	-0.068697
497.190667	0.095002
497.409444	0.112013
497.628203	0.117216
497.846943	0.121899
498.065665	0.121702
498.284369	0.124136
498.503055	0.124516
498.721723	0.123677
498.940372	0.125011
499.159003	0.124240
499.377616	0.124657
499.596210	0.124502
499.814787	0.123345
500.033345	0.124857
500.251885	0.124414
500.470406	0.125058
500.688910	0.126578
500.907395	0.126764
501.125862	0.128451
501.344311	0.129904
501.562742	0.130388
501.781154	0.130885
501.999548	0.130782
502.217924	0.130725
502.436282	0.130089
502.654621	0.129858
502.872942	0.129325
503.091245	0.127784
503.309530	0.126738
503.527797	0.126464
503.746045	0.126264
503.964275	0.125652
504.182487	0.125309
504.400681	0.124663
504.618856	0.124154
504.837013	0.123677
505.055152	0.123995
505.273273	0.124454
505.491376	0.124166
505.709460	0.123535
505.927526	0.122997
506.145574	0.123116
506.363604	0.123657
506.581615	0.124761
506.799608	0.125301
507.017583	0.125575
507.235540	0.125058
507.453478	0.125569
507.671399	0.125882
507.889301	0.125532
508.107185	0.125528
508.325050	0.125333
508.542898	0.124917
508.760727	0.125445
508.978538	0.124966
509.196330	0.124941
509.414105	0.125046
509.631861	0.125742
509.849599	0.126702
510.067319	0.127325
510.285021	0.126788
510.502704	0.127614
510.720369	0.126403
510.938016	0.126572
511.155645	0.126984
511.373255	0.125807
511.590848	0.126837
511.808422	0.126637
512.025977	0.125860
512.243515	0.125849
512.461034	0.124812
512.678536	0.126369
512.896018	0.127071
513.113483	0.127011
513.330930	0.127242
513.548358	0.126645
513.765768	0.126512
513.983160	0.127026
514.200533	0.128124
514.417889	0.129606
514.635226	0.128698
514.852545	0.128541
515.069845	0.129512
515.287128	0.129898
515.504392	0.129907
515.721638	0.130286
515.938866	0.129781
516.156075	0.129702
516.373267	0.129193
516.590440	0.130084
516.807594	0.130204
517.024731	0.129081
517.241850	0.129742
517.458950	0.130564
517.676032	0.130859
517.893095	0.131317
518.110141	0.130238
518.327168	0.130804
518.544177	0.130574
518.761168	0.131081
518.978141	0.130981
519.195095	0.131172
519.412031	0.130976
519.628949	0.131776
519.845849	0.132032
520.062731	0.133357
520.279594	0.133033
520.496439	0.132649
520.713266	0.132535
520.930074	0.132059
521.146865	0.132208
521.363637	0.132321
521.580391	0.131402
521.797127	0.131151
522.013844	0.130559
522.230543	0.130602
522.447224	0.130403
522.663887	0.130211
522.880532	0.131814
523.097158	0.132190
523.313766	0.131294
523.530356	0.131417
523.746928	0.132189
523.963481	0.133073
524.180017	0.133042
524.396534	0.133720
524.613032	0.133849
524.829513	0.133196
525.045975	0.131955
525.262420	0.133223
525.478845	0.133110
525.695253	0.133166
525.911643	0.132840
526.128014	0.133312
526.344367	0.133566
526.560702	0.133904
526.777018	0.133712
526.993316	0.134433
527.209597	0.133838
527.425858	0.134760
527.642102	0.134575
527.858328	0.134479
528.074535	0.134602
528.290724	0.134366
528.506894	0.134058
528.723047	0.134452
528.939181	0.135109
529.155297	0.135435
529.371395	0.135158
529.587475	0.135603
529.803536	0.135901
530.019579	0.136104
530.235604	0.136215
530.451611	0.137324
530.667600	0.137779
530.883570	0.136775
531.099522	0.136477
531.315456	0.136449
531.531372	0.136149
531.747269	0.136249
531.963148	0.135777
532.179009	0.135708
532.394852	0.135248
532.610676	0.135352
532.826482	0.135889
533.042271	0.136622
533.258040	0.137297
533.473792	0.137280
533.689525	0.137449
533.905240	0.137545
534.120937	0.137736
534.336616	0.137689
534.552277	0.137886
534.767919	0.138370
534.983543	0.138720
535.199149	0.139108
535.414736	0.139633
535.630306	0.140211
535.845857	0.140648
536.061390	0.141014
536.276904	0.141429
536.492401	0.141509
536.707879	0.141762
536.923339	0.140827
537.138781	0.140475
537.354204	0.140546
537.569610	0.140646
537.784997	0.141041
538.000366	0.141334
538.215716	0.141037
538.431049	0.140860
538.646363	0.141270
538.861659	0.141541
539.076937	0.141757
539.292196	0.142043
539.507438	0.142028
539.722661	0.141641
539.937866	0.141720
540.153052	0.142815
540.368221	0.143491
540.583371	0.142784
540.798503	0.143442
541.013617	0.143714
541.228712	0.143709
541.443789	0.143805
541.658848	0.144167
541.873889	0.144750
542.088912	0.144210
542.303916	0.143868
542.518902	0.144159
542.733870	0.144057
542.948820	0.144052
543.163752	0.144323
543.378665	0.144210
543.593560	0.144431
543.808437	0.144476
544.023295	0.144800
544.238136	0.144832
544.452958	0.144926
544.667762	0.145106
544.882548	0.145472
545.097315	0.145418
545.312064	0.145468
545.526795	0.145805
545.741508	0.145839
545.956203	0.145595
546.170879	0.145543
546.385537	0.145684
546.600177	0.145661
546.814799	0.145338
547.029402	0.145148
547.243988	0.145243
547.458555	0.144888
547.673103	0.145334
547.887634	0.145280
548.102146	0.145581
548.316640	0.145663
548.531116	0.146106
548.745574	0.146452
548.960013	0.146486
549.174435	0.146995
549.388838	0.147254
549.603222	0.146745
549.817589	0.147123
550.031937	0.147429
550.246267	0.147624
550.460579	0.147656
550.674873	0.147410
550.889148	0.147661
551.103405	0.147455
551.317644	0.147388
551.531865	0.147073
551.746068	0.147367
551.960252	0.147436
552.174418	0.147428
552.388566	0.147628
552.602696	0.147953
552.816807	0.148089
553.030900	0.148513
553.244975	0.148494
553.459032	0.148938
553.673070	0.148634
553.887091	0.148661
554.101093	0.148598
554.315077	0.148490
554.529042	0.148412
554.742990	0.148544
554.956919	0.148509
555.170830	0.149088
555.384722	0.149026
555.598597	0.149354
555.812453	0.149643
556.026291	0.149626
556.240111	0.149633
556.453913	0.149636
556.667696	0.149790
556.881461	0.150060
557.095208	0.149763
557.308937	0.149796
557.522647	0.149999
557.736339	0.150021
557.950013	0.150460
558.163669	0.150570
558.377307	0.150979
558.590926	0.150933
558.804527	0.150816
559.018110	0.150993
559.231675	0.150937
559.445221	0.150750
559.658749	0.150917
559.872259	0.151096
560.085751	0.151290
560.299225	0.151171
560.512680	0.151259
560.726117	0.151487
560.939536	0.151875
561.152937	0.152317
561.366319	0.152295
561.579683	0.152083
561.793029	0.152295
562.006357	0.151902
562.219667	0.151922
562.432958	0.152255
562.646231	0.151932
562.859486	0.151595
563.072723	0.151675
563.285941	0.152063
563.499141	0.152095
563.712323	0.151694
563.925487	0.151925
564.138632	0.151763
564.351760	0.151685
564.564869	0.151656
564.777960	0.151590
564.991032	0.151346
565.204087	0.150755
565.417123	0.150855
565.630141	0.151105
565.843140	0.151434
566.056122	0.151659
566.269085	0.151474
566.482030	0.152220
566.694957	0.152742
566.907866	0.153216
567.120756	0.154034
567.333628	0.154403
567.546482	0.154496
567.759318	0.154375
567.972135	0.154619
568.184935	0.154697
568.397716	0.153947
568.610478	0.153861
568.823223	0.153841
569.035949	0.153481
569.248657	0.153329
569.461347	0.153864
569.674019	0.154089
569.886672	0.154075
570.099308	0.154423
570.311925	0.154950
570.524523	0.155242
570.737104	0.155348
570.949666	0.155512
571.162210	0.155234
571.374736	0.154875
571.587244	0.154843
571.799733	0.154952
572.012205	0.155228
572.224658	0.155220
572.437092	0.155273
572.649509	0.155018
572.861907	0.155089
573.074287	0.155391
573.286649	0.155458
573.498993	0.155437
573.711318	0.155320
573.923625	0.154979
574.135914	0.155369
574.348185	0.154592
574.560438	0.155051
574.772672	0.155159
574.984888	0.155451
575.197086	0.155328
575.409266	0.155269
575.621427	0.155403
575.833570	0.155782
576.045695	0.155761
576.257802	0.156316
576.469890	0.156184
576.681961	0.156313
576.894013	0.156349
577.106046	0.156869
577.318062	0.156939
577.530059	0.156730
577.742039	0.156314
577.954000	0.155922
578.165942	0.155999
578.377867	0.155955
578.589773	0.155941
578.801661	0.155814
579.013531	0.155435
579.225382	0.155560
579.437216	0.155911
579.649031	0.155998
579.860828	0.156370
580.072606	0.156854
580.284367	0.157175
580.496109	0.157526
580.707833	0.157900
580.919539	0.158271
581.131227	0.158504
581.342896	0.158404
581.554547	0.158410
581.766180	0.158395
581.977795	0.158482
582.189391	0.158679
582.400969	0.158974
582.612529	0.159057
582.824071	0.159235
583.035595	0.159391
583.247100	0.159659
583.458587	0.159695
583.670056	0.159651
583.881506	0.159273
584.092939	0.158864
584.304353	0.158779
584.515749	0.158961
584.727127	0.158935
584.938486	0.158883
585.149828	0.159061
585.361151	0.159518
585.572456	0.159767
585.783742	0.159794
585.995011	0.160130
586.206261	0.160033
586.417493	0.159814
586.628706	0.159858
586.839902	0.159679
587.051079	0.159818
587.262238	0.160003
587.473379	0.160004
587.684502	0.160354
587.895606	0.160378
588.106692	0.160380
588.317760	0.160405
588.528810	0.160520
588.739841	0.161183
588.950855	0.161145
589.161850	0.161192
589.372827	0.161552
589.583785	0.161858
589.794726	0.162057
590.005648	0.162418
590.216552	0.162411
590.427437	0.162274
590.638305	0.162305
590.849154	0.162631
591.059985	0.162588
591.270798	0.162641
591.481592	0.162464
591.692369	0.162780
591.903127	0.162633
592.113867	0.162941
592.324588	0.163384
592.535292	0.163192
592.745977	0.163148
592.956644	0.163454
593.167293	0.163390
593.377923	0.163437
593.588536	0.163412
593.799130	0.163475
594.009706	0.163992
594.220263	0.163900
594.430803	0.164106
594.641324	0.164151
594.851827	0.164021
595.062312	0.164283
595.272778	0.164239
595.483227	0.164261
595.693657	0.164395
595.904069	0.164192
596.114462	0.164056
596.324838	0.163746
596.535195	0.163862
596.745534	0.163857
596.955855	0.163790
597.166157	0.164044
597.376441	0.164361
597.586707	0.164233
597.796955	0.164038
598.007185	0.164265
598.217396	0.164653
598.427589	0.164528
598.637764	0.164618
598.847921	0.164631
599.058060	0.164556
599.268180	0.164487
599.478282	0.164908
599.688366	0.165146
599.898431	0.165057
600.108479	0.164950
600.318508	0.165227
600.528519	0.165454
600.738511	0.165466
600.948486	0.165672
601.158442	0.165699
601.368380	0.165569
601.578300	0.165700
601.788202	0.165840
601.998085	0.166098
602.207950	0.166164
602.417797	0.166169
602.627626	0.166382
602.837436	0.166349
603.047228	0.166855
603.257002	0.166966
603.466758	0.166875
603.676496	0.167090
603.886215	0.167461
604.095916	0.167457
604.305599	0.167720
604.515264	0.167828
604.724910	0.167920
604.934538	0.167519
605.144148	0.167742
605.353740	0.168093
605.563314	0.168137
605.772869	0.168026
605.982406	0.168135
606.191925	0.168033
606.401425	0.167877
606.610908	0.167823
606.820372	0.167998
607.029818	0.167814
607.239246	0.167463
607.448655	0.167402
607.658047	0.167718
607.867420	0.167878
608.076775	0.168185
608.286111	0.168223
608.495430	0.168457
608.704730	0.168514
608.914012	0.168745
609.123275	0.169033
609.332521	0.169212
609.541748	0.169269
609.750957	0.169228
609.960148	0.169372
610.169321	0.169419
610.378475	0.169392
610.587611	0.169396
610.796729	0.169696
611.005829	0.169676
611.214910	0.169662
611.423974	0.169422
611.633019	0.169477
611.842045	0.169062
612.051054	0.169422
612.260044	0.169537
612.469017	0.169452
612.677970	0.168965
612.886906	0.169172
613.095824	0.169356
613.304723	0.169576
613.513604	0.169572
613.722467	0.169954
613.931311	0.169872
614.140138	0.170007
614.348946	0.170095
614.557736	0.170299
614.766507	0.170244
614.975261	0.170427
615.183996	0.170457
615.392713	0.170635
615.601412	0.170492
615.810092	0.170483
616.018754	0.170451
616.227399	0.170610
616.436024	0.170635
616.644632	0.170734
616.853222	0.170586
617.061793	0.170417
617.270346	0.170586
617.478880	0.170709
617.687397	0.170731
617.895895	0.171018
618.104375	0.170918
618.312837	0.170992
618.521281	0.170908
618.729706	0.170977
618.938113	0.171203
619.146502	0.171060
619.354873	0.170753
619.563226	0.170727
619.771560	0.170507
619.979876	0.170419
620.188174	0.170505
620.396453	0.170412
620.604715	0.170500
620.812958	0.170180
621.021183	0.170126
621.229390	0.170702
621.437578	0.170687
621.645748	0.170681
621.853900	0.170811
622.062034	0.170846
622.270150	0.170973
622.478247	0.170988
622.686326	0.171160
622.894387	0.171062
623.102430	0.170974
623.310454	0.171290
623.518461	0.171596
623.726449	0.171708
623.934418	0.172012
624.142370	0.172212
624.350303	0.172430
624.558218	0.172798
624.766115	0.173201
624.973994	0.173262
625.181855	0.173103
625.389697	0.173267
625.597521	0.173367
625.805327	0.173263
626.013114	0.173221
626.220883	0.173191
626.428634	0.173230
626.636367	0.173182
626.844082	0.173238
627.051778	0.173653
627.259457	0.173494
627.467117	0.173431
627.674758	0.173618
627.882382	0.173687
628.089987	0.173832
628.297574	0.173841
628.505143	0.174010
628.712694	0.174102
628.920226	0.173969
629.127740	0.174281
629.335236	0.174685
629.542714	0.174600
629.750174	0.174731
629.957615	0.174711
630.165038	0.174571
630.372443	0.174467
630.579829	0.174391
630.787198	0.174560
630.994548	0.174362
631.201880	0.174265
631.409194	0.174403
631.616489	0.174487
631.823766	0.174404
632.031025	0.174488
632.238266	0.174564
632.445489	0.174669
632.652693	0.174760
632.859879	0.174733
633.067047	0.174678
633.274197	0.174625
633.481329	0.174448
633.688442	0.174551
633.895537	0.174773
634.102614	0.174905
634.309672	0.175012
634.516713	0.174918
634.723735	0.175041
634.930739	0.175250
635.137724	0.175426
635.344692	0.175908
635.551641	0.176076
635.758572	0.176182
635.965485	0.176266
636.172379	0.176374
636.379256	0.176342
636.586114	0.176417
636.792954	0.176500
636.999775	0.176534
637.206579	0.176570
637.413364	0.176501
637.620131	0.176667
637.826880	0.176696
638.033610	0.176719
638.240323	0.176823
638.447017	0.176990
638.653692	0.176950
638.860350	0.176976
639.066990	0.176816
639.273611	0.176945
639.480214	0.176679
639.686798	0.176600
639.893365	0.176631
640.099913	0.176563
640.306443	0.176567
640.512955	0.176710
640.719449	0.176914
640.925924	0.177194
641.132381	0.177572
641.338820	0.177682
641.545241	0.177963
641.751644	0.177990
641.958028	0.178257
642.164394	0.178607
642.370742	0.178826
642.577071	0.179060
642.783383	0.179160
642.989676	0.178983
643.195951	0.179123
643.402207	0.179251
643.608446	0.179365
643.814666	0.179511
644.020868	0.179161
644.227052	0.179155
644.433218	0.178930
644.639365	0.179013
644.845494	0.179201
645.051605	0.179312
645.257698	0.179418
645.463772	0.179392
645.669828	0.179189
645.875866	0.179139
646.081886	0.179230
646.287888	0.179360
646.493871	0.179380
646.699836	0.179160
646.905783	0.179223
647.111712	0.179174
647.317622	0.179396
647.523514	0.179544
647.729388	0.179919
647.935244	0.179859
648.141082	0.179944
648.346901	0.179967
648.552702	0.180226
648.758485	0.180245
648.964250	0.180135
649.169996	0.180175
649.375724	0.180410
649.581434	0.180423
649.787126	0.180371
649.992800	0.180290
650.198455	0.179919
650.404092	0.179873
650.609711	0.179920
650.815311	0.180213
651.020894	0.180148
651.226458	0.180057
651.432004	0.180247
651.637532	0.180246
651.843041	0.180446
652.048532	0.180953
652.254006	0.180946
652.459460	0.181113
652.664897	0.181075
652.870315	0.181174
653.075716	0.181502
653.281097	0.181419
653.486461	0.181710
653.691807	0.181735
653.897134	0.181551
654.102443	0.181597
654.307734	0.181702
654.513006	0.181823
654.718261	0.181896
654.923497	0.181758
655.128715	0.181722
655.333915	0.181745
655.539096	0.181809
655.744259	0.182049
655.949404	0.182156
656.154531	0.182185
656.359640	0.182283
656.564730	0.182469
656.769802	0.182705
656.974856	0.183056
657.179892	0.183112
657.384909	0.183455
657.589908	0.183514
657.794889	0.183893
657.999852	0.184139
658.204797	0.184436
658.409723	0.184454
658.614631	0.184377
658.819521	0.184485
659.024393	0.184829
659.229246	0.184855
659.434081	0.184927
659.638898	0.184961
659.843697	0.185194
660.048478	0.185331
660.253240	0.185691
660.457984	0.186130
660.662710	0.186334
660.867417	0.186266
661.072107	0.186433
661.276778	0.186824
661.481431	0.187124
661.686066	0.187126
661.890682	0.187024
662.095281	0.187230
662.299861	0.187266
662.504422	0.187150
662.708966	0.187268
662.913491	0.187159
663.117999	0.186930
663.322488	0.186522
663.526958	0.186354
663.731411	0.186445
663.935845	0.186177
664.140261	0.186096
664.344659	0.186181
664.549038	0.186096
664.753400	0.186214
664.957743	0.186541
665.162068	0.186750
665.366375	0.186950
665.570663	0.186933
665.774933	0.187126
665.979185	0.187270
666.183419	0.187469
666.387635	0.187860
666.591832	0.187993
666.796011	0.188037
667.000172	0.188057
667.204315	0.188360
667.408439	0.188669
667.612545	0.188848
667.816634	0.188877
668.020703	0.188783
668.224755	0.188839
668.428788	0.188787
668.632803	0.188937
668.836800	0.189540
669.040779	0.189662
669.244739	0.189690
669.448681	0.189934
669.652605	0.190255
669.856511	0.190711
670.060399	0.190723
670.264268	0.190954
670.468119	0.191057
670.671952	0.191180
670.875767	0.191200
671.079563	0.191363
671.283341	0.191128
671.487101	0.191195
671.690843	0.191245
671.894567	0.191473
672.098272	0.191724
672.301959	0.191993
672.505628	0.191870
672.709278	0.192058
672.912911	0.192002
673.116525	0.192237
673.320121	0.192259
673.523699	0.192268
673.727258	0.192285
673.930799	0.192269
674.134322	0.191872
674.337827	0.191902
674.541314	0.191880
674.744782	0.192061
674.948232	0.192102
675.151664	0.192150
675.355078	0.192185
675.558474	0.192271
675.761851	0.192348
675.965210	0.192618
676.168551	0.192825
676.371873	0.192706
676.575178	0.192785
676.778464	0.192798
676.981732	0.193005
677.184981	0.193080
677.388213	0.193229
677.591426	0.193314
677.794621	0.193574
677.997798	0.193447
678.200956	0.193670
678.404097	0.193807
678.607219	0.194034
678.810323	0.194142
679.013408	0.194277
679.216476	0.194320
679.419525	0.194377
679.622556	0.194527
679.825569	0.194779
680.028563	0.194802
680.231540	0.194884
680.434498	0.194940
680.637438	0.195031
680.840359	0.195256
681.043263	0.195275
681.246148	0.195403
681.449015	0.195440
681.651864	0.195284
681.854694	0.195365
682.057506	0.195471
682.260301	0.195714
682.463076	0.195621
682.665834	0.195655
682.868573	0.195955
683.071295	0.196073
683.273998	0.196095
683.476682	0.196558
683.679349	0.196771
683.881997	0.196804
684.084627	0.196788
684.287239	0.196860
684.489833	0.196914
684.692408	0.196935
684.894965	0.197076
685.097504	0.197345
685.300025	0.197294
685.502527	0.197489
685.705012	0.197673
685.907478	0.198080
686.109925	0.198317
686.312355	0.198097
686.514766	0.198174
686.717159	0.198279
686.919534	0.198273
687.121891	0.198457
687.324230	0.198461
687.526550	0.198432
687.728852	0.198283
687.931136	0.198299
688.133401	0.198520
688.335649	0.198589
688.537878	0.198429
688.740089	0.198587
688.942281	0.198504
689.144456	0.198631
689.346612	0.198756
689.548750	0.198843
689.750870	0.198958
689.952971	0.198879
690.155055	0.199055
690.357120	0.199218
690.559167	0.199320
690.761195	0.199560
690.963206	0.199559
691.165198	0.199615
691.367172	0.199693
691.569128	0.199724
691.771065	0.200099
691.972984	0.200197
692.174885	0.200549
692.376768	0.200606
692.578633	0.200675
692.780479	0.200656
692.982308	0.200890
693.184118	0.201076
693.385909	0.201251
