sample name	sample
index	1240
start time	 04-29-2021  11:35:27 AM
880	0.166769
Peak Time (s)	92.037
Peak Height 	0.1668
calc peak height	90,93
Baseline Time (s)	10.537
Baseline Value 	-0.003176
subtract baseline	10,4
Abs	0.102829
Peak Time (s)	91.037
Peak Height 	0.1028
calc peak height	90,93
Baseline Time (s)	11.537
Baseline Value 	0.001873
subtract baseline	10,3
PK_550	0.059504
Peak Time (s)	90.536
Peak Height 	0.0595
calc peak height	90,93
Baseline Time (s)	11.037
Baseline Value 	2.1646E-4
subtract baseline	10,2
PK_880	0.099344
Peak Time (s)	92.537
Peak Height 	0.09934
calc peak height	90,93
Baseline Time (s)	9.537
Baseline Value 	0.001083
subtract baseline	10,1


Time (s)	A880-A510	A880-A775	A880-A975	A880	I510	I775	I975	I880	
0.036000	-0.001263	-0.000682	0.000426	0.001971	6210.466871	44137.637713	3898.288033	22823.629256
0.536500	-0.003829	-0.000584	-0.006383	0.007595	6148.210838	43616.247371	3868.879409	22566.920784
1.037000	-0.002542	-0.000812	-0.004732	0.004026	6184.979373	43930.652083	3881.122944	22729.436128
1.537000	-0.002257	-0.000599	-0.002747	0.000987	6210.383223	44239.091506	3893.046319	22868.863781
2.040000	0.000063	-0.000307	-0.001093	0.001284	6225.943871	44238.660381	3896.293559	22855.208558
2.535000	-0.004933	-0.000194	-0.005103	0.005601	6154.911662	43840.256676	3876.538951	22657.518551
3.035000	0.000122	-0.000288	0.000741	-0.001473	6247.722178	44503.781536	3907.347209	22982.486976
3.536000	-0.002725	-0.000079	-0.004137	0.000891	6207.530675	44297.790194	3889.963867	22873.289453
4.036500	0.000664	0.000358	-0.000017	0.000854	6233.901596	44342.929990	3899.905559	22874.986451
4.536000	-0.001355	-0.000218	-0.006933	0.000922	6217.815835	44281.652865	3883.257985	22871.890674
5.036500	-0.002174	0.000088	0.001555	0.000670	6213.452377	44334.817023	3904.132589	22883.464948
5.536500	-0.001189	-0.000162	-0.003834	0.000760	6220.337939	44302.357811	3890.997089	22879.339206
6.037000	-0.001393	-0.000044	-0.003152	0.000785	6218.578701	44311.273756	3892.564127	22878.189827
6.534500	0.000242	0.000056	-0.003123	0.000341	6234.603147	44363.202236	3893.692696	22898.652417
7.037500	-0.002358	-0.000313	0.002810	0.000393	6214.172406	44322.992078	3907.839781	22896.274150
7.535500	-0.000633	0.000055	0.000746	0.000573	6226.064477	44340.943867	3902.418442	22887.961039
8.035500	-0.000378	0.000841	0.004055	0.000423	6229.183682	44430.336105	3910.783628	22894.874348
8.535500	-0.000063	-0.000279	0.000848	0.000119	6233.961529	44352.375077	3903.758810	22908.884522
9.036000	-0.000853	-0.000382	-0.000659	0.000199	6227.252800	44334.964643	3899.936440	22905.209813
9.536500	0.000000	-0.000034	-0.001805	-0.000138	6236.440993	44400.370295	3897.996965	22920.774971
10.036500	-0.000470	0.001412	0.002566	0.000717	6226.201091	44456.842204	3906.463730	22881.307592
10.536500	0.000491	0.000457	0.001459	0.000000	6239.168290	44434.105852	3905.519537	22914.385275
11.037000	0.000175	0.000000	-0.003018	-0.000223	6238.449101	44411.705264	3895.292647	22924.682086
11.537500	0.001127	0.000115	0.000000	-0.000052	6244.501587	44406.356605	3902.126772	22916.789952
12.035000	0.000553	0.000563	0.000115	0.000645	6234.656755	44382.551368	3900.726983	22884.641549
12.535500	0.000087	0.000132	0.001145	0.000210	6234.421423	44382.943162	3904.257165	22904.716789
13.035500	-0.000568	0.000255	-0.000435	-0.000503	6234.872522	44462.892143	3902.166226	22937.629538
13.538500	-0.000864	0.000450	0.006646	0.000213	6227.054326	44413.042658	3917.606117	22904.536036
14.035500	-0.001217	-0.000089	-0.002368	0.002680	6205.374243	44126.605694	3889.914274	22791.058369
14.536500	-0.003137	-0.000161	0.003356	0.001732	6197.939309	44209.934222	3905.919843	22834.609796
15.039500	-0.000554	0.000731	0.002283	-0.000074	6231.662060	44467.304321	3907.692448	22917.779003
15.536000	-0.000944	-0.000167	0.003206	-0.000273	6230.184994	44400.446028	3910.412241	22926.969419
16.037500	-0.001253	0.000368	-0.000390	0.003524	6198.641699	44089.839427	3892.617851	22752.376940
16.537500	0.002467	-0.000138	-0.000595	-0.000361	6257.306578	44411.727494	3901.438187	22931.067001
17.035500	0.002466	0.000760	0.000773	-0.002322	6272.592515	44685.971486	3909.480752	23021.853822
17.535500	-0.003153	0.000145	-0.000031	0.000946	6203.833638	44313.986685	3899.651380	22870.787014
18.038500	-0.002802	0.000064	-0.002432	0.001759	6200.292337	44228.725391	3891.956980	22833.358019
18.536000	-0.001963	0.000508	-0.002821	0.002067	6204.362506	44241.711196	3890.297228	22819.218081
19.039000	-0.000447	-0.000045	-0.000304	0.001399	6221.132773	44252.635732	3897.909054	22849.940204
19.536500	-0.000680	0.000320	-0.001854	0.001509	6218.489322	44276.886870	3893.932587	22844.846323
20.037000	-0.000532	0.000439	-0.002178	0.001628	6218.712994	44276.918731	3892.874801	22839.370026
20.537000	-0.003701	-0.000220	-0.003344	0.001050	6198.838246	44269.184575	3891.473807	22865.974144
21.037500	-0.002306	-0.000037	-0.000450	0.001360	6207.147760	44257.118844	3897.650452	22851.695056
21.534500	0.001169	0.001134	0.000601	0.001945	6229.375436	44312.940028	3898.768124	22824.797043
22.035500	-0.002002	-0.000350	-0.001603	0.001297	6209.964288	44233.290683	3895.040879	22854.597922
22.538500	-0.001883	0.000050	0.001519	0.001308	6210.792720	44270.373450	3902.509279	22854.102584
23.035500	-0.000467	0.000045	-0.004099	0.001347	6221.378728	44266.224782	3888.970907	22852.335709
23.536000	-0.001825	0.000567	-0.001040	0.001931	6206.455251	44260.244935	3894.870548	22825.442064
24.036000	-0.001057	0.000498	0.003069	0.002568	6207.464962	44193.068018	3903.206661	22796.201344
24.536000	-0.000376	0.000667	0.002098	0.002025	6216.864129	44260.861932	3902.177415	22821.140680
25.037000	0.000491	0.000169	0.002779	0.001542	6227.260853	44259.398433	3904.984292	22843.362056
25.537500	-0.002261	0.000216	-0.002870	0.001959	6202.907378	44224.229717	3890.437727	22824.178311
26.037500	0.000453	0.000893	-0.000525	0.002447	6219.995094	44242.230579	3894.870325	22801.777121
26.535000	-0.001989	0.000278	-0.001238	0.001422	6209.109819	44281.232159	3895.616386	22848.884560
27.038000	0.001359	0.000511	0.005410	-0.000473	6249.560518	44484.479426	3916.262892	22936.211328
27.538000	-0.000118	0.001445	0.006079	0.000142	6233.366355	44515.059284	3916.395352	22907.843911
28.036000	-0.002262	0.000924	0.003880	0.001260	6208.252039	44358.336357	3908.329203	22856.321721
28.536500	0.001756	0.000646	0.004442	0.001254	6239.254953	44332.362641	3909.705323	22856.584142
29.036500	0.000959	0.000642	-0.003055	0.000662	6237.664742	44388.470606	3893.087581	22883.846280
29.537000	0.001209	0.000698	0.003897	0.000727	6239.094474	44387.567048	3909.662203	22880.841643
30.036500	-0.000951	0.000947	-0.002893	0.001986	6212.742674	44291.145359	3890.316164	22822.914267
30.537000	-0.000706	0.000408	0.000680	0.003066	6206.336572	44137.253793	3896.272300	22773.392831
31.037500	-0.001466	0.000146	-0.000058	0.002168	6207.390009	44197.572958	3896.654342	22814.565809
31.535500	-0.001212	0.000475	-0.001625	-0.000121	6226.950470	44447.416782	3898.387872	22919.986019
32.035000	-0.002382	0.001173	0.002977	0.002021	6201.505463	44309.525709	3904.306380	22821.348629
32.535500	0.001228	0.001110	0.000761	0.000913	6237.811435	44409.206314	3901.636833	22872.301694
33.036500	0.000761	0.000619	0.000137	0.000161	6240.008975	44434.133685	3901.943463	22906.937881
33.536500	0.001970	0.000922	0.000832	0.000350	6247.916600	44445.111394	3903.163162	22898.230835
34.036500	-0.001228	0.000944	-0.001022	0.003760	6197.033158	44122.172075	3890.549600	22741.604434
34.536500	0.000243	0.000265	-0.002280	0.001499	6225.679882	44272.643773	3892.941143	22845.338714
35.035000	-0.000932	0.000243	-0.000827	0.002288	6210.572012	44195.410577	3894.527340	22809.059190
35.535000	-0.001004	0.000607	-0.004647	0.002740	6206.547348	44187.026978	3884.362885	22788.319231
36.035000	-0.001062	0.000616	-0.000147	0.003198	6202.596302	44144.335448	3893.976844	22767.309771
36.538000	-0.001653	0.001263	0.005856	0.002893	6200.411955	44234.938699	3909.160542	22781.310711
37.038500	-0.002022	0.000319	0.000915	0.002432	6201.111084	44188.971059	3898.354064	22802.454509
37.536000	-0.002817	0.000377	-0.004174	0.002274	6196.238966	44209.507986	3886.588831	22809.692114
38.036000	-0.002097	0.000065	-0.000735	0.002512	6199.924689	44157.173980	3894.211106	22798.767795
38.537000	-0.001919	0.000570	-0.003512	0.002456	6201.714263	44210.530290	3887.726645	22801.339270
39.037000	-0.000340	0.000497	0.000334	0.002700	6211.954214	44180.449983	3896.321583	22790.180736
39.534500	-0.003385	0.000109	-0.000023	0.002121	6193.074009	44198.596031	3896.852473	22816.748521
40.037500	-0.001125	0.000872	-0.001327	0.003096	6202.897002	44178.416235	3891.404005	22771.985963
40.535000	-0.001362	0.000465	0.001960	0.002287	6207.281805	44216.724738	3901.214666	22809.120345
41.037500	0.001319	0.001108	-0.003581	0.002885	6223.286981	44220.963001	3886.546985	22781.675500
41.535500	-0.000862	0.000710	0.001966	0.002419	6210.104608	44227.411252	3900.911962	22803.046885
42.036000	-0.002945	-0.000727	-0.000263	0.000574	6208.274025	44266.219270	3899.986102	22887.896516
42.536000	-0.000670	-0.000809	0.000579	0.001229	6220.718878	44196.091698	3900.435846	22857.726968
43.036500	-0.002318	0.000721	-0.000196	0.002276	6200.043368	44242.054503	3896.064410	22809.603288
43.539500	-0.001502	0.000139	0.000529	0.002094	6207.686164	44204.046497	3898.239266	22817.971628
44.037000	-0.000395	-0.000493	0.001030	0.001509	6220.680586	44199.504954	3900.847720	22844.861362
44.544500	-0.001582	0.000997	0.001259	0.000099	6222.404447	44476.308194	3904.798039	22909.831550
45.037500	0.000258	0.000311	0.003007	-0.000412	6240.551974	44459.443931	3910.266114	22933.387627
45.535500	-0.000112	0.000699	0.000169	-0.000257	6236.486894	44481.807477	3903.026192	22926.227568
46.035500	-0.002921	0.000459	-0.001327	0.003294	6187.662845	44120.399088	3890.933226	22762.922967
46.535500	-0.000213	0.000012	0.000533	-0.000675	6238.942197	44456.051841	3904.913216	22945.565831
47.035500	-0.001292	0.000525	0.000283	-0.000433	6228.732830	44481.951271	3903.725449	22934.360135
47.542000	-0.000851	0.000958	0.005220	0.002354	6210.681057	44257.234037	3908.925970	22806.022491
48.042000	-0.001416	0.000796	-0.001832	0.005382	6183.232241	43954.559603	3884.774380	22667.539430
48.542000	-0.001426	0.000757	0.006468	0.000125	6223.406352	44450.885447	3917.389585	22908.634520
49.039500	-0.000991	0.000066	0.003525	-0.000560	6232.036773	44450.277477	3911.885224	22940.240179
49.537000	0.000286	0.000283	0.000534	-0.000230	6239.361626	44439.421900	3903.841608	22924.982772
50.037000	-0.002715	-0.000459	-0.002180	0.004545	6179.714359	43914.950823	3885.931128	22705.712322
50.537500	-0.002261	-0.000378	0.005386	0.002603	6197.975179	44106.502437	3908.723484	22794.598892
51.035500	0.011901	-0.018044	0.021252	0.077373	5765.534225	36205.189430	3775.225761	19643.376143
51.535500	0.017115	-0.019130	0.005101	0.182788	5170.587390	28960.677419	3550.846820	16028.557981
52.036000	0.004920	-0.045003	-0.021691	-0.146175	7632.388957	55276.269600	4249.139138	30935.065228
52.536000	0.006895	-0.127193	-0.014867	-0.306037	9779.324838	65535.000000	4900.842714	43423.350315
53.036500	0.007574	-0.101443	-0.007181	-0.280194	9390.793866	65521.407581	4817.121720	41080.581950
53.537000	0.000167	-0.080873	-0.007209	-0.254869	8917.981612	64839.486001	4705.928825	38916.137055
54.037500	-0.000656	-0.048202	-0.005582	-0.208130	8291.455364	62865.170261	4523.432690	35238.373403
54.535000	-0.002002	-0.034110	-0.008200	-0.180083	7937.184954	60968.628121	4409.769498	33214.040279
55.037500	-0.003485	-0.035367	-0.010762	-0.188804	8022.208896	61975.419442	4431.958856	33829.532007
55.535000	-0.000605	-0.036126	-0.008669	-0.190078	8071.661272	62045.603833	4444.227850	33920.536286
56.035500	-0.000536	-0.022488	-0.007308	-0.150540	7620.465611	58620.995460	4310.591125	31218.581284
56.536000	0.010474	-0.010259	0.004259	-0.102671	7234.569740	54230.250544	4193.960640	28259.995416
57.036500	0.007748	-0.005715	0.006452	-0.053827	6746.780202	49251.821090	4057.710124	25559.191450
57.536500	0.014103	0.001245	0.008641	-0.011947	6442.923806	45670.247411	3952.772368	23473.454951
58.036500	0.012966	0.001162	0.011455	0.007789	6275.628418	43762.004619	3910.865222	22558.098769
58.537000	0.024732	0.008505	0.018162	-0.004131	6466.086142	45615.543490	3957.085278	23105.967651
59.037000	0.028355	0.009318	0.023427	-0.023761	6663.431949	47674.581970	4022.034535	24041.572395
59.537500	0.032890	0.016839	0.031882	0.041574	6168.902209	42092.967989	3878.920579	21084.587152
60.035000	0.034284	0.021408	0.034275	0.039324	6196.628206	42713.299001	3889.912621	21179.178904
60.540500	0.042315	0.025253	0.037156	0.058164	6115.055050	41361.869713	3852.617113	20401.925140
61.035000	0.042819	0.025060	0.042358	0.073451	6006.724548	40014.840004	3829.746606	19795.564507
61.541500	0.049361	0.028474	0.052504	0.083675	5980.310295	39437.292313	3829.569889	19401.752932
62.036000	0.046970	0.030935	0.049548	0.100985	5842.727718	38208.960277	3785.193135	18755.821621
62.536000	0.051138	0.034916	0.047124	0.096793	5900.350423	38879.893270	3788.983281	18909.901606
63.036500	0.051377	0.035509	0.056594	0.098500	5890.140019	38787.606792	3805.805161	18846.944987
63.537500	0.050910	0.035477	0.050746	0.093100	5924.554735	39234.011391	3804.826559	19046.847425
64.041000	0.058551	0.039801	0.062247	0.094254	5970.404148	39500.296757	3827.699097	19003.939813
64.546500	0.059320	0.040721	0.062944	0.094332	5975.327503	39571.356783	3829.084013	19001.038268
65.035500	0.064691	0.041802	0.062623	0.094805	6010.453107	39622.668559	3827.307501	18983.457707
65.535500	0.063748	0.043034	0.063971	0.095777	5996.670274	39644.720860	3828.148686	18947.436305
66.035500	0.065197	0.041937	0.061791	0.095819	6006.793967	39548.476730	3823.189416	18945.893228
66.536000	0.063951	0.043765	0.063263	0.097132	5988.414023	39591.943442	3823.542832	18897.353923
67.036500	0.066765	0.044707	0.065677	0.098106	6001.619222	39589.266403	3826.755799	18861.462712
67.535500	0.067729	0.045751	0.067530	0.099841	5996.080782	39530.951854	3827.020719	18797.725321
68.037000	0.065797	0.045440	0.059113	0.107436	5928.422181	38869.976152	3791.877311	18521.588676
68.536500	0.069800	0.046525	0.071862	0.102831	5989.483567	39344.424324	3830.022267	18688.417762
69.037500	0.067655	0.045459	0.063173	0.103628	5968.479343	39188.396616	3808.983718	18659.426327
69.537000	0.071034	0.046341	0.070806	0.106483	5972.216005	39023.921441	3819.523090	18555.969599
70.035000	0.068048	0.046380	0.061857	0.116446	5881.319424	38207.655238	3778.476512	18200.231284
70.535500	0.069414	0.047501	0.071183	0.113413	5911.889570	38547.045274	3805.098536	18307.664935
71.036000	0.069351	0.047744	0.067337	0.115856	5894.435886	38366.807315	3791.455144	18221.053814
71.538000	0.072816	0.048617	0.072564	0.118763	5898.315388	38201.073483	3796.463851	18118.646183
72.036500	0.070969	0.049599	0.070121	0.129230	5813.880840	37438.311924	3768.926192	17755.545299
72.536500	0.076402	0.052082	0.077496	0.125806	5874.370274	37911.431711	3791.906454	17873.382099
73.037000	0.075562	0.052108	0.077516	0.127076	5859.846659	37811.263071	3789.217543	17829.573665
73.537500	0.076319	0.051848	0.075576	0.127661	5861.028756	37743.433159	3783.808374	17809.432672
74.034500	0.073033	0.051340	0.075434	0.134603	5791.592094	37150.679237	3768.799137	17572.522217
74.535500	0.079684	0.053193	0.076107	0.130682	5863.389986	37609.077348	3778.503331	17705.848854
75.035000	0.080326	0.053485	0.078125	0.131623	5861.333903	37557.304783	3780.795258	17673.757517
75.535500	0.077943	0.052801	0.076446	0.132056	5842.052353	37468.227801	3776.310055	17659.000505
76.036000	0.080175	0.053826	0.072352	0.140067	5802.875058	36916.561997	3751.017433	17388.716890
76.536500	0.082251	0.054992	0.082597	0.135829	5845.710357	37342.539422	3781.361901	17531.088018
77.036500	0.083158	0.055112	0.083630	0.136999	5843.908777	37259.289685	3781.068062	17491.619317
77.537000	0.084388	0.055821	0.086645	0.139348	5836.278581	37129.832658	3782.488215	17412.757116
78.039000	0.081505	0.056401	0.085187	0.146318	5769.918533	36629.758508	3764.686148	17181.235728
78.537500	0.086780	0.057260	0.084394	0.142633	5830.203367	36984.657597	3770.756790	17303.185661
79.035000	0.086002	0.057099	0.089818	0.143493	5819.093629	36904.599777	3780.419740	17274.642754
79.535000	0.087857	0.057936	0.090663	0.145452	5818.389608	36816.857332	3778.051710	17209.812953
80.035500	0.087824	0.058450	0.091172	0.147012	5807.618813	36735.225892	3775.823956	17158.399147
80.536000	0.089054	0.059704	0.094094	0.149310	5800.418470	36653.937283	3777.144786	17082.971039
81.036500	0.090299	0.058871	0.091781	0.150469	5801.006529	36499.451481	3769.812977	17045.116583
81.536500	0.088336	0.059737	0.093790	0.152292	5775.634795	36425.450247	3770.203591	16985.735109
82.036500	0.087701	0.059550	0.084985	0.157541	5736.631269	36008.321109	3741.097982	16816.133158
82.537000	0.091605	0.059988	0.091713	0.155291	5777.432818	36214.013273	3759.584124	16888.602776
83.037500	0.088881	0.059649	0.093191	0.155920	5755.129744	36139.768800	3761.349138	16868.294564
83.538000	0.092571	0.059912	0.097197	0.157975	5765.979642	36002.822248	3765.424704	16802.205378
84.035000	0.090783	0.059936	0.093748	0.161229	5732.646477	35757.511562	3751.498283	16698.209219
84.536000	0.095068	0.060050	0.098226	0.158941	5776.187329	35939.784496	3765.556562	16771.265407
85.036000	0.092728	0.059681	0.094641	0.159083	5759.664501	35900.959431	3757.785750	16766.715502
85.534500	0.094067	0.060338	0.097523	0.159997	5762.493530	35881.411537	3761.882352	16737.510129
86.036500	0.088924	0.058716	0.093310	0.164892	5696.583100	35390.026830	3743.084038	16582.068637
86.536500	0.094288	0.059531	0.097853	0.160097	5763.294392	35812.649666	3762.362375	16734.322815
87.036500	0.092304	0.059174	0.095893	0.159621	5753.291799	35821.599614	3759.270748	16749.522168
87.537000	0.091339	0.059296	0.100902	0.160386	5741.864414	35772.942099	3768.138266	16725.100726
88.040000	0.090639	0.058840	0.097806	0.164898	5707.702472	35398.923402	3752.302200	16581.904696
88.535000	0.096352	0.059423	0.100190	0.161656	5766.649225	35686.431046	3763.985840	16684.627662
89.035000	0.094621	0.059505	0.102866	0.162295	5750.932594	35644.501058	3768.254201	16664.333618
89.535500	0.095626	0.057956	0.096163	0.161005	5766.155042	35624.913045	3756.957648	16705.364076
90.036000	0.095968	0.058718	0.097762	0.166466	5732.308721	35272.630698	3748.982766	16532.472177
90.536000	0.097484	0.059504	0.099511	0.162926	5765.732402	35596.825325	3759.921704	16644.291196
91.036500	0.097404	0.058102	0.102829	0.162118	5770.576654	35552.113834	3768.548195	16669.954846
91.539000	0.096893	0.057245	0.097294	0.162117	5767.186789	35487.845477	3756.997084	16669.992897
92.037000	0.097547	0.058033	0.102241	0.166769	5740.708948	35199.067401	3757.608293	16522.943414
92.537000	0.099344	0.058775	0.099615	0.163866	5771.860088	35471.421915	3758.183199	16614.524007
93.040500	0.097297	0.057847	0.105858	0.163591	5760.074393	35422.408367	3771.822994	16623.215746
93.535000	0.097795	0.058302	0.101060	0.164443	5757.726207	35392.676934	3759.987735	16596.267263
94.035000	0.099773	0.059215	0.105537	0.167351	5751.561860	35243.714072	3763.258782	16504.657403
94.538500	0.099108	0.059174	0.101637	0.165461	5759.685796	35381.826667	3759.070672	16564.142176
95.036000	0.099734	0.058380	0.104214	0.165518	5763.458181	35318.127223	3764.323557	16562.319500
95.536500	0.100168	0.057650	0.106298	0.164995	5769.828066	35302.741034	3769.792165	16578.831779
96.039500	0.097495	0.057484	0.104994	0.168356	5729.923824	35040.651761	3760.031992	16473.162115
96.539500	0.100828	0.058322	0.108433	0.165745	5769.229137	35296.962312	3772.711517	16555.189909
