sample name	sample
index	1447
start time	 05-10-2021  01:18:51 PM


Wavelength (nm)	Absorbance
494.344910	-0.007444
494.563924	-0.007444
494.782919	-0.007444
495.001897	0.033221
495.220856	-0.006166
495.439797	-0.009060
495.658719	-0.004491
495.877624	-0.002151
496.096510	-0.007597
496.315378	-0.006803
496.534227	-0.008459
496.753059	-0.006232
496.971872	-0.000856
497.190667	0.059077
497.409444	0.090767
497.628203	0.100916
497.846943	0.106453
498.065665	0.110593
498.284369	0.112493
498.503055	0.114404
498.721723	0.115286
498.940372	0.116153
499.159003	0.116812
499.377616	0.116747
499.596210	0.115695
499.814787	0.116546
500.033345	0.116111
500.251885	0.117048
500.470406	0.116990
500.688910	0.119071
500.907395	0.119198
501.125862	0.118745
501.344311	0.118713
501.562742	0.120152
501.781154	0.120245
501.999548	0.120366
502.217924	0.119926
502.436282	0.119867
502.654621	0.118539
502.872942	0.118932
503.091245	0.119969
503.309530	0.119768
503.527797	0.119480
503.746045	0.119760
503.964275	0.120071
504.182487	0.120524
504.400681	0.120974
504.618856	0.120926
504.837013	0.121091
505.055152	0.120595
505.273273	0.120262
505.491376	0.121333
505.709460	0.119969
505.927526	0.120961
506.145574	0.120946
506.363604	0.120134
506.581615	0.119771
506.799608	0.118915
507.017583	0.120088
507.235540	0.120511
507.453478	0.119533
507.671399	0.119342
507.889301	0.117834
508.107185	0.117629
508.325050	0.118487
508.542898	0.118371
508.760727	0.118949
508.978538	0.117421
509.196330	0.116825
509.414105	0.117636
509.631861	0.118218
509.849599	0.117608
510.067319	0.117513
510.285021	0.117248
510.502704	0.118083
510.720369	0.118537
510.938016	0.118938
511.155645	0.119991
511.373255	0.119339
511.590848	0.120207
511.808422	0.121566
512.025977	0.121413
512.243515	0.121398
512.461034	0.121402
512.678536	0.121343
512.896018	0.121790
513.113483	0.121818
513.330930	0.121598
513.548358	0.120834
513.765768	0.120832
513.983160	0.121151
514.200533	0.121475
514.417889	0.120745
514.635226	0.120594
514.852545	0.120058
515.069845	0.120130
515.287128	0.121339
515.504392	0.121813
515.721638	0.122636
515.938866	0.123148
516.156075	0.124042
516.373267	0.125050
516.590440	0.125398
516.807594	0.126096
517.024731	0.125676
517.241850	0.125336
517.458950	0.126016
517.676032	0.125384
517.893095	0.125705
518.110141	0.125392
518.327168	0.126048
518.544177	0.125758
518.761168	0.125506
518.978141	0.125869
519.195095	0.125398
519.412031	0.124817
519.628949	0.124722
519.845849	0.124209
520.062731	0.124073
520.279594	0.123624
520.496439	0.124005
520.713266	0.124616
520.930074	0.124495
521.146865	0.125211
521.363637	0.125894
521.580391	0.126709
521.797127	0.126757
522.013844	0.126467
522.230543	0.126786
522.447224	0.127052
522.663887	0.127258
522.880532	0.127790
523.097158	0.127008
523.313766	0.126932
523.530356	0.126340
523.746928	0.126660
523.963481	0.127018
524.180017	0.127637
524.396534	0.127519
524.613032	0.127112
524.829513	0.127295
525.045975	0.127013
525.262420	0.126038
525.478845	0.126916
525.695253	0.127851
525.911643	0.127716
526.128014	0.127347
526.344367	0.127812
526.560702	0.128301
526.777018	0.128287
526.993316	0.129752
527.209597	0.130601
527.425858	0.130169
527.642102	0.129521
527.858328	0.130211
528.074535	0.129853
528.290724	0.129785
528.506894	0.129165
528.723047	0.129298
528.939181	0.129534
529.155297	0.129081
529.371395	0.129414
529.587475	0.129857
529.803536	0.129580
530.019579	0.130207
530.235604	0.130326
530.451611	0.130632
530.667600	0.130627
530.883570	0.130147
531.099522	0.131146
531.315456	0.131513
531.531372	0.131701
531.747269	0.132523
531.963148	0.132359
532.179009	0.132630
532.394852	0.132603
532.610676	0.132931
532.826482	0.133742
533.042271	0.134039
533.258040	0.134073
533.473792	0.133347
533.689525	0.132991
533.905240	0.133190
534.120937	0.133045
534.336616	0.133125
534.552277	0.133613
534.767919	0.133558
534.983543	0.133474
535.199149	0.133477
535.414736	0.134088
535.630306	0.134274
535.845857	0.134771
536.061390	0.135255
536.276904	0.135966
536.492401	0.136623
536.707879	0.136517
536.923339	0.136540
537.138781	0.136807
537.354204	0.136979
537.569610	0.137073
537.784997	0.137201
538.000366	0.137025
538.215716	0.137113
538.431049	0.136284
538.646363	0.136773
538.861659	0.137169
539.076937	0.137194
539.292196	0.137442
539.507438	0.137747
539.722661	0.138211
539.937866	0.139020
540.153052	0.138700
540.368221	0.138877
540.583371	0.138743
540.798503	0.138713
541.013617	0.138899
541.228712	0.138838
541.443789	0.139136
541.658848	0.139129
541.873889	0.138891
542.088912	0.139099
542.303916	0.139583
542.518902	0.139809
542.733870	0.140215
542.948820	0.140782
543.163752	0.141220
543.378665	0.141291
543.593560	0.141447
543.808437	0.141666
544.023295	0.142038
544.238136	0.142295
544.452958	0.142338
544.667762	0.142203
544.882548	0.141692
545.097315	0.141834
545.312064	0.141631
545.526795	0.141068
545.741508	0.140856
545.956203	0.140842
546.170879	0.140872
546.385537	0.140671
546.600177	0.140521
546.814799	0.140949
547.029402	0.140741
547.243988	0.141645
547.458555	0.142140
547.673103	0.142561
547.887634	0.143303
548.102146	0.143234
548.316640	0.143753
548.531116	0.144114
548.745574	0.143757
548.960013	0.144165
549.174435	0.143384
549.388838	0.143782
549.603222	0.143796
549.817589	0.143588
550.031937	0.143530
550.246267	0.143700
550.460579	0.143759
550.674873	0.144106
550.889148	0.144098
551.103405	0.144631
551.317644	0.144679
551.531865	0.144694
551.746068	0.144457
551.960252	0.144705
552.174418	0.144515
552.388566	0.144866
552.602696	0.145131
552.816807	0.145174
553.030900	0.145054
553.244975	0.145101
553.459032	0.145248
553.673070	0.145508
553.887091	0.145892
554.101093	0.146158
554.315077	0.146631
554.529042	0.146368
554.742990	0.146520
554.956919	0.146626
555.170830	0.146762
555.384722	0.146683
555.598597	0.146997
555.812453	0.146467
556.026291	0.146105
556.240111	0.145375
556.453913	0.145903
556.667696	0.145695
556.881461	0.145705
557.095208	0.145316
557.308937	0.145454
557.522647	0.145488
557.736339	0.145434
557.950013	0.145544
558.163669	0.145756
558.377307	0.145320
558.590926	0.145562
558.804527	0.145573
559.018110	0.145879
559.231675	0.145658
559.445221	0.145388
559.658749	0.145790
559.872259	0.146005
560.085751	0.146045
560.299225	0.146169
560.512680	0.146135
560.726117	0.146386
560.939536	0.146574
561.152937	0.147186
561.366319	0.147077
561.579683	0.147142
561.793029	0.147188
562.006357	0.147049
562.219667	0.146912
562.432958	0.147365
562.646231	0.147489
562.859486	0.147498
563.072723	0.147665
563.285941	0.148252
563.499141	0.148257
563.712323	0.148457
563.925487	0.148992
564.138632	0.149777
564.351760	0.149659
564.564869	0.149298
564.777960	0.149445
564.991032	0.149421
565.204087	0.149236
565.417123	0.149753
565.630141	0.149700
565.843140	0.149724
566.056122	0.149862
566.269085	0.150170
566.482030	0.150874
566.694957	0.150769
566.907866	0.150836
567.120756	0.150730
567.333628	0.150317
567.546482	0.150622
567.759318	0.150778
567.972135	0.150543
568.184935	0.150392
568.397716	0.150177
568.610478	0.150190
568.823223	0.150262
569.035949	0.150569
569.248657	0.150817
569.461347	0.150845
569.674019	0.150576
569.886672	0.150939
570.099308	0.150747
570.311925	0.151190
570.524523	0.150853
570.737104	0.150470
570.949666	0.150719
571.162210	0.150967
571.374736	0.150492
571.587244	0.150569
571.799733	0.150176
572.012205	0.150409
572.224658	0.150266
572.437092	0.151013
572.649509	0.151263
572.861907	0.151315
573.074287	0.150946
573.286649	0.151658
573.498993	0.152100
573.711318	0.152268
573.923625	0.152411
574.135914	0.152655
574.348185	0.152759
574.560438	0.152976
574.772672	0.153167
574.984888	0.153322
575.197086	0.153421
575.409266	0.153565
575.621427	0.154030
575.833570	0.154446
576.045695	0.154730
576.257802	0.154927
576.469890	0.154982
576.681961	0.154932
576.894013	0.155127
577.106046	0.155245
577.318062	0.155081
577.530059	0.155120
577.742039	0.154698
577.954000	0.154542
578.165942	0.154220
578.377867	0.154254
578.589773	0.154304
578.801661	0.154389
579.013531	0.154491
579.225382	0.154491
579.437216	0.154769
579.649031	0.155005
579.860828	0.154955
580.072606	0.155252
580.284367	0.155323
580.496109	0.155170
580.707833	0.155390
580.919539	0.155113
581.131227	0.155024
581.342896	0.154699
581.554547	0.155008
581.766180	0.154650
581.977795	0.155001
582.189391	0.155196
582.400969	0.155757
582.612529	0.155709
582.824071	0.155782
583.035595	0.155986
583.247100	0.156422
583.458587	0.156418
583.670056	0.156981
583.881506	0.156810
584.092939	0.157032
584.304353	0.157161
584.515749	0.157545
584.727127	0.157926
584.938486	0.158336
585.149828	0.158663
585.361151	0.158759
585.572456	0.159289
585.783742	0.159603
585.995011	0.160126
586.206261	0.160302
586.417493	0.160500
586.628706	0.160672
586.839902	0.160650
587.051079	0.160112
587.262238	0.160304
587.473379	0.160096
587.684502	0.160045
587.895606	0.159505
588.106692	0.159631
588.317760	0.159451
588.528810	0.159547
588.739841	0.159565
588.950855	0.160026
589.161850	0.160078
589.372827	0.160140
589.583785	0.159806
589.794726	0.160075
590.005648	0.159959
590.216552	0.160283
590.427437	0.160317
590.638305	0.160651
590.849154	0.160359
591.059985	0.160388
591.270798	0.160303
591.481592	0.160604
591.692369	0.160703
591.903127	0.160660
592.113867	0.160808
592.324588	0.161016
592.535292	0.160876
592.745977	0.160904
592.956644	0.160643
593.167293	0.160586
593.377923	0.160808
593.588536	0.160809
593.799130	0.160863
594.009706	0.160914
594.220263	0.160593
594.430803	0.160606
594.641324	0.160832
594.851827	0.161252
595.062312	0.161394
595.272778	0.161583
595.483227	0.161540
595.693657	0.161569
595.904069	0.161331
596.114462	0.161727
596.324838	0.162052
596.535195	0.162080
596.745534	0.162342
596.955855	0.162535
597.166157	0.162877
597.376441	0.163089
597.586707	0.163452
597.796955	0.163648
598.007185	0.163743
598.217396	0.163669
598.427589	0.164239
598.637764	0.164118
598.847921	0.164309
599.058060	0.164113
599.268180	0.164479
599.478282	0.164496
599.688366	0.164728
599.898431	0.164913
600.108479	0.165342
600.318508	0.165182
600.528519	0.165191
600.738511	0.165189
600.948486	0.165462
601.158442	0.165292
601.368380	0.165464
601.578300	0.165513
601.788202	0.165372
601.998085	0.165123
602.207950	0.165053
602.417797	0.165395
602.627626	0.165372
602.837436	0.165336
603.047228	0.165449
603.257002	0.165586
603.466758	0.165583
603.676496	0.165409
603.886215	0.165683
604.095916	0.165963
604.305599	0.166129
604.515264	0.166252
604.724910	0.166250
604.934538	0.166499
605.144148	0.166340
605.353740	0.166555
605.563314	0.166866
605.772869	0.166940
605.982406	0.166819
606.191925	0.166685
606.401425	0.166756
606.610908	0.166973
606.820372	0.167025
607.029818	0.167205
607.239246	0.167169
607.448655	0.167425
607.658047	0.167311
607.867420	0.167560
608.076775	0.167748
608.286111	0.168037
608.495430	0.168061
608.704730	0.167771
608.914012	0.167538
609.123275	0.167589
609.332521	0.167764
609.541748	0.167892
609.750957	0.167955
609.960148	0.167781
610.169321	0.167644
610.378475	0.167889
610.587611	0.168068
610.796729	0.168759
611.005829	0.168842
611.214910	0.168949
611.423974	0.168847
611.633019	0.169131
611.842045	0.169362
612.051054	0.169600
612.260044	0.169374
612.469017	0.169596
612.677970	0.169291
612.886906	0.169192
613.095824	0.168945
613.304723	0.169115
613.513604	0.168821
613.722467	0.169015
613.931311	0.169306
614.140138	0.169248
614.348946	0.169520
614.557736	0.169846
614.766507	0.170256
614.975261	0.170591
615.183996	0.170811
615.392713	0.171210
615.601412	0.171074
615.810092	0.170803
616.018754	0.171003
616.227399	0.170796
616.436024	0.170770
616.644632	0.170719
616.853222	0.170525
617.061793	0.170794
617.270346	0.170688
617.478880	0.170808
617.687397	0.170886
617.895895	0.171102
618.104375	0.171302
618.312837	0.171239
618.521281	0.171440
618.729706	0.171513
618.938113	0.171719
619.146502	0.171876
619.354873	0.171914
619.563226	0.172208
619.771560	0.172008
619.979876	0.172085
620.188174	0.172538
620.396453	0.172529
620.604715	0.172907
620.812958	0.172579
621.021183	0.172749
621.229390	0.172888
621.437578	0.172896
621.645748	0.173296
621.853900	0.173232
622.062034	0.173147
622.270150	0.173279
622.478247	0.173087
622.686326	0.173445
622.894387	0.173376
623.102430	0.173587
623.310454	0.173611
623.518461	0.173489
623.726449	0.173866
623.934418	0.173617
624.142370	0.173719
624.350303	0.173889
624.558218	0.173742
624.766115	0.173947
624.973994	0.173980
625.181855	0.173940
625.389697	0.174051
625.597521	0.173956
625.805327	0.174200
626.013114	0.174043
626.220883	0.174082
626.428634	0.174203
626.636367	0.173882
626.844082	0.173762
627.051778	0.173954
627.259457	0.173788
627.467117	0.173492
627.674758	0.173535
627.882382	0.173683
628.089987	0.173561
628.297574	0.173372
628.505143	0.173729
628.712694	0.173808
628.920226	0.173765
629.127740	0.174154
629.335236	0.174361
629.542714	0.174262
629.750174	0.174245
629.957615	0.174573
630.165038	0.174938
630.372443	0.174647
630.579829	0.174734
630.787198	0.174860
630.994548	0.174612
631.201880	0.174855
631.409194	0.174801
631.616489	0.174751
631.823766	0.174608
632.031025	0.174489
632.238266	0.174734
632.445489	0.174726
632.652693	0.174954
632.859879	0.175418
633.067047	0.175345
633.274197	0.175575
633.481329	0.175851
633.688442	0.176002
633.895537	0.176143
634.102614	0.176261
634.309672	0.176590
634.516713	0.176670
634.723735	0.176501
634.930739	0.176629
635.137724	0.176641
635.344692	0.176756
635.551641	0.176932
635.758572	0.176923
635.965485	0.177174
636.172379	0.177053
636.379256	0.176990
636.586114	0.176835
636.792954	0.177209
636.999775	0.177490
637.206579	0.177788
637.413364	0.177886
637.620131	0.177922
637.826880	0.177920
638.033610	0.178190
638.240323	0.178291
638.447017	0.178819
638.653692	0.178802
638.860350	0.178712
639.066990	0.178585
639.273611	0.178776
639.480214	0.178990
639.686798	0.178885
639.893365	0.178795
640.099913	0.178852
640.306443	0.178949
640.512955	0.179043
640.719449	0.179522
640.925924	0.179784
641.132381	0.179900
641.338820	0.180028
641.545241	0.180203
641.751644	0.180411
641.958028	0.180378
642.164394	0.180258
642.370742	0.180166
642.577071	0.180105
642.783383	0.179817
642.989676	0.179807
643.195951	0.180187
643.402207	0.180446
643.608446	0.180540
643.814666	0.180678
644.020868	0.180988
644.227052	0.181137
644.433218	0.181255
644.639365	0.181642
644.845494	0.181755
645.051605	0.181585
645.257698	0.181615
645.463772	0.181800
645.669828	0.181730
645.875866	0.181725
646.081886	0.181830
646.287888	0.181731
646.493871	0.181756
646.699836	0.181652
646.905783	0.181582
647.111712	0.181803
647.317622	0.181678
647.523514	0.182024
647.729388	0.181936
647.935244	0.182039
648.141082	0.182426
648.346901	0.182411
648.552702	0.182521
648.758485	0.182706
648.964250	0.182513
649.169996	0.182662
649.375724	0.182616
649.581434	0.182837
649.787126	0.182691
649.992800	0.182482
650.198455	0.182750
650.404092	0.182745
650.609711	0.182654
650.815311	0.182659
651.020894	0.182605
651.226458	0.182562
651.432004	0.182571
651.637532	0.182595
651.843041	0.182565
652.048532	0.182268
652.254006	0.182558
652.459460	0.182883
652.664897	0.183191
652.870315	0.183412
653.075716	0.183612
653.281097	0.183741
653.486461	0.184150
653.691807	0.184376
653.897134	0.184778
654.102443	0.184781
654.307734	0.184764
654.513006	0.184826
654.718261	0.185028
654.923497	0.185253
655.128715	0.185415
655.333915	0.185490
655.539096	0.185779
655.744259	0.185842
655.949404	0.186168
656.154531	0.186371
656.359640	0.186405
656.564730	0.186577
656.769802	0.186790
656.974856	0.186930
657.179892	0.186999
657.384909	0.186932
657.589908	0.187057
657.794889	0.186902
657.999852	0.187071
658.204797	0.187320
658.409723	0.187475
658.614631	0.187526
658.819521	0.187824
659.024393	0.187917
659.229246	0.188150
659.434081	0.188208
659.638898	0.188503
659.843697	0.188502
660.048478	0.188501
660.253240	0.188143
660.457984	0.188124
660.662710	0.187958
660.867417	0.188147
661.072107	0.188162
661.276778	0.188353
661.481431	0.188219
661.686066	0.188308
661.890682	0.188489
662.095281	0.188925
662.299861	0.189075
662.504422	0.189110
662.708966	0.189125
662.913491	0.189200
663.117999	0.189135
663.322488	0.189254
663.526958	0.189188
663.731411	0.188984
663.935845	0.188818
664.140261	0.188651
664.344659	0.188656
664.549038	0.188664
664.753400	0.188599
664.957743	0.188683
665.162068	0.188827
665.366375	0.188766
665.570663	0.188839
665.774933	0.189153
665.979185	0.189404
666.183419	0.189373
666.387635	0.189303
666.591832	0.189689
666.796011	0.189809
667.000172	0.189871
667.204315	0.190127
667.408439	0.190451
667.612545	0.190366
667.816634	0.190514
668.020703	0.190785
668.224755	0.190911
668.428788	0.190809
668.632803	0.190857
668.836800	0.190910
669.040779	0.190969
669.244739	0.190870
669.448681	0.191126
669.652605	0.191044
669.856511	0.191166
670.060399	0.191307
670.264268	0.191271
670.468119	0.191439
670.671952	0.191442
670.875767	0.191789
671.079563	0.191904
671.283341	0.191769
671.487101	0.192083
671.690843	0.192252
671.894567	0.192441
672.098272	0.192722
672.301959	0.192633
672.505628	0.192818
672.709278	0.192769
672.912911	0.192890
673.116525	0.193110
673.320121	0.193355
673.523699	0.193279
673.727258	0.193287
673.930799	0.193139
674.134322	0.193496
674.337827	0.193657
674.541314	0.193684
674.744782	0.193684
674.948232	0.193725
675.151664	0.193509
675.355078	0.193679
675.558474	0.193798
675.761851	0.194091
675.965210	0.194141
676.168551	0.194184
676.371873	0.194215
676.575178	0.194556
676.778464	0.194607
676.981732	0.194690
677.184981	0.194574
677.388213	0.194692
677.591426	0.194918
677.794621	0.194702
677.997798	0.194663
678.200956	0.194867
678.404097	0.194709
678.607219	0.194831
678.810323	0.194922
679.013408	0.195278
679.216476	0.195496
679.419525	0.195564
679.622556	0.195924
679.825569	0.196308
680.028563	0.196482
680.231540	0.196841
680.434498	0.197068
680.637438	0.197360
680.840359	0.197240
681.043263	0.197250
681.246148	0.197224
681.449015	0.197188
681.651864	0.197024
681.854694	0.197117
682.057506	0.197268
682.260301	0.197388
682.463076	0.197249
682.665834	0.197521
682.868573	0.197820
683.071295	0.197947
683.273998	0.198102
683.476682	0.198289
683.679349	0.198298
683.881997	0.198285
684.084627	0.198249
684.287239	0.198371
684.489833	0.198468
684.692408	0.198299
684.894965	0.198185
685.097504	0.198231
685.300025	0.198078
685.502527	0.198061
685.705012	0.197832
685.907478	0.197858
686.109925	0.197861
686.312355	0.197900
686.514766	0.197938
686.717159	0.198035
686.919534	0.198142
687.121891	0.198276
687.324230	0.198329
687.526550	0.198594
687.728852	0.198637
687.931136	0.198793
688.133401	0.198725
688.335649	0.198721
688.537878	0.198823
688.740089	0.198707
688.942281	0.198817
689.144456	0.199089
689.346612	0.199160
689.548750	0.199202
689.750870	0.199399
689.952971	0.199554
690.155055	0.199773
690.357120	0.200122
690.559167	0.200476
690.761195	0.200869
690.963206	0.200966
691.165198	0.201152
691.367172	0.201297
691.569128	0.201378
691.771065	0.201528
691.972984	0.201608
692.174885	0.201558
692.376768	0.201483
692.578633	0.201234
692.780479	0.201177
692.982308	0.200864
693.184118	0.201025
693.385909	0.200819
