sample name	sample
index	361
start time	 03-04-2021  10:48:25 AM


Wavelength (nm)	Absorbance
494.344910	0.029918
494.563924	0.029918
494.782919	0.029918
495.001897	-0.079903
495.220856	0.023184
495.439797	0.019260
495.658719	0.005699
495.877624	0.020383
496.096510	0.008346
496.315378	0.016262
496.534227	0.011850
496.753059	0.014186
496.971872	0.024749
497.190667	0.574972
497.409444	0.881928
497.628203	1.053563
497.846943	1.159958
498.065665	1.237192
498.284369	1.286831
498.503055	1.319781
498.721723	1.357167
498.940372	1.378889
499.159003	1.377302
499.377616	1.369137
499.596210	1.358813
499.814787	1.343289
500.033345	1.357652
500.251885	1.357414
500.470406	1.368992
500.688910	1.366171
500.907395	1.374302
501.125862	1.380229
501.344311	1.390870
501.562742	1.404980
501.781154	1.410420
501.999548	1.409093
502.217924	1.413527
502.436282	1.418549
502.654621	1.411784
502.872942	1.417780
503.091245	1.414418
503.309530	1.415795
503.527797	1.400834
503.746045	1.407162
503.964275	1.400587
504.182487	1.410711
504.400681	1.409897
504.618856	1.431051
504.837013	1.425057
505.055152	1.436990
505.273273	1.436451
505.491376	1.446290
505.709460	1.447526
505.927526	1.448635
506.145574	1.450007
506.363604	1.453100
506.581615	1.459034
506.799608	1.470849
507.017583	1.468696
507.235540	1.487348
507.453478	1.482650
507.671399	1.480806
507.889301	1.481191
508.107185	1.479084
508.325050	1.481966
508.542898	1.478503
508.760727	1.479111
508.978538	1.475018
509.196330	1.469532
509.414105	1.475467
509.631861	1.494852
509.849599	1.501643
510.067319	1.509462
510.285021	1.510580
510.502704	1.517268
510.720369	1.519339
510.938016	1.526328
511.155645	1.535937
511.373255	1.546800
511.590848	1.537854
511.808422	1.538603
512.025977	1.529659
512.243515	1.525628
512.461034	1.527558
512.678536	1.528306
512.896018	1.531266
513.113483	1.533186
513.330930	1.539645
513.548358	1.536938
513.765768	1.537078
513.983160	1.540712
514.200533	1.541660
514.417889	1.539430
514.635226	1.548370
514.852545	1.549545
515.069845	1.545575
515.287128	1.546521
515.504392	1.550641
515.721638	1.554195
515.938866	1.558374
516.156075	1.557795
516.373267	1.551040
516.590440	1.554793
516.807594	1.556802
517.024731	1.550068
517.241850	1.548903
517.458950	1.554837
517.676032	1.561393
517.893095	1.572382
518.110141	1.582456
518.327168	1.590364
518.544177	1.577615
518.761168	1.581447
518.978141	1.590843
519.195095	1.592202
519.412031	1.595879
519.628949	1.600790
519.845849	1.592874
520.062731	1.594477
520.279594	1.597138
520.496439	1.611532
520.713266	1.620905
520.930074	1.627576
521.146865	1.623551
521.363637	1.623102
521.580391	1.621666
521.797127	1.628780
522.013844	1.617106
522.230543	1.630373
522.447224	1.634781
522.663887	1.635624
522.880532	1.638064
523.097158	1.648810
523.313766	1.649727
523.530356	1.647510
523.746928	1.649114
523.963481	1.665296
524.180017	1.658143
524.396534	1.648502
524.613032	1.648304
524.829513	1.648937
525.045975	1.642645
525.262420	1.650358
525.478845	1.663838
525.695253	1.662833
525.911643	1.664116
526.128014	1.667707
526.344367	1.669891
526.560702	1.675544
526.777018	1.682711
526.993316	1.687350
527.209597	1.703344
527.425858	1.697354
527.642102	1.699321
527.858328	1.709129
528.074535	1.708176
528.290724	1.715658
528.506894	1.715387
528.723047	1.713395
528.939181	1.727038
529.155297	1.702378
529.371395	1.714678
529.587475	1.725743
529.803536	1.728212
530.019579	1.730785
530.235604	1.734826
530.451611	1.734706
530.667600	1.742596
530.883570	1.731469
531.099522	1.750542
531.315456	1.750368
531.531372	1.748506
531.747269	1.753101
531.963148	1.751679
532.179009	1.764654
532.394852	1.774046
532.610676	1.764363
532.826482	1.767701
533.042271	1.774807
533.258040	1.773817
533.473792	1.770975
533.689525	1.781480
533.905240	1.800472
534.120937	1.796355
534.336616	1.798726
534.552277	1.808947
534.767919	1.831798
534.983543	1.831246
535.199149	1.837844
535.414736	1.846886
535.630306	1.829245
535.845857	1.828042
536.061390	1.837553
536.276904	1.832327
536.492401	1.845376
536.707879	1.846365
536.923339	1.841562
537.138781	1.837484
537.354204	1.847614
537.569610	1.857238
537.784997	1.860343
538.000366	1.862727
538.215716	1.883596
538.431049	1.870874
538.646363	1.875246
538.861659	1.879664
539.076937	1.890003
539.292196	1.882288
539.507438	1.885951
539.722661	1.891336
539.937866	1.884022
540.153052	1.878135
540.368221	1.893782
540.583371	1.889414
540.798503	1.889886
541.013617	1.885780
541.228712	1.904924
541.443789	1.904856
541.658848	1.907814
541.873889	1.912180
542.088912	1.917981
542.303916	1.918523
542.518902	1.927168
542.733870	1.936633
542.948820	1.948438
543.163752	1.937200
543.378665	1.935809
543.593560	1.925042
543.808437	1.925954
544.023295	1.922155
544.238136	1.934834
544.452958	1.939793
544.667762	1.947758
544.882548	1.953601
545.097315	1.954987
545.312064	1.965967
545.526795	1.973915
545.741508	1.979325
545.956203	1.982833
546.170879	1.968246
546.385537	1.966408
546.600177	1.965369
546.814799	1.961577
547.029402	1.972095
547.243988	1.984362
547.458555	1.982933
547.673103	1.985425
547.887634	1.989508
548.102146	1.998014
548.316640	2.006018
548.531116	1.997821
548.745574	2.001307
548.960013	2.001396
549.174435	1.996493
549.388838	2.018397
549.603222	2.019108
549.817589	2.021620
550.031937	2.018082
550.246267	2.020118
550.460579	2.038676
550.674873	2.039566
550.889148	2.044009
551.103405	2.031649
551.317644	2.010288
551.531865	2.024786
551.746068	2.029278
551.960252	2.032057
552.174418	2.020412
552.388566	1.995224
552.602696	1.994990
552.816807	1.993841
553.030900	2.003302
553.244975	2.009254
553.459032	1.996617
553.673070	1.993959
553.887091	1.999567
554.101093	2.010696
554.315077	2.028136
554.529042	2.033309
554.742990	2.045748
554.956919	2.046222
555.170830	2.047838
555.384722	2.054422
555.598597	2.050107
555.812453	2.042301
556.026291	2.048339
556.240111	2.061998
556.453913	2.065875
556.667696	2.053637
556.881461	2.055841
557.095208	2.060147
557.308937	2.068607
557.522647	2.069180
557.736339	2.078210
557.950013	2.057334
558.163669	2.044773
558.377307	2.031567
558.590926	2.032416
558.804527	2.036216
559.018110	2.042902
559.231675	2.038770
559.445221	2.054986
559.658749	2.051000
559.872259	2.066149
560.085751	2.072748
560.299225	2.077950
560.512680	2.077135
560.726117	2.076923
560.939536	2.075080
561.152937	2.073936
561.366319	2.063965
561.579683	2.057643
561.793029	2.056964
562.006357	2.072219
562.219667	2.081439
562.432958	2.083560
562.646231	2.086926
562.859486	2.101007
563.072723	2.104740
563.285941	2.107317
563.499141	2.114057
563.712323	2.111367
563.925487	2.096363
564.138632	2.104237
564.351760	2.116028
564.564869	2.115011
564.777960	2.110781
564.991032	2.108667
565.204087	2.119271
565.417123	2.132665
565.630141	2.138380
565.843140	2.127264
566.056122	2.124543
566.269085	2.115438
566.482030	2.117276
566.694957	2.101959
566.907866	2.096378
567.120756	2.093771
567.333628	2.085220
567.546482	2.088392
567.759318	2.107231
567.972135	2.098172
568.184935	2.093206
568.397716	2.089713
568.610478	2.106598
568.823223	2.120679
569.035949	2.123047
569.248657	2.133515
569.461347	2.129410
569.674019	2.120261
569.886672	2.131960
570.099308	2.142759
570.311925	2.148227
570.524523	2.140148
570.737104	2.136433
570.949666	2.131588
571.162210	2.130623
571.374736	2.139238
571.587244	2.145679
571.799733	2.152514
572.012205	2.160805
572.224658	2.153033
572.437092	2.156365
572.649509	2.155493
572.861907	2.154356
573.074287	2.148588
573.286649	2.143164
573.498993	2.153011
573.711318	2.144103
573.923625	2.155301
574.135914	2.175808
574.348185	2.188805
574.560438	2.188607
574.772672	2.196716
574.984888	2.226391
575.197086	2.232834
575.409266	2.223432
575.621427	2.218687
575.833570	2.208376
576.045695	2.192667
576.257802	2.189726
576.469890	2.209644
576.681961	2.220879
576.894013	2.204052
577.106046	2.204716
577.318062	2.211817
577.530059	2.227375
577.742039	2.225176
577.954000	2.236652
578.165942	2.232317
578.377867	2.213474
578.589773	2.196146
578.801661	2.198419
579.013531	2.197857
579.225382	2.193176
579.437216	2.194750
579.649031	2.183248
579.860828	2.178037
580.072606	2.182157
580.284367	2.189795
580.496109	2.201801
580.707833	2.201226
580.919539	2.207874
581.131227	2.211247
581.342896	2.210606
581.554547	2.221669
581.766180	2.236411
581.977795	2.245201
582.189391	2.250698
582.400969	2.247763
582.612529	2.240087
582.824071	2.240084
583.035595	2.243350
583.247100	2.241559
583.458587	2.256979
583.670056	2.256841
583.881506	2.256991
584.092939	2.257484
584.304353	2.262874
584.515749	2.276910
584.727127	2.272904
584.938486	2.283067
585.149828	2.291184
585.361151	2.278399
585.572456	2.263300
585.783742	2.243229
585.995011	2.247856
586.206261	2.239557
586.417493	2.232599
586.628706	2.238059
586.839902	2.224778
587.051079	2.220930
587.262238	2.215645
587.473379	2.221423
587.684502	2.236562
587.895606	2.230913
588.106692	2.237543
588.317760	2.234422
588.528810	2.249100
588.739841	2.257203
588.950855	2.265295
589.161850	2.268840
589.372827	2.273898
589.583785	2.265364
589.794726	2.258574
590.005648	2.256194
590.216552	2.279238
590.427437	2.249338
590.638305	2.242585
590.849154	2.245304
591.059985	2.259214
591.270798	2.262218
591.481592	2.276269
591.692369	2.278431
591.903127	2.289434
592.113867	2.291154
592.324588	2.318279
592.535292	2.323973
592.745977	2.318221
592.956644	2.315299
593.167293	2.317818
593.377923	2.314449
593.588536	2.337027
593.799130	2.341857
594.009706	2.343537
594.220263	2.329956
594.430803	2.334541
594.641324	2.340913
594.851827	2.349240
595.062312	2.358746
595.272778	2.372496
595.483227	2.349216
595.693657	2.343725
595.904069	2.327824
596.114462	2.348132
596.324838	2.356031
596.535195	2.360181
596.745534	2.352567
596.955855	2.363953
597.166157	2.354351
597.376441	2.373183
597.586707	2.373389
597.796955	2.375637
598.007185	2.373473
598.217396	2.372008
598.427589	2.380926
598.637764	2.377720
598.847921	2.362217
599.058060	2.372881
599.268180	2.361710
599.478282	2.377135
599.688366	2.391563
599.898431	2.384833
600.108479	2.393829
600.318508	2.381588
600.528519	2.386644
600.738511	2.385300
600.948486	2.374853
601.158442	2.384926
601.368380	2.362740
601.578300	2.364185
601.788202	2.366777
601.998085	2.371033
602.207950	2.369242
602.417797	2.375606
602.627626	2.399784
602.837436	2.418644
603.047228	2.423555
603.257002	2.453886
603.466758	2.431476
603.676496	2.440265
603.886215	2.435234
604.095916	2.429710
604.305599	2.420657
604.515264	2.403689
604.724910	2.402176
604.934538	2.405269
605.144148	2.402479
605.353740	2.421150
605.563314	2.420913
605.772869	2.423755
605.982406	2.434246
606.191925	2.448647
606.401425	2.454389
606.610908	2.456912
606.820372	2.469742
607.029818	2.458510
607.239246	2.455796
607.448655	2.447393
607.658047	2.453503
607.867420	2.454060
608.076775	2.451205
608.286111	2.452108
608.495430	2.438338
608.704730	2.439075
608.914012	2.443755
609.123275	2.465559
609.332521	2.480599
609.541748	2.487972
609.750957	2.510104
609.960148	2.503477
610.169321	2.510818
610.378475	2.522416
610.587611	2.514952
610.796729	2.514290
611.005829	2.496977
611.214910	2.489861
611.423974	2.472383
611.633019	2.461814
611.842045	2.473809
612.051054	2.464943
612.260044	2.468899
612.469017	2.466199
612.677970	2.468347
612.886906	2.466600
613.095824	2.475622
613.304723	2.479504
613.513604	2.491348
613.722467	2.487902
613.931311	2.496459
614.140138	2.511544
614.348946	2.526740
614.557736	2.523127
614.766507	2.528505
614.975261	2.531610
615.183996	2.524308
615.392713	2.524308
615.601412	2.524759
615.810092	2.516147
616.018754	2.498760
616.227399	2.486697
616.436024	2.512553
616.644632	2.525783
616.853222	2.525404
617.061793	2.546794
617.270346	2.534121
617.478880	2.545297
617.687397	2.553603
617.895895	2.552766
618.104375	2.568647
618.312837	2.548549
618.521281	2.537175
618.729706	2.523102
618.938113	2.512470
619.146502	2.511735
619.354873	2.519548
619.563226	2.518381
619.771560	2.520414
619.979876	2.508106
620.188174	2.519313
620.396453	2.534045
620.604715	2.548534
620.812958	2.538110
621.021183	2.542775
621.229390	2.525933
621.437578	2.531441
621.645748	2.528311
621.853900	2.532772
622.062034	2.526617
622.270150	2.509893
622.478247	2.511547
622.686326	2.525813
622.894387	2.534750
623.102430	2.548087
623.310454	2.544066
623.518461	2.561226
623.726449	2.570961
623.934418	2.572436
624.142370	2.577837
624.350303	2.578323
624.558218	2.579603
624.766115	2.575582
624.973994	2.569857
625.181855	2.559694
625.389697	2.547544
625.597521	2.559178
625.805327	2.567419
626.013114	2.577409
626.220883	2.559043
626.428634	2.571253
626.636367	2.560723
626.844082	2.548813
627.051778	2.567143
627.259457	2.566754
627.467117	2.549581
627.674758	2.548075
627.882382	2.557063
628.089987	2.572086
628.297574	2.572675
628.505143	2.586827
628.712694	2.603948
628.920226	2.599590
629.127740	2.622438
629.335236	2.622345
629.542714	2.631581
629.750174	2.613586
629.957615	2.609798
630.165038	2.615155
630.372443	2.600547
630.579829	2.606167
630.787198	2.604333
630.994548	2.580758
631.201880	2.570422
631.409194	2.564243
631.616489	2.574412
631.823766	2.588797
632.031025	2.572291
632.238266	2.583208
632.445489	2.581496
632.652693	2.584411
632.859879	2.586451
633.067047	2.617981
633.274197	2.615437
633.481329	2.609937
633.688442	2.601699
633.895537	2.605937
634.102614	2.620001
634.309672	2.628560
634.516713	2.632321
634.723735	2.636502
634.930739	2.623369
635.137724	2.627634
635.344692	2.636473
635.551641	2.642120
635.758572	2.636913
635.965485	2.627295
636.172379	2.608317
636.379256	2.604899
636.586114	2.612206
636.792954	2.615529
636.999775	2.626272
637.206579	2.611807
637.413364	2.607761
637.620131	2.625205
637.826880	2.614672
638.033610	2.621219
638.240323	2.621958
638.447017	2.617113
638.653692	2.618499
638.860350	2.605244
639.066990	2.609814
639.273611	2.625965
639.480214	2.599577
639.686798	2.609373
639.893365	2.601299
640.099913	2.606323
640.306443	2.612873
640.512955	2.607974
640.719449	2.614470
640.925924	2.621418
641.132381	2.619139
641.338820	2.639180
641.545241	2.645101
641.751644	2.669387
641.958028	2.672076
642.164394	2.676262
642.370742	2.704218
642.577071	2.701686
642.783383	2.690744
642.989676	2.666471
643.195951	2.666821
643.402207	2.656839
643.608446	2.645646
643.814666	2.648260
644.020868	2.650996
644.227052	2.628060
644.433218	2.626275
644.639365	2.630804
644.845494	2.640272
645.051605	2.638461
645.257698	2.644152
645.463772	2.634741
645.669828	2.631075
645.875866	2.630151
646.081886	2.631464
646.287888	2.636783
646.493871	2.631292
646.699836	2.635560
646.905783	2.644124
647.111712	2.655469
647.317622	2.669054
647.523514	2.671806
647.729388	2.676590
647.935244	2.673648
648.141082	2.673016
648.346901	2.681930
648.552702	2.694262
648.758485	2.690585
648.964250	2.679904
649.169996	2.691856
649.375724	2.686454
649.581434	2.689226
649.787126	2.704582
649.992800	2.715254
650.198455	2.711510
650.404092	2.689702
650.609711	2.684628
650.815311	2.685135
651.020894	2.676648
651.226458	2.686781
651.432004	2.682573
651.637532	2.681887
651.843041	2.679746
652.048532	2.682577
652.254006	2.697525
652.459460	2.718911
652.664897	2.724544
652.870315	2.722293
653.075716	2.718788
653.281097	2.713242
653.486461	2.698520
653.691807	2.688625
653.897134	2.705635
654.102443	2.704884
654.307734	2.701502
654.513006	2.701094
654.718261	2.716580
654.923497	2.720599
655.128715	2.727390
655.333915	2.734553
655.539096	2.739667
655.744259	2.718654
655.949404	2.711325
656.154531	2.700269
656.359640	2.688437
656.564730	2.676009
656.769802	2.669394
656.974856	2.674418
657.179892	2.681488
657.384909	2.683281
657.589908	2.699367
657.794889	2.698374
657.999852	2.715504
658.204797	2.718179
658.409723	2.726726
658.614631	2.722219
658.819521	2.719323
659.024393	2.728601
659.229246	2.719256
659.434081	2.712761
659.638898	2.719240
659.843697	2.707827
660.048478	2.726805
660.253240	2.725824
660.457984	2.734270
660.662710	2.718562
660.867417	2.706108
661.072107	2.707578
661.276778	2.704291
661.481431	2.701664
661.686066	2.706287
661.890682	2.701074
662.095281	2.685483
662.299861	2.664046
662.504422	2.677274
662.708966	2.666744
662.913491	2.671403
663.117999	2.686600
663.322488	2.703182
663.526958	2.696703
663.731411	2.693562
663.935845	2.701413
664.140261	2.718946
664.344659	2.717963
664.549038	2.750258
664.753400	2.741213
664.957743	2.736302
665.162068	2.722540
665.366375	2.725313
665.570663	2.729499
665.774933	2.735828
665.979185	2.748522
666.183419	2.754095
666.387635	2.737849
666.591832	2.745417
666.796011	2.743365
667.000172	2.743889
667.204315	2.747753
667.408439	2.747886
667.612545	2.738267
667.816634	2.744529
668.020703	2.750835
668.224755	2.734441
668.428788	2.732650
668.632803	2.735317
668.836800	2.744935
669.040779	2.737798
669.244739	2.735503
669.448681	2.747680
669.652605	2.740008
669.856511	2.726222
670.060399	2.726703
670.264268	2.740684
670.468119	2.748802
670.671952	2.738130
670.875767	2.744126
671.079563	2.746043
671.283341	2.750195
671.487101	2.762936
671.690843	2.766939
671.894567	2.790216
672.098272	2.785586
672.301959	2.771798
672.505628	2.775698
672.709278	2.768538
672.912911	2.771555
673.116525	2.780536
673.320121	2.784466
673.523699	2.775427
673.727258	2.783684
673.930799	2.790671
674.134322	2.789607
674.337827	2.813573
674.541314	2.817513
674.744782	2.831416
674.948232	2.827442
675.151664	2.817055
675.355078	2.824039
675.558474	2.820357
675.761851	2.821542
675.965210	2.825011
676.168551	2.817565
676.371873	2.811365
676.575178	2.793051
676.778464	2.775447
676.981732	2.767628
677.184981	2.785986
677.388213	2.767503
677.591426	2.746459
677.794621	2.739509
677.997798	2.725883
678.200956	2.728727
678.404097	2.729598
678.607219	2.732628
678.810323	2.740133
679.013408	2.723789
679.216476	2.749009
679.419525	2.764008
679.622556	2.771682
679.825569	2.776454
680.028563	2.795671
680.231540	2.797690
680.434498	2.803617
680.637438	2.795387
680.840359	2.814000
681.043263	2.791950
681.246148	2.799519
681.449015	2.794345
681.651864	2.797654
681.854694	2.779473
682.057506	2.779577
682.260301	2.763270
682.463076	2.773361
682.665834	2.748645
682.868573	2.759047
683.071295	2.753730
683.273998	2.783326
683.476682	2.769246
683.679349	2.786178
683.881997	2.806756
684.084627	2.834146
684.287239	2.836513
684.489833	2.840153
684.692408	2.833966
684.894965	2.835713
685.097504	2.805640
685.300025	2.818192
685.502527	2.802022
685.705012	2.798081
685.907478	2.791263
686.109925	2.796938
686.312355	2.799222
686.514766	2.795583
686.717159	2.795142
686.919534	2.815376
687.121891	2.811443
687.324230	2.816938
687.526550	2.798804
687.728852	2.802331
687.931136	2.788545
688.133401	2.806599
688.335649	2.818338
688.537878	2.815776
688.740089	2.807300
688.942281	2.816098
689.144456	2.827085
689.346612	2.842757
689.548750	2.813621
689.750870	2.793721
689.952971	2.786581
690.155055	2.773245
690.357120	2.765083
690.559167	2.768796
690.761195	2.767900
690.963206	2.769345
691.165198	2.765629
691.367172	2.795538
691.569128	2.816753
691.771065	2.815957
691.972984	2.834103
692.174885	2.843494
692.376768	2.846446
692.578633	2.843099
692.780479	2.832204
692.982308	2.846856
693.184118	2.845040
693.385909	2.844633
