sample name	sample
index	1039
start time	 04-19-2021  02:01:33 PM
880	0.250358
Peak Time (s)	102.035
Peak Height 	0.2504
calc peak height	100,103
Baseline Time (s)	8.537
Baseline Value 	-0.004449
subtract baseline	10,4
Abs	0.173274
Peak Time (s)	100.537
Peak Height 	0.1733
calc peak height	100,103
Baseline Time (s)	10.535
Baseline Value 	0.001639
subtract baseline	10,3
PK_550	0.107181
Peak Time (s)	101.535
Peak Height 	0.1072
calc peak height	100,103
Baseline Time (s)	11.536
Baseline Value 	5.2447E-5
subtract baseline	10,2
PK_880	0.165009
Peak Time (s)	100.537
Peak Height 	0.165
calc peak height	100,103
Baseline Time (s)	11.036
Baseline Value 	6.5305E-4
subtract baseline	10,1


Time (s)	A880-A510	A880-A775	A880-A975	A880	I510	I775	I975	I880	
0.034500	-0.000594	0.000348	0.001437	0.003718	6571.648881	45864.586515	3992.798049	24275.745392
0.537500	-0.004499	-0.000421	-0.003729	0.008103	6502.698398	45358.988217	3968.688684	24061.246392
1.035000	-0.002480	-0.000058	-0.000444	0.005053	6544.705760	45693.146727	3984.622731	24210.238361
1.535000	-0.000345	0.000209	-0.001786	0.002347	6585.283094	45986.406012	3988.082733	24343.288012
2.035500	-0.000844	-0.000261	-0.005034	0.001895	6584.881749	45984.620775	3980.999834	24365.582450
2.536000	-0.004234	0.000129	-0.008606	0.006182	6520.749232	45600.614226	3961.334256	24154.936086
3.036000	0.000623	0.000583	-0.004142	0.000026	6613.099855	46253.925353	3987.993548	24458.042180
3.538500	-0.000252	0.000838	0.005061	0.001376	6594.260116	46145.042790	4008.129303	24391.213251
4.036500	-0.001387	0.000706	0.001186	0.001343	6584.959469	46135.210541	3998.232763	24392.835950
4.537000	-0.000015	0.000359	0.000709	0.001722	6593.333855	46063.105287	3996.037164	24374.095599
5.037000	-0.001375	-0.000092	0.002982	0.000527	6591.936634	46136.956355	4004.950212	24433.209389
5.535000	-0.000942	0.000534	0.000217	0.001259	6589.422485	46126.472411	3995.964436	24397.001996
6.035000	-0.001200	-0.000279	-0.001684	0.000113	6596.919970	46159.505168	3994.033154	24453.741612
6.535000	-0.001172	0.001217	-0.000551	0.001400	6586.293052	46180.282606	3993.642160	24390.031741
7.035500	-0.000500	0.000433	-0.002761	0.000543	6599.207878	46187.547697	3990.190421	24432.435956
7.536000	-0.001967	0.001171	0.003354	0.001328	6580.198717	46182.866316	4003.843281	24393.584568
8.039000	-0.000401	0.000123	0.002786	0.000561	6599.889962	46155.004293	4004.358851	24431.547762
8.536500	-0.002160	-0.000288	0.000898	0.000000	6589.761773	46169.883477	4000.941435	24459.337782
9.036500	0.000415	0.000406	0.003127	0.000188	6609.964444	46220.204627	4006.199295	24450.009415
9.537000	0.000139	-0.000030	0.003946	-0.000020	6609.383944	46197.449599	4008.854330	24460.305836
10.037000	-0.001150	-0.000208	-0.000764	-0.000445	6602.063341	46222.048861	3997.815329	24481.404298
10.535000	-0.003055	0.000068	0.000000	-0.000276	6584.548736	46232.792798	3999.343671	24473.042695
11.035500	0.000000	0.000292	-0.000041	0.000366	6604.935256	46191.173065	3997.590913	24441.201056
11.535500	0.001036	0.000000	-0.000016	0.000184	6615.264538	46180.168603	3998.121046	24450.193872
12.035500	-0.001276	0.000098	-0.001826	0.001267	6586.528681	46082.367828	3990.726716	24396.582071
12.538500	0.000767	0.000778	-0.003198	0.000312	6611.892213	46244.907289	3989.666227	24443.860938
13.036500	-0.001213	-0.000126	0.001155	-0.000324	6600.508259	46218.237438	4002.437329	24475.427942
13.540000	-0.001971	0.000357	0.003582	0.000307	6588.769947	46203.462643	4007.067902	24444.107718
14.037000	-0.000645	0.000847	-0.003273	0.002759	6579.274532	46008.699446	3983.266286	24322.933806
14.537000	-0.000373	-0.000000	-0.002127	0.002187	6586.387669	45981.455812	3987.620216	24351.144409
15.034500	-0.000310	0.000254	-0.001688	-0.000093	6606.200063	46233.066762	3994.550290	24463.955883
15.535000	-0.000039	0.000762	0.001688	0.000032	6607.429345	46271.151380	4002.889776	24457.742608
16.038500	-0.002645	0.000176	-0.000507	0.001991	6568.928896	46018.355399	3992.244850	24360.837472
16.535000	-0.000438	0.000547	0.002860	0.000312	6601.674595	46221.845502	4005.188761	24443.850230
17.038500	0.003107	0.000408	-0.000082	-0.003101	6661.057625	46548.884729	4006.407186	24613.647552
17.536500	-0.000944	0.000210	0.002155	0.000437	6596.340014	46175.950959	4003.050639	24437.668330
18.036500	-0.001099	0.000530	0.000568	0.001115	6589.311365	46140.312391	3997.232075	24404.116610
18.536500	0.000213	0.000712	0.000357	0.001237	6599.357586	46146.290040	3996.378341	24398.066673
19.036500	-0.002256	0.000372	-0.002483	0.001445	6576.784544	46091.894013	3988.602950	24387.798917
19.537500	-0.000647	0.000978	0.001239	0.001731	6587.923482	46123.665128	3997.371816	24373.659521
20.037500	-0.002744	0.000504	0.000430	0.001080	6575.745929	46141.192017	3996.968428	24405.833458
20.535000	-0.001039	0.000280	0.001590	0.001006	6590.739220	46126.399516	4000.133318	24409.510872
21.035500	0.000027	0.000013	0.000218	0.000879	6600.816963	46112.448079	3996.938907	24415.781214
21.538500	0.000737	0.000553	0.000108	0.001134	6604.677048	46140.815568	3996.006661	24403.186965
22.036000	-0.000335	0.000197	-0.000818	0.000884	6597.713025	46130.204347	3994.275765	24415.547426
22.536500	-0.000107	0.000463	-0.000169	0.001315	6595.999886	46113.861261	3994.834816	24394.248958
23.037000	-0.002547	0.000355	-0.003308	0.000802	6579.743566	46154.039906	3988.140278	24419.592187
23.537000	-0.001015	0.000322	-0.000883	0.001395	6587.660036	46091.957258	3992.806311	24390.278405
24.037000	-0.000525	0.000014	-0.004931	0.001012	6595.025205	46099.372882	3983.492130	24409.200325
24.537500	-0.002788	-0.000252	-0.002822	0.000660	6578.909255	46107.926275	3989.738198	24426.636680
25.035000	-0.003446	0.000221	0.002261	0.000965	6570.815755	46124.550705	4001.962642	24411.525556
25.535000	-0.000267	0.000695	0.002191	0.001408	6593.860599	46127.655757	4000.644894	24389.643733
26.046000	-0.002675	0.000659	-0.000864	0.001439	6573.312958	46120.976479	3992.741846	24388.087031
26.536000	-0.001684	0.001146	0.000391	0.001562	6580.603817	46157.085595	3995.632726	24381.996668
27.036000	0.000173	0.000092	-0.000066	-0.000780	6616.124195	46285.364641	4000.466835	24498.053534
27.536500	-0.000359	0.001241	0.002577	-0.000659	6610.585755	46387.973197	4006.967374	24492.061865
28.036500	0.000868	0.000873	0.002650	0.001313	6604.265920	46154.825654	4002.069781	24394.344161
28.537000	-0.000089	0.001433	0.003517	0.000532	6602.768646	46288.209260	4006.318983	24432.949099
29.037500	0.000181	0.000776	-0.002999	-0.000074	6610.200962	46283.187538	3991.157680	24463.023741
29.535000	0.000426	0.000872	0.003624	-0.000095	6612.463079	46294.816595	4008.215786	24464.055387
30.035500	-0.001180	0.000146	-0.002470	0.001120	6588.582442	46101.787895	3989.462536	24403.871511
30.538000	-0.000120	0.000336	0.001809	0.001851	6591.362507	46048.145042	3998.528186	24367.751293
31.035500	-0.001485	0.000018	-0.002960	0.001819	6580.130336	46019.755946	3986.443190	24369.345870
31.536000	0.000821	0.000610	-0.002009	0.000235	6613.009684	46235.814719	3992.890694	24447.671070
32.036000	-0.002015	0.000999	0.003472	0.002206	6572.409969	46078.563748	4001.885783	24350.207729
32.536500	0.000470	0.000006	-0.000040	-0.000193	6613.664593	46218.332965	3999.028641	24468.934978
33.036500	0.000271	0.000560	0.001050	0.000393	6607.001617	46215.048285	4000.321379	24439.840901
33.536500	-0.001011	0.000564	0.001239	0.002305	6580.025640	46025.776643	3995.904704	24345.359544
34.034500	-0.000497	0.000715	0.000855	0.002224	6585.033779	46048.657887	3995.128208	24349.345501
34.534500	-0.000108	-0.000904	-0.002063	0.001063	6598.119064	46003.243981	3990.644072	24406.681342
35.035000	-0.001500	0.000658	0.003224	0.001703	6580.975122	46094.665279	4002.543194	24375.058598
35.535000	-0.000040	0.000308	0.000826	0.001299	6596.702326	46100.142918	3997.424043	24395.040743
36.081000	-0.000159	0.000649	-0.000393	0.002868	6582.455843	45978.399997	3990.301467	24317.598828
36.536500	-0.002728	0.000061	0.005086	0.001410	6573.106579	46064.517645	4008.104429	24389.521546
37.036000	0.000383	0.000878	0.004515	0.002066	6593.799135	46080.520811	4004.936700	24357.153919
37.537000	-0.001951	0.000216	-0.001044	0.001216	6581.275723	46099.171263	3992.851618	24399.113327
38.037500	-0.000082	0.000484	-0.001844	0.001859	6591.610637	46061.957262	3989.174705	24367.330887
38.534500	-0.000272	0.000927	0.004703	0.002054	6588.363958	46086.610137	4005.451650	24357.729361
39.034500	-0.002433	0.000740	0.002239	0.001552	6574.395941	46117.850461	4000.398083	24382.510146
39.541000	-0.000637	0.000486	0.004794	0.001411	6590.709575	46106.667086	4007.348745	24389.501933
40.035500	-0.000030	0.001056	0.001346	0.002398	6587.502522	46065.235881	3995.939045	24340.760337
40.535500	-0.000623	0.000764	0.002872	0.001959	6586.208415	46079.826452	4000.981182	24362.430843
41.036000	-0.000898	0.000709	-0.001564	0.001405	6588.555910	46129.301649	3991.043776	24389.783097
41.536000	0.001320	0.000827	0.003151	0.001992	6602.338150	46082.742263	4001.611929	24360.763112
42.036000	-0.001617	-0.000050	-0.001533	0.001787	6579.283327	46016.201752	3990.148419	24370.890749
42.536500	-0.002873	0.000670	-0.001699	0.001279	6572.994224	46138.008376	3991.020710	24395.998418
43.036500	-0.001680	0.000974	-0.000923	0.002219	6575.111919	46074.861750	3990.602450	24349.561600
43.537500	0.002506	0.000362	0.002156	-0.002369	6649.614183	46471.003646	4010.304004	24577.145704
44.040500	-0.003114	0.000387	0.002851	0.004486	6544.141466	45792.696484	3994.445630	24238.002987
44.535000	-0.000728	0.000916	-0.004271	0.000309	6599.259559	46258.961101	3986.948087	24444.039071
45.035500	0.000703	0.001128	0.003642	0.000127	6612.920650	46298.223736	4007.689698	24453.038179
45.536000	0.000012	0.000455	0.002728	0.000077	6607.485869	46236.093297	4005.456607	24455.509060
46.036000	-0.001471	-0.000074	0.000768	0.004744	6555.703983	45721.928093	3988.481231	24225.377126
46.536000	-0.000022	0.000360	0.002566	0.000117	6606.859666	46222.745069	4004.936098	24453.550420
47.036500	-0.001572	0.000329	-0.000763	0.001761	6579.876821	46056.267604	3992.178353	24372.171550
47.536500	-0.000528	0.000708	0.000879	0.002273	6584.360391	46043.101292	3995.064568	24346.904247
48.036500	-0.003021	0.000884	-0.002759	0.004494	6544.850527	45840.876988	3980.180958	24237.627491
48.537500	0.001328	0.001270	0.004271	0.000477	6615.261227	46277.477994	4008.409991	24435.696905
49.038000	0.000783	0.001484	0.007730	0.000788	6607.994875	46267.781300	4016.588098	24420.291893
49.535500	0.002631	0.001516	0.006103	-0.002012	6647.623714	46550.781331	4019.647501	24559.321183
50.035500	-0.002044	-0.000018	-0.001540	0.011171	6497.661453	45099.900705	3966.499471	23912.462433
50.536000	0.020331	-0.007226	0.015586	0.245684	5117.056395	27131.002965	3540.387837	15154.811398
51.036000	0.003027	-0.002283	-0.017934	0.330778	4656.621896	23064.679581	3383.622209	12978.375673
51.536500	-0.040046	-0.027493	-0.054494	-0.132021	7476.783658	57953.099219	4216.388168	32110.189294
52.037000	-0.032793	-0.036851	-0.034109	-0.162075	7885.074799	60635.059178	4380.414822	34201.459390
52.537000	-0.015538	-0.066873	-0.011871	-0.224219	8880.085823	65059.532674	4701.233184	39013.203269
53.040000	-0.007682	-0.039277	-0.008790	-0.183712	8448.777804	63241.791326	4551.228212	35799.253511
53.535000	-0.001030	-0.018605	-0.001067	-0.135290	7942.257819	59512.940301	4402.124157	32330.650781
54.035500	-0.007428	-0.013641	-0.005813	-0.119998	7697.835640	58184.964410	4333.691608	31313.227843
54.535500	0.005654	-0.016456	0.002755	-0.142341	8103.468457	60722.935932	4440.603009	32812.022917
55.035500	0.008054	-0.004967	0.002506	-0.091471	7556.604939	55719.196177	4267.803942	29508.333594
55.536000	0.010826	-0.001747	0.009971	-0.052906	7190.184448	51598.787627	4172.205774	27249.353100
56.036500	0.026539	0.000045	0.012544	-0.074433	7572.055802	54279.392157	4245.684007	28485.548689
56.536500	0.019166	0.005801	0.013762	0.008279	6701.524481	45952.669411	4012.789777	24052.658853
57.037000	0.024539	0.009058	0.020617	0.002565	6799.179793	46849.099141	4045.920981	24332.500230
57.540000	0.028976	0.015015	0.025171	0.037021	6540.440576	44064.219528	3968.643601	22699.566847
58.034500	0.034425	0.016999	0.029372	0.040691	6555.284802	43905.207271	3969.972693	22533.176007
58.535000	0.038369	0.022962	0.033486	0.047485	6531.533022	43826.899440	3963.292735	22228.767209
59.035000	0.046948	0.028379	0.043080	0.069107	6424.836063	42331.756338	3933.825740	21291.173565
59.536000	0.051230	0.030547	0.048834	0.088691	6303.668505	40785.723722	3900.934873	20481.279884
60.036000	0.064192	0.036135	0.061853	0.104122	6284.508747	39939.009223	3895.303612	19868.352530
60.536000	0.070789	0.042240	0.067156	0.115728	6245.988188	39474.126970	3880.738939	19421.523875
61.036500	0.076601	0.044578	0.070869	0.121096	6249.382055	39220.532625	3876.951582	19218.855796
61.536500	0.077334	0.047109	0.080368	0.110361	6338.333277	40343.930576	3924.284130	19626.670150
62.039500	0.089871	0.051629	0.083627	0.114191	6407.457925	40403.276895	3922.917236	19479.998570
62.537000	0.092134	0.055356	0.091504	0.162542	6056.830993	36751.227118	3830.514460	17735.628103
63.035000	0.097004	0.058414	0.093219	0.168413	6049.620472	36533.285787	3821.502759	17536.718480
63.535500	0.102269	0.062457	0.101607	0.159216	6155.420273	37571.255891	3860.222707	17849.492097
64.035500	0.103010	0.065046	0.103725	0.177231	6029.447890	36364.887111	3825.152319	17242.984998
64.535500	0.110484	0.068860	0.117225	0.206949	5874.448487	34433.123373	3790.670454	16295.880067
65.036000	0.114204	0.072441	0.119427	0.222919	5792.419735	33549.178284	3762.392430	15813.079616
65.536000	0.118839	0.073840	0.124339	0.217271	5861.117346	34048.909932	3784.002666	15981.802338
66.036500	0.120794	0.073973	0.126848	0.207968	5938.222545	34730.806280	3808.802870	16264.533949
66.533500	0.124183	0.075642	0.125316	0.194633	6056.522586	35846.103238	3834.269214	16680.539405
67.033500	0.131248	0.078509	0.131061	0.188050	6156.493177	36568.603754	3861.615662	16890.664172
67.537500	0.134273	0.080832	0.137466	0.200768	6085.168272	35774.709189	3847.514934	16487.563756
68.035000	0.125630	0.082497	0.129399	0.198677	6037.848513	36059.411619	3834.352684	16553.027145
68.535000	0.128284	0.084208	0.136096	0.188357	6132.243805	36987.974833	3872.311697	16880.784704
69.088000	0.133841	0.085664	0.132302	0.181132	6228.050845	37674.167195	3880.148248	17114.952883
69.536000	0.132556	0.087045	0.140075	0.177781	6243.802457	38053.981734	3905.980849	17224.872972
70.039000	0.129385	0.088276	0.134610	0.181260	6193.364234	37873.067819	3885.157851	17110.762649
70.536500	0.135301	0.088770	0.130811	0.175593	6281.710796	38371.254558	3889.471071	17297.094878
71.039500	0.136050	0.089612	0.140116	0.175800	6285.906117	38422.987663	3910.749218	17290.261306
71.537000	0.131309	0.090091	0.136102	0.175256	6253.579698	38506.572138	3902.580734	17308.263243
72.037500	0.136747	0.092323	0.138727	0.180983	6251.367336	38222.039393	3895.336146	17119.827838
72.535000	0.138003	0.093617	0.138201	0.177807	6285.484910	38586.296355	3901.520830	17224.001205
73.035500	0.137179	0.092915	0.140773	0.177435	6281.988175	38559.317786	3908.440094	17236.267937
73.535500	0.136380	0.093330	0.143961	0.178680	6266.226039	38491.418257	3913.031213	17195.297067
74.036000	0.136449	0.094404	0.142350	0.186149	6209.781576	37972.723393	3891.750673	16951.952610
74.535500	0.137841	0.094048	0.141758	0.181810	6253.408992	38294.841442	3900.477693	17092.803162
75.036500	0.137789	0.093503	0.143309	0.182791	6245.509075	38171.086048	3901.811898	17060.846317
75.539500	0.140043	0.094037	0.146504	0.185510	6241.950579	37994.567337	3902.929571	16972.608287
76.037000	0.136693	0.094438	0.139254	0.192758	6161.984087	37447.227430	3869.490463	16740.074533
76.537000	0.140607	0.095362	0.146656	0.189490	6215.968601	37781.316287	3893.990374	16844.449319
77.037500	0.144663	0.095317	0.145427	0.190652	6237.970037	37684.801598	3888.449485	16807.248307
77.535000	0.144681	0.096004	0.149190	0.192321	6225.399094	37606.462967	3893.300050	16753.994705
78.035000	0.142444	0.096265	0.149276	0.198479	6162.209883	37139.821370	3879.294359	16559.265685
78.535500	0.145512	0.096596	0.143165	0.195264	6209.382356	37419.688170	3872.681190	16660.582776
79.035500	0.147341	0.097287	0.146556	0.196703	6212.327346	37360.410058	3877.131896	16615.118221
79.536000	0.147444	0.098962	0.155434	0.199228	6194.055607	37293.280877	3891.760812	16535.766127
80.039500	0.144574	0.098226	0.143857	0.205232	6127.929262	36765.120272	3851.797118	16348.856294
80.537000	0.145824	0.098606	0.151177	0.201240	6166.832785	37106.805807	3877.325517	16472.854059
81.037500	0.147000	0.099309	0.152224	0.202652	6165.061492	37051.076269	3876.489960	16428.851064
81.536500	0.147560	0.098674	0.149919	0.203103	6165.881573	36966.152386	3870.215713	16414.853072
82.035500	0.149252	0.100159	0.154757	0.205592	6159.938873	36887.729581	3875.561622	16337.749175
82.535000	0.148415	0.098479	0.148861	0.205164	6156.890767	36790.100212	3863.161150	16350.952885
83.036000	0.151243	0.101522	0.151705	0.208349	6154.236150	36779.121550	3862.394345	16252.854184
83.535500	0.148634	0.100169	0.155561	0.208562	6133.318093	36657.505430	3870.630824	16246.308306
84.036500	0.150606	0.100525	0.159130	0.210304	6135.017744	36550.233126	3874.789481	16192.981702
84.539000	0.150827	0.099325	0.155226	0.210550	6134.833401	36438.703663	3865.370416	16185.452189
85.037000	0.149362	0.099773	0.163287	0.212427	6110.225373	36328.882146	3879.437560	16128.261638
85.537000	0.152299	0.099589	0.153013	0.213580	6123.337635	36226.463912	3853.600226	16093.254674
86.036500	0.150795	0.099887	0.156990	0.216497	6090.945652	36026.690931	3855.965845	16005.083842
86.534500	0.151850	0.101040	0.156899	0.217814	6089.039474	36014.261771	3852.822680	15965.478092
87.035000	0.153625	0.100634	0.158000	0.218934	6093.814158	35898.458192	3852.779852	15931.890184
87.535000	0.154042	0.101242	0.161062	0.220616	6084.598345	35817.211863	3855.862012	15881.605000
88.035500	0.150541	0.101150	0.157111	0.226470	6017.263025	35370.971914	3834.177551	15708.110407
88.536000	0.154870	0.100571	0.161864	0.223744	6067.909159	35531.418794	3850.675537	15788.625270
89.039000	0.154902	0.101182	0.160059	0.225480	6055.600426	35447.219758	3842.827866	15737.285787
89.539000	0.158195	0.101985	0.160497	0.227835	6062.368544	35331.497607	3838.605346	15667.981105
90.037000	0.153743	0.102443	0.157202	0.233619	5989.296309	34937.510914	3818.869362	15499.393653
90.539500	0.157789	0.101406	0.163493	0.229428	6047.967710	35170.242292	3841.695544	15621.341393
91.038000	0.158807	0.101449	0.164303	0.230780	6045.562111	35073.432930	3840.501614	15581.871669
91.537500	0.159704	0.103738	0.164523	0.233222	6034.484588	35062.118944	3835.622423	15510.885508
92.035000	0.160280	0.103806	0.164877	0.235581	6021.738196	34893.451375	3831.240692	15442.695791
92.535000	0.160280	0.102937	0.170073	0.234182	6031.731253	34932.383576	3845.727233	15483.081802
93.036000	0.159473	0.103223	0.163799	0.235426	6017.092171	34862.052517	3829.229917	15447.156748
93.541500	0.161275	0.104899	0.169295	0.237546	6014.835489	34829.521399	3836.604486	15386.184249
94.036500	0.159387	0.105056	0.163901	0.240777	5978.630359	34605.035100	3817.881000	15293.810160
94.536000	0.160557	0.104562	0.166489	0.238123	6005.629657	34762.542128	3829.215871	15369.624923
95.036500	0.160329	0.104850	0.169192	0.239576	5993.727507	34677.412726	3831.937179	15328.042065
95.534000	0.161720	0.104560	0.172104	0.240118	5999.734685	34616.806944	3837.121622	15312.576623
96.037500	0.162303	0.106037	0.168691	0.244758	5971.148387	34387.477947	3819.621139	15180.933054
96.537500	0.162648	0.105011	0.170873	0.242021	5992.839933	34511.336869	3830.272762	15258.413654
97.035000	0.162797	0.104977	0.161407	0.242344	5991.609366	34485.428193	3809.192590	15249.248778
97.535500	0.160547	0.105228	0.171334	0.243215	5969.653683	34440.565987	3828.678818	15224.558147
