sample name	sample
index	550
start time	 03-15-2021  11:32:30 AM


Wavelength (nm)	Absorbance
494.344910	0.013394
494.563924	0.013394
494.782919	0.013394
495.001897	-0.168873
495.220856	-0.161360
495.439797	-0.243531
495.658719	-0.247542
495.877624	-0.274019
496.096510	-0.251540
496.315378	-0.208290
496.534227	-0.235942
496.753059	-0.211905
496.971872	-0.221107
497.190667	0.055127
497.409444	0.089341
497.628203	0.093520
497.846943	0.100585
498.065665	0.098997
498.284369	0.099707
498.503055	0.100549
498.721723	0.100573
498.940372	0.102459
499.159003	0.103128
499.377616	0.102816
499.596210	0.103476
499.814787	0.102114
500.033345	0.102630
500.251885	0.102108
500.470406	0.100826
500.688910	0.101020
500.907395	0.100007
501.125862	0.099059
501.344311	0.098594
501.562742	0.098593
501.781154	0.098576
501.999548	0.098725
502.217924	0.099605
502.436282	0.101213
502.654621	0.101961
502.872942	0.101632
503.091245	0.102178
503.309530	0.102818
503.527797	0.103056
503.746045	0.102988
503.964275	0.103532
504.182487	0.103935
504.400681	0.104449
504.618856	0.103868
504.837013	0.104091
505.055152	0.104232
505.273273	0.103664
505.491376	0.103674
505.709460	0.102514
505.927526	0.102107
506.145574	0.101357
506.363604	0.099958
506.581615	0.099266
506.799608	0.098776
507.017583	0.099722
507.235540	0.101202
507.453478	0.100861
507.671399	0.102634
507.889301	0.103761
508.107185	0.103728
508.325050	0.104530
508.542898	0.105520
508.760727	0.106211
508.978538	0.104713
509.196330	0.104389
509.414105	0.105526
509.631861	0.105730
509.849599	0.105957
510.067319	0.106621
510.285021	0.106837
510.502704	0.106869
510.720369	0.107297
510.938016	0.108268
511.155645	0.107773
511.373255	0.107089
511.590848	0.107482
511.808422	0.107922
512.025977	0.108352
512.243515	0.108802
512.461034	0.108374
512.678536	0.109283
512.896018	0.109503
513.113483	0.109404
513.330930	0.109479
513.548358	0.109587
513.765768	0.108713
513.983160	0.108873
514.200533	0.109349
514.417889	0.110934
514.635226	0.110540
514.852545	0.111256
515.069845	0.112074
515.287128	0.112147
515.504392	0.112435
515.721638	0.112640
515.938866	0.112825
516.156075	0.113493
516.373267	0.112843
516.590440	0.113217
516.807594	0.114367
517.024731	0.114567
517.241850	0.114554
517.458950	0.114550
517.676032	0.115076
517.893095	0.114557
518.110141	0.113718
518.327168	0.114530
518.544177	0.114543
518.761168	0.113572
518.978141	0.113773
519.195095	0.114201
519.412031	0.113631
519.628949	0.114207
519.845849	0.114766
520.062731	0.114759
520.279594	0.114650
520.496439	0.114719
520.713266	0.114850
520.930074	0.115212
521.146865	0.115754
521.363637	0.116090
521.580391	0.115655
521.797127	0.116042
522.013844	0.116807
522.230543	0.117050
522.447224	0.117407
522.663887	0.117959
522.880532	0.118904
523.097158	0.119634
523.313766	0.120479
523.530356	0.120725
523.746928	0.120389
523.963481	0.120764
524.180017	0.120984
524.396534	0.121334
524.613032	0.121201
524.829513	0.120541
525.045975	0.120476
525.262420	0.120861
525.478845	0.121490
525.695253	0.121993
525.911643	0.122002
526.128014	0.121467
526.344367	0.121570
526.560702	0.122002
526.777018	0.122888
526.993316	0.123174
527.209597	0.122534
527.425858	0.122513
527.642102	0.122471
527.858328	0.122943
528.074535	0.123927
528.290724	0.124425
528.506894	0.124250
528.723047	0.124171
528.939181	0.124200
529.155297	0.124859
529.371395	0.124789
529.587475	0.125402
529.803536	0.125865
530.019579	0.126560
530.235604	0.126660
530.451611	0.127682
530.667600	0.128441
530.883570	0.128840
531.099522	0.129294
531.315456	0.129831
531.531372	0.129927
531.747269	0.129824
531.963148	0.129969
532.179009	0.130329
532.394852	0.129982
532.610676	0.130352
532.826482	0.130648
533.042271	0.130811
533.258040	0.131201
533.473792	0.131858
533.689525	0.132569
533.905240	0.132699
534.120937	0.132962
534.336616	0.133816
534.552277	0.133600
534.767919	0.134273
534.983543	0.134710
535.199149	0.135382
535.414736	0.135288
535.630306	0.135870
535.845857	0.136143
536.061390	0.135808
536.276904	0.135576
536.492401	0.135369
536.707879	0.135892
536.923339	0.136229
537.138781	0.136195
537.354204	0.136960
537.569610	0.136885
537.784997	0.137104
538.000366	0.138189
538.215716	0.138954
538.431049	0.139967
538.646363	0.140064
538.861659	0.140667
539.076937	0.140656
539.292196	0.140634
539.507438	0.140775
539.722661	0.141108
539.937866	0.141532
540.153052	0.141262
540.368221	0.141462
540.583371	0.141518
540.798503	0.141774
541.013617	0.142742
541.228712	0.143485
541.443789	0.143659
541.658848	0.144104
541.873889	0.144297
542.088912	0.144596
542.303916	0.144578
542.518902	0.144604
542.733870	0.144481
542.948820	0.144667
543.163752	0.144638
543.378665	0.144875
543.593560	0.145114
543.808437	0.144883
544.023295	0.145537
544.238136	0.146048
544.452958	0.146255
544.667762	0.146886
544.882548	0.146748
545.097315	0.146491
545.312064	0.147399
545.526795	0.147907
545.741508	0.147966
545.956203	0.148142
546.170879	0.148023
546.385537	0.148090
546.600177	0.148374
546.814799	0.148277
547.029402	0.149276
547.243988	0.148754
547.458555	0.148828
547.673103	0.149272
547.887634	0.149482
548.102146	0.150046
548.316640	0.150628
548.531116	0.150676
548.745574	0.151632
548.960013	0.151485
549.174435	0.151921
549.388838	0.151607
549.603222	0.152012
549.817589	0.152610
550.031937	0.152604
550.246267	0.152871
550.460579	0.152648
550.674873	0.152618
550.889148	0.153087
551.103405	0.153792
551.317644	0.154493
551.531865	0.154419
551.746068	0.154175
551.960252	0.154763
552.174418	0.154671
552.388566	0.154867
552.602696	0.154716
552.816807	0.154841
553.030900	0.154761
553.244975	0.155117
553.459032	0.155495
553.673070	0.155698
553.887091	0.155762
554.101093	0.156367
554.315077	0.156728
554.529042	0.157306
554.742990	0.157015
554.956919	0.156887
555.170830	0.156504
555.384722	0.157027
555.598597	0.157507
555.812453	0.157528
556.026291	0.157453
556.240111	0.157591
556.453913	0.157869
556.667696	0.158168
556.881461	0.158279
557.095208	0.159011
557.308937	0.158992
557.522647	0.158763
557.736339	0.158526
557.950013	0.158517
558.163669	0.158721
558.377307	0.158388
558.590926	0.158528
558.804527	0.158856
559.018110	0.158930
559.231675	0.159284
559.445221	0.159565
559.658749	0.160350
559.872259	0.160277
560.085751	0.160349
560.299225	0.160498
560.512680	0.160943
560.726117	0.160913
560.939536	0.160878
561.152937	0.160659
561.366319	0.160625
561.579683	0.160562
561.793029	0.161165
562.006357	0.161451
562.219667	0.161896
562.432958	0.161765
562.646231	0.161819
562.859486	0.161555
563.072723	0.161734
563.285941	0.162114
563.499141	0.161890
563.712323	0.162093
563.925487	0.162316
564.138632	0.162629
564.351760	0.162725
564.564869	0.163148
564.777960	0.164050
564.991032	0.164127
565.204087	0.164036
565.417123	0.164694
565.630141	0.164631
565.843140	0.164745
566.056122	0.164335
566.269085	0.164874
566.482030	0.165256
566.694957	0.165151
566.907866	0.165499
567.120756	0.165816
567.333628	0.165534
567.546482	0.165903
567.759318	0.165897
567.972135	0.166163
568.184935	0.166062
568.397716	0.165803
568.610478	0.165750
568.823223	0.165708
569.035949	0.165637
569.248657	0.165658
569.461347	0.165373
569.674019	0.165679
569.886672	0.165679
570.099308	0.165852
570.311925	0.165973
570.524523	0.166187
570.737104	0.165914
570.949666	0.166189
571.162210	0.166609
571.374736	0.167002
571.587244	0.167067
571.799733	0.167262
572.012205	0.167566
572.224658	0.167511
572.437092	0.167411
572.649509	0.168150
572.861907	0.168222
573.074287	0.168410
573.286649	0.168574
573.498993	0.168668
573.711318	0.168714
573.923625	0.168557
574.135914	0.168634
574.348185	0.169020
574.560438	0.168561
574.772672	0.168718
574.984888	0.168756
575.197086	0.168613
575.409266	0.168751
575.621427	0.169148
575.833570	0.169579
576.045695	0.169999
576.257802	0.169840
576.469890	0.170424
576.681961	0.170874
576.894013	0.171230
577.106046	0.171542
577.318062	0.171749
577.530059	0.172129
577.742039	0.172363
577.954000	0.172445
578.165942	0.172940
578.377867	0.173136
578.589773	0.172719
578.801661	0.172560
579.013531	0.172592
579.225382	0.172934
579.437216	0.172675
579.649031	0.172569
579.860828	0.172401
580.072606	0.172184
580.284367	0.172016
580.496109	0.172480
580.707833	0.172944
580.919539	0.173370
581.131227	0.173018
581.342896	0.173344
581.554547	0.173818
581.766180	0.174401
581.977795	0.174823
582.189391	0.175148
582.400969	0.175142
582.612529	0.175254
582.824071	0.175167
583.035595	0.175581
583.247100	0.176176
583.458587	0.176005
583.670056	0.176022
583.881506	0.176107
584.092939	0.176265
584.304353	0.176546
584.515749	0.176427
584.727127	0.176624
584.938486	0.176595
585.149828	0.176155
585.361151	0.176178
585.572456	0.176689
585.783742	0.176778
585.995011	0.177157
586.206261	0.177292
586.417493	0.177438
586.628706	0.177390
586.839902	0.177528
587.051079	0.177806
587.262238	0.177813
587.473379	0.177503
587.684502	0.177714
587.895606	0.177656
588.106692	0.178088
588.317760	0.178302
588.528810	0.178736
588.739841	0.178763
588.950855	0.179054
589.161850	0.179321
589.372827	0.179294
589.583785	0.179567
589.794726	0.179363
590.005648	0.179244
590.216552	0.179445
590.427437	0.179474
590.638305	0.179781
590.849154	0.179705
591.059985	0.180324
591.270798	0.180662
591.481592	0.180800
591.692369	0.181021
591.903127	0.180890
592.113867	0.180827
592.324588	0.181002
592.535292	0.181076
592.745977	0.181098
592.956644	0.180644
593.167293	0.180778
593.377923	0.180960
593.588536	0.180907
593.799130	0.181411
594.009706	0.182103
594.220263	0.181894
594.430803	0.181997
594.641324	0.182642
594.851827	0.183301
595.062312	0.183214
595.272778	0.183213
595.483227	0.183960
595.693657	0.183877
595.904069	0.183535
596.114462	0.183927
596.324838	0.184224
596.535195	0.184139
596.745534	0.184287
596.955855	0.184529
597.166157	0.184400
597.376441	0.184297
597.586707	0.184327
597.796955	0.184464
598.007185	0.184910
598.217396	0.185246
598.427589	0.185246
598.637764	0.184921
598.847921	0.185369
599.058060	0.185904
599.268180	0.186079
599.478282	0.186288
599.688366	0.186206
599.898431	0.186147
600.108479	0.186414
600.318508	0.186659
600.528519	0.187029
600.738511	0.187142
600.948486	0.187113
601.158442	0.186868
601.368380	0.187018
601.578300	0.187459
601.788202	0.187738
601.998085	0.187735
602.207950	0.187768
602.417797	0.187984
602.627626	0.187879
602.837436	0.188236
603.047228	0.188842
603.257002	0.188879
603.466758	0.189097
603.676496	0.189376
603.886215	0.189156
604.095916	0.189672
604.305599	0.189568
604.515264	0.189788
604.724910	0.189669
604.934538	0.189844
605.144148	0.189850
605.353740	0.189922
605.563314	0.189821
605.772869	0.190093
605.982406	0.189990
606.191925	0.189579
606.401425	0.189721
606.610908	0.189865
606.820372	0.189779
607.029818	0.190077
607.239246	0.190250
607.448655	0.190138
607.658047	0.190131
607.867420	0.190184
608.076775	0.190748
608.286111	0.191061
608.495430	0.191141
608.704730	0.191586
608.914012	0.191810
609.123275	0.191886
609.332521	0.192465
609.541748	0.192507
609.750957	0.192803
609.960148	0.193292
610.169321	0.193244
610.378475	0.193502
610.587611	0.193397
610.796729	0.193411
611.005829	0.193500
611.214910	0.193371
611.423974	0.193670
611.633019	0.193541
611.842045	0.193664
612.051054	0.193765
612.260044	0.193808
612.469017	0.193828
612.677970	0.193962
612.886906	0.194176
613.095824	0.194226
613.304723	0.194466
613.513604	0.194734
613.722467	0.194701
613.931311	0.194562
614.140138	0.194685
614.348946	0.194930
614.557736	0.195140
614.766507	0.195260
614.975261	0.195488
615.183996	0.195671
615.392713	0.195813
615.601412	0.196126
615.810092	0.196252
616.018754	0.196499
616.227399	0.196852
616.436024	0.197129
616.644632	0.196929
616.853222	0.196868
617.061793	0.196712
617.270346	0.196800
617.478880	0.196462
617.687397	0.196898
617.895895	0.196839
618.104375	0.196613
618.312837	0.196196
618.521281	0.196270
618.729706	0.196391
618.938113	0.196541
619.146502	0.196275
619.354873	0.196493
619.563226	0.196658
619.771560	0.196699
619.979876	0.196767
620.188174	0.197219
620.396453	0.197423
620.604715	0.197741
620.812958	0.198011
621.021183	0.198443
621.229390	0.198545
621.437578	0.198789
621.645748	0.198697
621.853900	0.198963
622.062034	0.198823
622.270150	0.198999
622.478247	0.198986
622.686326	0.199093
622.894387	0.199172
623.102430	0.199287
623.310454	0.199132
623.518461	0.199667
623.726449	0.199770
623.934418	0.200272
624.142370	0.200611
624.350303	0.200570
624.558218	0.200703
624.766115	0.200870
624.973994	0.201258
625.181855	0.201248
625.389697	0.201604
625.597521	0.201762
625.805327	0.201938
626.013114	0.201893
626.220883	0.202145
626.428634	0.202391
626.636367	0.202480
626.844082	0.202518
627.051778	0.203136
627.259457	0.203080
627.467117	0.203214
627.674758	0.203389
627.882382	0.203428
628.089987	0.203444
628.297574	0.203406
628.505143	0.203667
628.712694	0.203671
628.920226	0.203726
629.127740	0.203780
629.335236	0.203888
629.542714	0.203907
629.750174	0.204091
629.957615	0.204309
630.165038	0.204306
630.372443	0.204140
630.579829	0.204392
630.787198	0.204626
630.994548	0.204803
631.201880	0.205028
631.409194	0.205139
631.616489	0.205455
631.823766	0.205569
632.031025	0.205847
632.238266	0.206352
632.445489	0.206709
632.652693	0.206650
632.859879	0.206990
633.067047	0.207051
633.274197	0.207027
633.481329	0.207197
633.688442	0.207297
633.895537	0.207726
634.102614	0.207715
634.309672	0.207502
634.516713	0.207490
634.723735	0.207485
634.930739	0.207532
635.137724	0.207728
635.344692	0.207920
635.551641	0.208118
635.758572	0.207988
635.965485	0.208156
636.172379	0.208461
636.379256	0.208749
636.586114	0.208555
636.792954	0.208861
636.999775	0.209210
637.206579	0.209452
637.413364	0.209766
637.620131	0.209804
637.826880	0.209966
638.033610	0.210159
638.240323	0.210332
638.447017	0.210614
638.653692	0.210825
638.860350	0.210929
639.066990	0.211059
639.273611	0.211198
639.480214	0.211547
639.686798	0.211604
639.893365	0.211565
640.099913	0.211686
640.306443	0.211946
640.512955	0.212133
640.719449	0.212240
640.925924	0.212402
641.132381	0.212688
641.338820	0.212686
641.545241	0.212946
641.751644	0.213413
641.958028	0.213445
642.164394	0.213614
642.370742	0.213519
642.577071	0.213586
642.783383	0.213827
642.989676	0.213957
643.195951	0.214011
643.402207	0.214155
643.608446	0.214382
643.814666	0.214475
644.020868	0.214742
644.227052	0.215172
644.433218	0.215453
644.639365	0.215516
644.845494	0.215535
645.051605	0.215687
645.257698	0.215922
645.463772	0.215861
645.669828	0.216292
645.875866	0.216310
646.081886	0.216228
646.287888	0.216487
646.493871	0.216570
646.699836	0.216759
646.905783	0.217010
647.111712	0.217126
647.317622	0.217315
647.523514	0.217351
647.729388	0.217533
647.935244	0.217805
648.141082	0.218058
648.346901	0.218273
648.552702	0.218145
648.758485	0.218587
648.964250	0.218612
649.169996	0.218804
649.375724	0.219298
649.581434	0.219520
649.787126	0.219531
649.992800	0.219708
650.198455	0.219552
650.404092	0.219966
650.609711	0.219678
650.815311	0.219904
651.020894	0.220132
651.226458	0.220083
651.432004	0.220080
651.637532	0.220300
651.843041	0.220227
652.048532	0.220840
652.254006	0.221016
652.459460	0.221688
652.664897	0.222005
652.870315	0.222174
653.075716	0.222258
653.281097	0.222713
653.486461	0.222728
653.691807	0.223083
653.897134	0.222880
654.102443	0.223354
654.307734	0.223415
654.513006	0.223587
654.718261	0.223587
654.923497	0.223819
655.128715	0.223940
655.333915	0.224334
655.539096	0.224183
655.744259	0.224504
655.949404	0.224504
656.154531	0.224597
656.359640	0.224441
656.564730	0.224900
656.769802	0.225004
656.974856	0.225094
657.179892	0.225066
657.384909	0.225487
657.589908	0.225583
657.794889	0.225523
657.999852	0.225467
658.204797	0.225772
658.409723	0.225696
658.614631	0.225714
658.819521	0.225798
659.024393	0.226262
659.229246	0.226466
659.434081	0.226831
659.638898	0.227080
659.843697	0.227305
660.048478	0.227527
660.253240	0.227487
660.457984	0.227807
660.662710	0.227874
660.867417	0.228016
661.072107	0.228078
661.276778	0.228102
661.481431	0.228333
661.686066	0.228563
661.890682	0.228850
662.095281	0.229302
662.299861	0.229508
662.504422	0.229833
662.708966	0.229980
662.913491	0.230150
663.117999	0.230440
663.322488	0.230555
663.526958	0.230814
663.731411	0.231127
663.935845	0.231083
664.140261	0.231325
664.344659	0.231578
664.549038	0.231723
664.753400	0.232067
664.957743	0.232231
665.162068	0.232597
665.366375	0.233014
665.570663	0.233001
665.774933	0.233565
665.979185	0.233797
666.183419	0.234053
666.387635	0.234211
666.591832	0.234385
666.796011	0.234573
667.000172	0.234612
667.204315	0.234811
667.408439	0.234965
667.612545	0.235276
667.816634	0.235452
668.020703	0.235504
668.224755	0.235718
668.428788	0.235605
668.632803	0.235792
668.836800	0.236232
669.040779	0.236243
669.244739	0.236397
669.448681	0.236500
669.652605	0.236677
669.856511	0.236786
670.060399	0.237150
670.264268	0.237537
670.468119	0.237654
670.671952	0.237700
670.875767	0.237828
671.079563	0.238064
671.283341	0.238051
671.487101	0.238321
671.690843	0.238867
671.894567	0.239046
672.098272	0.239059
672.301959	0.239114
672.505628	0.239358
672.709278	0.239546
672.912911	0.239722
673.116525	0.240039
673.320121	0.240084
673.523699	0.240027
673.727258	0.240103
673.930799	0.240506
674.134322	0.240849
674.337827	0.240951
674.541314	0.241188
674.744782	0.241617
674.948232	0.241568
675.151664	0.241827
675.355078	0.242011
675.558474	0.242273
675.761851	0.242355
675.965210	0.242472
676.168551	0.242553
676.371873	0.242672
676.575178	0.242519
676.778464	0.242728
676.981732	0.242616
677.184981	0.243124
677.388213	0.243058
677.591426	0.243176
677.794621	0.243510
677.997798	0.243769
678.200956	0.243925
678.404097	0.244441
678.607219	0.244863
678.810323	0.245330
679.013408	0.245217
679.216476	0.245548
679.419525	0.245591
679.622556	0.245553
679.825569	0.245770
680.028563	0.246068
680.231540	0.245766
680.434498	0.245746
680.637438	0.245828
680.840359	0.245805
681.043263	0.245917
681.246148	0.246386
681.449015	0.246516
681.651864	0.246553
681.854694	0.246589
682.057506	0.246940
682.260301	0.247113
682.463076	0.247191
682.665834	0.247294
682.868573	0.247607
683.071295	0.247797
683.273998	0.248101
683.476682	0.248427
683.679349	0.248635
683.881997	0.248981
684.084627	0.249411
684.287239	0.249859
684.489833	0.250506
684.692408	0.250679
684.894965	0.250780
685.097504	0.251034
685.300025	0.251229
685.502527	0.251619
685.705012	0.251712
685.907478	0.251544
686.109925	0.251727
686.312355	0.251802
686.514766	0.251856
686.717159	0.252352
686.919534	0.252460
687.121891	0.252593
687.324230	0.252801
687.526550	0.253216
687.728852	0.253532
687.931136	0.253491
688.133401	0.253530
688.335649	0.253732
688.537878	0.253325
688.740089	0.253619
688.942281	0.253673
689.144456	0.253813
689.346612	0.253881
689.548750	0.254145
689.750870	0.254454
689.952971	0.254599
690.155055	0.254806
690.357120	0.255174
690.559167	0.255201
690.761195	0.255540
690.963206	0.255478
691.165198	0.255462
691.367172	0.255505
691.569128	0.255521
691.771065	0.255565
691.972984	0.255458
692.174885	0.255687
692.376768	0.255691
692.578633	0.255624
692.780479	0.255925
692.982308	0.255934
693.184118	0.256009
693.385909	0.256195
