sample name	sample
index	1185
start time	 04-26-2021  11:56:31 AM


Wavelength (nm)	Absorbance
494.344910	-0.243083
494.563924	-0.243083
494.782919	-0.243083
495.001897	-0.260541
495.220856	0.151547
495.439797	0.142652
495.658719	0.143251
495.877624	0.050429
496.096510	0.180512
496.315378	0.521921
496.534227	0.261999
496.753059	0.205915
496.971872	-0.006416
497.190667	0.109230
497.409444	0.130417
497.628203	0.136381
497.846943	0.137930
498.065665	0.139226
498.284369	0.138163
498.503055	0.138730
498.721723	0.138510
498.940372	0.138667
499.159003	0.137907
499.377616	0.136927
499.596210	0.133274
499.814787	0.132043
500.033345	0.130005
500.251885	0.129478
500.470406	0.129604
500.688910	0.129274
500.907395	0.128583
501.125862	0.129234
501.344311	0.128881
501.562742	0.130982
501.781154	0.131727
501.999548	0.132452
502.217924	0.131989
502.436282	0.131236
502.654621	0.131141
502.872942	0.131956
503.091245	0.132927
503.309530	0.133206
503.527797	0.133033
503.746045	0.132697
503.964275	0.133220
504.182487	0.133881
504.400681	0.133518
504.618856	0.133555
504.837013	0.133400
505.055152	0.132486
505.273273	0.132395
505.491376	0.132356
505.709460	0.133271
505.927526	0.132957
506.145574	0.133363
506.363604	0.133264
506.581615	0.133264
506.799608	0.133124
507.017583	0.133120
507.235540	0.133912
507.453478	0.134203
507.671399	0.133757
507.889301	0.134093
508.107185	0.132906
508.325050	0.134026
508.542898	0.135015
508.760727	0.134486
508.978538	0.134684
509.196330	0.134147
509.414105	0.134146
509.631861	0.134530
509.849599	0.134723
510.067319	0.135311
510.285021	0.135412
510.502704	0.134793
510.720369	0.136307
510.938016	0.135991
511.155645	0.135979
511.373255	0.137318
511.590848	0.137742
511.808422	0.137517
512.025977	0.137953
512.243515	0.137933
512.461034	0.138026
512.678536	0.137169
512.896018	0.137745
513.113483	0.137337
513.330930	0.136234
513.548358	0.135963
513.765768	0.135907
513.983160	0.135648
514.200533	0.134637
514.417889	0.135426
514.635226	0.135388
514.852545	0.135048
515.069845	0.136280
515.287128	0.137598
515.504392	0.137784
515.721638	0.138030
515.938866	0.138155
516.156075	0.138821
516.373267	0.138676
516.590440	0.138845
516.807594	0.139492
517.024731	0.139329
517.241850	0.138540
517.458950	0.137966
517.676032	0.138537
517.893095	0.139175
518.110141	0.139392
518.327168	0.138928
518.544177	0.139097
518.761168	0.139224
518.978141	0.139619
519.195095	0.140164
519.412031	0.141603
519.628949	0.140905
519.845849	0.140778
520.062731	0.141114
520.279594	0.141248
520.496439	0.141307
520.713266	0.141587
520.930074	0.141440
521.146865	0.141186
521.363637	0.140783
521.580391	0.140458
521.797127	0.140871
522.013844	0.140612
522.230543	0.141118
522.447224	0.141795
522.663887	0.142039
522.880532	0.142779
523.097158	0.143295
523.313766	0.143020
523.530356	0.143348
523.746928	0.143226
523.963481	0.144080
524.180017	0.144033
524.396534	0.144016
524.613032	0.143862
524.829513	0.143703
525.045975	0.142836
525.262420	0.144444
525.478845	0.144273
525.695253	0.145060
525.911643	0.144649
526.128014	0.145470
526.344367	0.145519
526.560702	0.145735
526.777018	0.146522
526.993316	0.147635
527.209597	0.146147
527.425858	0.146965
527.642102	0.147240
527.858328	0.147460
528.074535	0.147024
528.290724	0.146818
528.506894	0.147074
528.723047	0.146403
528.939181	0.145882
529.155297	0.146763
529.371395	0.147360
529.587475	0.146679
529.803536	0.147203
530.019579	0.147107
530.235604	0.147227
530.451611	0.146923
530.667600	0.147050
530.883570	0.147648
531.099522	0.147981
531.315456	0.148531
531.531372	0.148827
531.747269	0.149278
531.963148	0.150074
532.179009	0.150345
532.394852	0.151014
532.610676	0.151254
532.826482	0.151015
533.042271	0.151254
533.258040	0.151389
533.473792	0.151903
533.689525	0.151538
533.905240	0.152146
534.120937	0.152709
534.336616	0.152714
534.552277	0.153174
534.767919	0.153456
534.983543	0.153276
535.199149	0.152645
535.414736	0.152401
535.630306	0.152661
535.845857	0.152452
536.061390	0.152822
536.276904	0.153414
536.492401	0.153752
536.707879	0.154043
536.923339	0.154060
537.138781	0.154383
537.354204	0.154554
537.569610	0.155120
537.784997	0.155303
538.000366	0.155142
538.215716	0.155317
538.431049	0.155249
538.646363	0.155503
538.861659	0.155435
539.076937	0.155612
539.292196	0.155924
539.507438	0.155541
539.722661	0.155216
539.937866	0.155173
540.153052	0.155412
540.368221	0.155806
540.583371	0.155751
540.798503	0.156283
541.013617	0.156618
541.228712	0.156644
541.443789	0.156709
541.658848	0.156915
541.873889	0.157093
542.088912	0.157117
542.303916	0.156972
542.518902	0.157942
542.733870	0.157921
542.948820	0.158592
543.163752	0.158977
543.378665	0.159788
543.593560	0.159959
543.808437	0.160338
544.023295	0.160654
544.238136	0.160519
544.452958	0.160165
544.667762	0.160916
544.882548	0.160502
545.097315	0.160473
545.312064	0.159806
545.526795	0.160135
545.741508	0.160194
545.956203	0.159980
546.170879	0.160517
546.385537	0.160542
546.600177	0.159752
546.814799	0.160097
547.029402	0.160176
547.243988	0.160900
547.458555	0.160890
547.673103	0.160780
547.887634	0.160746
548.102146	0.160928
548.316640	0.161010
548.531116	0.161441
548.745574	0.161418
548.960013	0.161860
549.174435	0.161917
549.388838	0.162616
549.603222	0.162729
549.817589	0.162981
550.031937	0.163163
550.246267	0.163186
550.460579	0.163766
550.674873	0.164162
550.889148	0.164313
551.103405	0.164439
551.317644	0.164219
551.531865	0.165073
551.746068	0.165440
551.960252	0.165087
552.174418	0.165407
552.388566	0.165268
552.602696	0.165228
552.816807	0.165467
553.030900	0.165749
553.244975	0.165964
553.459032	0.166303
553.673070	0.166464
553.887091	0.166964
554.101093	0.167188
554.315077	0.167835
554.529042	0.167600
554.742990	0.167325
554.956919	0.167473
555.170830	0.167634
555.384722	0.167719
555.598597	0.167661
555.812453	0.167552
556.026291	0.167909
556.240111	0.167834
556.453913	0.168471
556.667696	0.169074
556.881461	0.169109
557.095208	0.169508
557.308937	0.169290
557.522647	0.169966
557.736339	0.170535
557.950013	0.170676
558.163669	0.171121
558.377307	0.171415
558.590926	0.171733
558.804527	0.172173
559.018110	0.171794
559.231675	0.171995
559.445221	0.171514
559.658749	0.171554
559.872259	0.171755
560.085751	0.171491
560.299225	0.171471
560.512680	0.171193
560.726117	0.170693
560.939536	0.171129
561.152937	0.171085
561.366319	0.171811
561.579683	0.172355
561.793029	0.172274
562.006357	0.172497
562.219667	0.172520
562.432958	0.172981
562.646231	0.173831
562.859486	0.173764
563.072723	0.173923
563.285941	0.173822
563.499141	0.173812
563.712323	0.173944
563.925487	0.174304
564.138632	0.174290
564.351760	0.174533
564.564869	0.174533
564.777960	0.175032
564.991032	0.174900
565.204087	0.174767
565.417123	0.174446
565.630141	0.174847
565.843140	0.174475
566.056122	0.174793
566.269085	0.174864
566.482030	0.174651
566.694957	0.174540
566.907866	0.174833
567.120756	0.174753
567.333628	0.175132
567.546482	0.174859
567.759318	0.175085
567.972135	0.175248
568.184935	0.175628
568.397716	0.176127
568.610478	0.176521
568.823223	0.176663
569.035949	0.177398
569.248657	0.177438
569.461347	0.177758
569.674019	0.177729
569.886672	0.177862
570.099308	0.177315
570.311925	0.176827
570.524523	0.176745
570.737104	0.176924
570.949666	0.176527
571.162210	0.176691
571.374736	0.177004
571.587244	0.177461
571.799733	0.177598
572.012205	0.178176
572.224658	0.178437
572.437092	0.178423
572.649509	0.178547
572.861907	0.178706
573.074287	0.179020
573.286649	0.178839
573.498993	0.178616
573.711318	0.178745
573.923625	0.178749
574.135914	0.179348
574.348185	0.179947
574.560438	0.180193
574.772672	0.180945
574.984888	0.180741
575.197086	0.181065
575.409266	0.181271
575.621427	0.181487
575.833570	0.181096
576.045695	0.180693
576.257802	0.180519
576.469890	0.180514
576.681961	0.180119
576.894013	0.180332
577.106046	0.180322
577.318062	0.180756
577.530059	0.180990
577.742039	0.181409
577.954000	0.182036
578.165942	0.182532
578.377867	0.183034
578.589773	0.183268
578.801661	0.183615
579.013531	0.183930
579.225382	0.183763
579.437216	0.184037
579.649031	0.184232
579.860828	0.184331
580.072606	0.184036
580.284367	0.184276
580.496109	0.184468
580.707833	0.184174
580.919539	0.184095
581.131227	0.184560
581.342896	0.184521
581.554547	0.184489
581.766180	0.184497
581.977795	0.184365
582.189391	0.184364
582.400969	0.184264
582.612529	0.184721
582.824071	0.184779
583.035595	0.185143
583.247100	0.185017
583.458587	0.185854
583.670056	0.185950
583.881506	0.186531
584.092939	0.186223
584.304353	0.186487
584.515749	0.186787
584.727127	0.187452
584.938486	0.187366
585.149828	0.187938
585.361151	0.187612
585.572456	0.187689
585.783742	0.187926
585.995011	0.188244
586.206261	0.188370
586.417493	0.188387
586.628706	0.188074
586.839902	0.188453
587.051079	0.188664
587.262238	0.188824
587.473379	0.189276
587.684502	0.189339
587.895606	0.189592
588.106692	0.190227
588.317760	0.190392
588.528810	0.190632
588.739841	0.190149
588.950855	0.189669
589.161850	0.189611
589.372827	0.189388
589.583785	0.189432
589.794726	0.189479
590.005648	0.189140
590.216552	0.189107
590.427437	0.189410
590.638305	0.190271
590.849154	0.190743
591.059985	0.191309
591.270798	0.191696
591.481592	0.192114
591.692369	0.192792
591.903127	0.193267
592.113867	0.193490
592.324588	0.193520
592.535292	0.193522
592.745977	0.193711
592.956644	0.193699
593.167293	0.193897
593.377923	0.193806
593.588536	0.193837
593.799130	0.193932
594.009706	0.194405
594.220263	0.194603
594.430803	0.194790
594.641324	0.194825
594.851827	0.195142
595.062312	0.195498
595.272778	0.195628
595.483227	0.195532
595.693657	0.195725
595.904069	0.195695
596.114462	0.196100
596.324838	0.195822
596.535195	0.196079
596.745534	0.196143
596.955855	0.196138
597.166157	0.196081
597.376441	0.196117
597.586707	0.195987
597.796955	0.195923
598.007185	0.195645
598.217396	0.195734
598.427589	0.196048
598.637764	0.196126
598.847921	0.195989
599.058060	0.196305
599.268180	0.196640
599.478282	0.196892
599.688366	0.197375
599.898431	0.197628
600.108479	0.198097
600.318508	0.198188
600.528519	0.198548
600.738511	0.198704
600.948486	0.199050
601.158442	0.199162
601.368380	0.199175
601.578300	0.199313
601.788202	0.199701
601.998085	0.199814
602.207950	0.199705
602.417797	0.199879
602.627626	0.200628
602.837436	0.200645
603.047228	0.200800
603.257002	0.201079
603.466758	0.201267
603.676496	0.201252
603.886215	0.201228
604.095916	0.201368
604.305599	0.200886
604.515264	0.200624
604.724910	0.200555
604.934538	0.200500
605.144148	0.200867
605.353740	0.200659
605.563314	0.200972
605.772869	0.200560
605.982406	0.200701
606.191925	0.201129
606.401425	0.201357
606.610908	0.201519
606.820372	0.201708
607.029818	0.201497
607.239246	0.201845
607.448655	0.201237
607.658047	0.201895
607.867420	0.201919
608.076775	0.201859
608.286111	0.201797
608.495430	0.201852
608.704730	0.202036
608.914012	0.202358
609.123275	0.202472
609.332521	0.203006
609.541748	0.202741
609.750957	0.202570
609.960148	0.203000
610.169321	0.202995
610.378475	0.203237
610.587611	0.203260
610.796729	0.203179
611.005829	0.202901
611.214910	0.202953
611.423974	0.203422
611.633019	0.203890
611.842045	0.204048
612.051054	0.204310
612.260044	0.204314
612.469017	0.204668
612.677970	0.204884
612.886906	0.205056
613.095824	0.205397
613.304723	0.205512
613.513604	0.205647
613.722467	0.205652
613.931311	0.205801
614.140138	0.206006
614.348946	0.205825
614.557736	0.205986
614.766507	0.206092
614.975261	0.206202
615.183996	0.206414
615.392713	0.206520
615.601412	0.206410
615.810092	0.206341
616.018754	0.206350
616.227399	0.206655
616.436024	0.206721
616.644632	0.206750
616.853222	0.206572
617.061793	0.206549
617.270346	0.206644
617.478880	0.207032
617.687397	0.207278
617.895895	0.207363
618.104375	0.207166
618.312837	0.207285
618.521281	0.207637
618.729706	0.207842
618.938113	0.207642
619.146502	0.207663
619.354873	0.207670
619.563226	0.207789
619.771560	0.208036
619.979876	0.208173
620.188174	0.208149
620.396453	0.208208
620.604715	0.208284
620.812958	0.208760
621.021183	0.208928
621.229390	0.208895
621.437578	0.208924
621.645748	0.208941
621.853900	0.209199
622.062034	0.209348
622.270150	0.209462
622.478247	0.209698
622.686326	0.209663
622.894387	0.209671
623.102430	0.210045
623.310454	0.210207
623.518461	0.210472
623.726449	0.210644
623.934418	0.210925
624.142370	0.211041
624.350303	0.211283
624.558218	0.211696
624.766115	0.212110
624.973994	0.212189
625.181855	0.212234
625.389697	0.212459
625.597521	0.212624
625.805327	0.212874
626.013114	0.213007
626.220883	0.213232
626.428634	0.213279
626.636367	0.213069
626.844082	0.213001
627.051778	0.213029
627.259457	0.212970
627.467117	0.213148
627.674758	0.212834
627.882382	0.212812
628.089987	0.212750
628.297574	0.212823
628.505143	0.213028
628.712694	0.213250
628.920226	0.213417
629.127740	0.213694
629.335236	0.213664
629.542714	0.213819
629.750174	0.213894
629.957615	0.213936
630.165038	0.214005
630.372443	0.214304
630.579829	0.214413
630.787198	0.214855
630.994548	0.214798
631.201880	0.214869
631.409194	0.215206
631.616489	0.215711
631.823766	0.216007
632.031025	0.216145
632.238266	0.216276
632.445489	0.216464
632.652693	0.216234
632.859879	0.216431
633.067047	0.216699
633.274197	0.216984
633.481329	0.217044
633.688442	0.217037
633.895537	0.217077
634.102614	0.217244
634.309672	0.217314
634.516713	0.217663
634.723735	0.217762
634.930739	0.217707
635.137724	0.217660
635.344692	0.217769
635.551641	0.217900
635.758572	0.218405
635.965485	0.218418
636.172379	0.218506
636.379256	0.218544
636.586114	0.218681
636.792954	0.218987
636.999775	0.219285
637.206579	0.219312
637.413364	0.219377
637.620131	0.219424
637.826880	0.219496
638.033610	0.219465
638.240323	0.219544
638.447017	0.219473
638.653692	0.219600
638.860350	0.219416
639.066990	0.219601
639.273611	0.220062
639.480214	0.220301
639.686798	0.220322
639.893365	0.220749
640.099913	0.221048
640.306443	0.221443
640.512955	0.221664
640.719449	0.222027
640.925924	0.222114
641.132381	0.222010
641.338820	0.221780
641.545241	0.222227
641.751644	0.222375
641.958028	0.222669
642.164394	0.222982
642.370742	0.222933
642.577071	0.222969
642.783383	0.223534
642.989676	0.223806
643.195951	0.224184
643.402207	0.224266
643.608446	0.224430
643.814666	0.224506
644.020868	0.224807
644.227052	0.225092
644.433218	0.225194
644.639365	0.225089
644.845494	0.225357
645.051605	0.225371
645.257698	0.225698
645.463772	0.225894
645.669828	0.226034
645.875866	0.225725
646.081886	0.226007
646.287888	0.226300
646.493871	0.226491
646.699836	0.226482
646.905783	0.226754
647.111712	0.226647
647.317622	0.226679
647.523514	0.226787
647.729388	0.227043
647.935244	0.227004
648.141082	0.227260
648.346901	0.227115
648.552702	0.227262
648.758485	0.227442
648.964250	0.227712
649.169996	0.227739
649.375724	0.227976
649.581434	0.228005
649.787126	0.228110
649.992800	0.228146
650.198455	0.228540
650.404092	0.228756
650.609711	0.228785
650.815311	0.228881
651.020894	0.229076
651.226458	0.229143
651.432004	0.229587
651.637532	0.230090
651.843041	0.230242
652.048532	0.230378
652.254006	0.230514
652.459460	0.230690
652.664897	0.230939
652.870315	0.231292
653.075716	0.231301
653.281097	0.231280
653.486461	0.231333
653.691807	0.231565
653.897134	0.231684
654.102443	0.231808
654.307734	0.232084
654.513006	0.231953
654.718261	0.232141
654.923497	0.232339
655.128715	0.232609
655.333915	0.232576
655.539096	0.232589
655.744259	0.232733
655.949404	0.232935
656.154531	0.232987
656.359640	0.233408
656.564730	0.233269
656.769802	0.233595
656.974856	0.233539
657.179892	0.233838
657.384909	0.234107
657.589908	0.234360
657.794889	0.234479
657.999852	0.234712
658.204797	0.234986
658.409723	0.235031
658.614631	0.234945
658.819521	0.235150
659.024393	0.235230
659.229246	0.235370
659.434081	0.235570
659.638898	0.235544
659.843697	0.235704
660.048478	0.235779
660.253240	0.236371
660.457984	0.236920
660.662710	0.237203
660.867417	0.237356
661.072107	0.237690
661.276778	0.237972
661.481431	0.238272
661.686066	0.238468
661.890682	0.238938
662.095281	0.239376
662.299861	0.239486
662.504422	0.239600
662.708966	0.239842
662.913491	0.239787
663.117999	0.239705
663.322488	0.240030
663.526958	0.240238
663.731411	0.239811
663.935845	0.239382
664.140261	0.239448
664.344659	0.239781
664.549038	0.239970
664.753400	0.240301
664.957743	0.240462
665.162068	0.240530
665.366375	0.240858
665.570663	0.241546
665.774933	0.241960
665.979185	0.242053
666.183419	0.242099
666.387635	0.242227
666.591832	0.242381
666.796011	0.242483
667.000172	0.242467
667.204315	0.242325
667.408439	0.242238
667.612545	0.242640
667.816634	0.243020
668.020703	0.243107
668.224755	0.243326
668.428788	0.243667
668.632803	0.244177
668.836800	0.244505
669.040779	0.244786
669.244739	0.245032
669.448681	0.244903
669.652605	0.244980
669.856511	0.245479
670.060399	0.245909
670.264268	0.246185
670.468119	0.246058
670.671952	0.246280
670.875767	0.246193
671.079563	0.246214
671.283341	0.246633
671.487101	0.246759
671.690843	0.246697
671.894567	0.246394
672.098272	0.246446
672.301959	0.246852
672.505628	0.246986
672.709278	0.247398
672.912911	0.247752
673.116525	0.247847
673.320121	0.248150
673.523699	0.248504
673.727258	0.249059
673.930799	0.249034
674.134322	0.249178
674.337827	0.249554
674.541314	0.249885
674.744782	0.250084
674.948232	0.250263
675.151664	0.250298
675.355078	0.250356
675.558474	0.250437
675.761851	0.250779
675.965210	0.250891
676.168551	0.250964
676.371873	0.251026
676.575178	0.251409
676.778464	0.251710
676.981732	0.252006
677.184981	0.252436
677.388213	0.252813
677.591426	0.253093
677.794621	0.253405
677.997798	0.253813
678.200956	0.254239
678.404097	0.254490
678.607219	0.254783
678.810323	0.255056
679.013408	0.255434
679.216476	0.255675
679.419525	0.256030
679.622556	0.256320
679.825569	0.256536
680.028563	0.256611
680.231540	0.256653
680.434498	0.256783
680.637438	0.257022
680.840359	0.257146
681.043263	0.257154
681.246148	0.256988
681.449015	0.257185
681.651864	0.257291
681.854694	0.257551
682.057506	0.257672
682.260301	0.257613
682.463076	0.257617
682.665834	0.257578
682.868573	0.257879
683.071295	0.258153
683.273998	0.258216
683.476682	0.258183
683.679349	0.258092
683.881997	0.258186
684.084627	0.258507
684.287239	0.258710
684.489833	0.258926
684.692408	0.259008
684.894965	0.258969
685.097504	0.259145
685.300025	0.259478
685.502527	0.259679
685.705012	0.259811
685.907478	0.259883
686.109925	0.260178
686.312355	0.260410
686.514766	0.260552
686.717159	0.260864
686.919534	0.260866
687.121891	0.260784
687.324230	0.260904
687.526550	0.261170
687.728852	0.261322
687.931136	0.261162
688.133401	0.261462
688.335649	0.261618
688.537878	0.261819
688.740089	0.262158
688.942281	0.262369
689.144456	0.262610
689.346612	0.262760
689.548750	0.262947
689.750870	0.263275
689.952971	0.263229
690.155055	0.263330
690.357120	0.263416
690.559167	0.263438
690.761195	0.263525
690.963206	0.264049
691.165198	0.264120
691.367172	0.264319
691.569128	0.264162
691.771065	0.264324
691.972984	0.264481
692.174885	0.264834
692.376768	0.265086
692.578633	0.265519
692.780479	0.265218
692.982308	0.265436
693.184118	0.265619
693.385909	0.266010
