sample name	sample
index	1252
start time	 04-29-2021  12:50:20 PM
880	0.295578
Peak Time (s)	102.535
Peak Height 	0.2956
calc peak height	100,103
Baseline Time (s)	9.536
Baseline Value 	-0.005014
subtract baseline	10,4
Abs	0.172086
Peak Time (s)	102.535
Peak Height 	0.1721
calc peak height	100,103
Baseline Time (s)	9.036
Baseline Value 	7.9044E-4
subtract baseline	10,3
PK_550	0.105856
Peak Time (s)	100.536
Peak Height 	0.1059
calc peak height	100,103
Baseline Time (s)	9.536
Baseline Value 	1.7319E-4
subtract baseline	10,2
PK_880	0.163972
Peak Time (s)	100.035
Peak Height 	0.164
calc peak height	100,103
Baseline Time (s)	11.037
Baseline Value 	3.6608E-4
subtract baseline	10,1


Time (s)	A880-A510	A880-A775	A880-A975	A880	I510	I775	I975	I880	
0.036000	-0.005991	-0.000410	-0.000620	0.007762	6124.015667	43434.039274	3895.290616	22482.782591
0.537000	0.000273	0.000233	-0.001308	0.005653	6185.927571	43691.275852	3898.499005	22577.938657
1.036500	-0.003213	-0.000824	0.000493	0.004176	6170.953598	43730.583000	3905.933597	22644.817971
1.538000	-0.000214	-0.000596	-0.000704	0.001466	6213.663351	44007.319205	3909.387437	22768.212073
2.037500	-0.002982	-0.000572	-0.002805	0.004895	6167.333885	43686.801601	3896.827978	22612.242753
2.535000	-0.001710	-0.001188	-0.001115	-0.000558	6217.636482	44142.836261	3913.078775	22860.849309
3.035000	-0.000629	-0.000389	0.004090	-0.000809	6227.690114	44242.458199	3925.672128	22872.348138
3.535500	-0.000460	-0.000171	0.001434	0.000306	6220.542687	44157.321125	3916.950289	22821.221661
4.036000	-0.000021	0.000566	-0.002019	0.001845	6212.264400	44081.356089	3905.521792	22750.914570
4.539000	-0.001853	-0.000732	0.007505	0.000426	6209.149049	44092.811799	3930.748985	22815.734863
5.036000	-0.000338	0.000171	-0.000901	0.000834	6217.485045	44139.643959	3910.379036	22797.066581
5.536500	0.001184	-0.000281	-0.001409	0.000184	6233.903622	44158.486306	3910.707440	22826.849474
6.037000	0.001046	0.000407	0.000695	0.000599	6229.712946	44184.434167	3914.579247	22807.838819
6.537500	-0.000815	-0.000068	0.000054	0.000483	6216.532401	44150.295226	3913.372029	22813.118813
7.034500	0.000249	0.001253	-0.001072	0.001278	6218.564274	44200.218375	3908.973600	22776.776960
7.535500	-0.002027	-0.000173	-0.003426	0.000436	6207.771195	44144.795064	3905.526526	22815.287595
8.035500	-0.002101	-0.000238	-0.000852	0.000303	6208.210881	44151.271350	3911.708954	22821.372604
8.535000	0.000676	-0.000181	-0.004241	-0.000116	6232.320427	44196.402814	3904.928020	22840.557427
9.036000	-0.000937	0.000053	0.000000	-0.000073	6219.809713	44214.557980	3914.524025	22838.583388
9.535500	-0.000812	0.000000	-0.000426	0.000000	6220.204289	44202.599404	3913.378931	22835.259026
10.036500	0.001728	0.000221	0.001677	0.000070	6238.890763	44216.931135	3918.056756	22832.064433
10.537000	0.000026	0.000281	0.000643	0.000807	6220.434680	44152.646372	3913.979915	22798.303923
11.037000	0.000000	-0.000610	0.001968	0.000391	6223.378041	44107.661155	3917.986214	22817.336956
11.534500	-0.003169	-0.000516	-0.002823	-0.000234	6204.226682	44175.893261	3908.428974	22846.003859
12.035000	-0.001084	-0.000209	-0.001291	0.000314	6215.784159	44152.945843	3910.677385	22820.872935
12.535000	0.001152	0.000770	0.000418	0.000468	6231.502124	44231.239337	3914.241754	22813.812050
13.037500	-0.000474	0.001107	0.003987	0.002005	6207.646736	44117.438215	3918.919957	22743.591532
13.536000	-0.000455	0.000349	0.001968	0.000450	6219.497501	44193.002045	3917.849175	22814.642276
14.035500	-0.001064	-0.000244	0.000489	0.001987	6203.355266	43991.419951	3910.924127	22744.446274
14.538000	-0.002159	0.000480	-0.000905	0.002149	6193.933617	44044.426692	3907.367125	22737.038107
15.036000	-0.001186	0.000634	-0.002338	0.001845	6203.505171	44087.775776	3904.795560	22750.899830
15.536500	-0.000769	-0.000435	0.001725	-0.000383	6223.417864	44197.712266	3919.209975	22852.817933
16.037500	-0.000246	0.000421	0.001866	0.000255	6222.544372	44218.358966	3918.063297	22823.558654
16.537500	-0.001652	-0.000448	0.004020	-0.000674	6218.955391	44224.058036	3925.197062	22866.178665
17.035000	0.002750	0.000161	0.002225	-0.001994	6262.388188	44407.710588	3924.095243	22926.847889
17.538000	-0.001112	-0.000088	0.002454	0.000465	6214.438075	44150.079123	3918.935364	22813.961130
18.035500	0.000562	0.001234	0.003790	0.001997	6215.509646	44130.248915	3918.484794	22743.984565
18.538500	-0.002392	0.000064	-0.003418	0.000864	6201.818762	44126.753406	3904.570542	22795.708473
19.036500	-0.000920	-0.000444	-0.000962	0.000728	6213.900561	44091.502183	3910.482577	22801.921839
19.536500	-0.000758	-0.000234	-0.003771	0.000849	6214.209660	44099.904843	3903.803737	22796.411608
20.037000	-0.001795	0.000211	0.002063	0.001164	6204.049899	44112.200299	3916.424959	22782.003108
20.537000	-0.001494	-0.000579	0.005890	0.000640	6210.244385	44087.005940	3926.488215	22805.952041
21.034500	0.000057	0.000308	0.005521	0.001401	6216.196473	44098.973800	3923.866162	22771.182325
21.535000	0.001612	0.000529	0.003186	0.001447	6227.579735	44115.518157	3918.359322	22769.060889
22.035500	-0.000123	-0.000094	0.001042	0.001018	6217.723589	44097.131837	3914.411035	22788.664193
22.535000	-0.002273	-0.000020	0.000748	0.001068	6201.175908	44099.387457	3913.622058	22786.375270
23.038500	-0.001746	0.000190	0.003425	0.001258	6203.707943	44101.316029	3919.347014	22777.704381
23.536000	-0.001061	-0.000384	0.001468	0.000763	6212.577156	44093.912985	3915.978141	22800.348563
24.036500	-0.002671	0.000208	0.004572	0.000782	6200.336953	44148.102833	3923.100631	22799.461635
24.536500	-0.000125	-0.000018	0.002490	0.000826	6219.156286	44122.579286	3918.185911	22797.459560
25.037000	-0.001122	0.000299	0.002398	0.000996	6210.360445	44136.462991	3917.582379	22789.661156
25.537000	-0.001341	-0.000081	0.001598	0.000258	6214.276510	44170.406906	3917.440899	22823.451445
26.037500	-0.000291	0.000839	-0.003693	0.000991	6216.656317	44188.146676	3903.658126	22789.898762
26.535000	-0.001732	-0.000285	-0.001047	0.000581	6208.898845	44120.473887	3910.623747	22808.640106
27.035000	0.000091	-0.000251	-0.000799	-0.001260	6236.564762	44298.549922	3915.417128	22893.096223
27.536000	0.002221	0.000579	0.001717	-0.001960	6258.085107	44444.329730	3922.837450	22925.249012
28.036000	0.001680	0.000774	0.003109	-0.000599	6243.603984	44333.139563	3922.909421	22862.705253
28.536000	0.000643	0.001150	0.003243	-0.000364	6233.949128	44346.613201	3922.676140	22851.933801
29.036000	-0.000507	0.001107	0.005909	-0.000208	6224.073811	44327.632627	3928.505600	22844.778250
29.536500	0.000042	-0.000628	0.006753	-0.001222	6235.905060	44259.071386	3932.844882	22891.348237
30.034500	0.000027	0.000719	0.004991	-0.000697	6231.808753	44337.274773	3927.506633	22867.216596
30.537000	-0.003752	-0.000663	-0.001010	0.000626	6193.408504	44080.414609	3910.605862	22806.581688
31.037500	-0.002320	0.000210	0.001662	0.001410	6198.264861	44088.821170	3914.937931	22770.769770
31.535500	-0.000908	0.000713	-0.000338	0.000358	6216.778159	44236.344904	3912.760440	22818.868721
32.035500	-0.001247	0.000284	0.003568	-0.000059	6217.373135	44235.202666	3922.723099	22837.977893
32.535500	0.000238	0.000818	0.003320	-0.000177	6229.477761	44297.205168	3922.422719	22843.382358
33.036000	0.000042	0.000058	0.005858	-0.001218	6235.865138	44323.837244	3930.741617	22891.124256
33.538500	-0.002808	0.000168	0.000335	0.001583	6193.307168	44068.437631	3911.494454	22762.842650
34.036500	0.000193	0.000119	0.004714	0.001581	6215.860051	44064.102212	3921.580552	22762.965020
34.537000	0.000476	-0.000051	-0.001416	0.001577	6218.028538	44048.370757	3907.508295	22763.144298
35.034500	-0.000892	0.000285	0.001120	0.001399	6209.064956	44096.961090	3913.715151	22771.249704
35.537000	-0.003185	-0.000339	0.000660	0.000856	6195.934462	44089.323414	3913.909374	22796.096334
36.035000	-0.002136	0.000091	-0.001353	0.000991	6202.786179	44117.243518	3908.990591	22789.925746
36.535000	-0.001307	0.000154	0.003425	0.001080	6208.346409	44114.772949	3919.758061	22785.837909
37.038500	-0.002841	0.000125	0.001212	0.001249	6195.567258	44096.060260	3914.273015	22778.122527
37.536000	0.000095	-0.000183	-0.001596	0.001357	6216.808150	44056.686387	3907.599511	22773.182957
38.035500	-0.001605	-0.000031	-0.001640	0.000916	6207.334622	44112.800560	3908.503802	22793.327502
38.536000	0.000521	-0.000059	0.002214	0.000859	6223.775137	44115.543499	3917.474104	22795.927374
39.036000	-0.002389	-0.000248	0.004860	0.001124	6199.889460	44072.501503	3922.974265	22783.813815
39.536000	-0.003191	-0.000250	0.008658	0.000513	6198.457949	44130.265101	3933.239920	22811.778959
40.034500	-0.001681	-0.000525	0.000662	0.000682	6208.519239	44088.201701	3914.310575	22804.031093
40.537500	-0.002548	-0.000300	0.001794	0.000833	6200.878519	44095.155730	3916.567179	22797.135533
41.035000	-0.002035	0.000313	0.004942	0.001374	6200.669274	44101.927129	3922.585079	22772.389674
41.538000	-0.001917	-0.000451	-0.001333	0.002031	6196.630775	43967.605559	3906.660655	22742.426931
42.035500	-0.001220	0.000756	-0.001520	0.001777	6203.764714	44105.839664	3906.815424	22754.024094
42.536000	0.001195	-0.000150	-0.003861	0.001160	6226.593987	44078.416768	3902.892682	22782.171923
43.036500	0.000592	0.000607	0.003069	0.001730	6217.744440	44096.091644	3917.436165	22756.138550
43.537000	0.002670	0.000253	0.005976	-0.003538	6273.594815	44564.114727	3936.447948	22998.023379
44.036500	0.003040	0.000312	0.000598	-0.000634	6254.225467	44292.543196	3917.190404	22864.339897
44.537000	-0.000591	-0.000252	-0.000672	-0.001152	6230.579570	44288.103790	3915.461763	22888.115654
45.034500	-0.000864	0.000128	0.002514	0.003013	6197.160730	43929.624231	3913.213800	22697.703532
45.535000	-0.002709	-0.000203	-0.001655	0.002602	6186.432723	43937.086419	3904.628019	22716.385378
46.038000	-0.000013	-0.000287	0.006854	-0.001133	6234.812342	44282.994873	3932.871253	22887.257063
46.535500	-0.001392	-0.000400	0.006480	-0.001055	6223.784573	44264.824693	3931.811883	22883.635894
47.036000	-0.003007	-0.000309	-0.003962	0.002312	6186.373087	43954.436629	3900.049586	22729.591317
47.535500	-0.002667	-0.000075	-0.007219	0.003055	6183.369942	43906.543346	3891.038556	22695.785324
48.039000	0.002817	0.000407	0.004696	-0.000460	6251.195543	44285.026168	3926.268981	22856.340402
48.537000	0.000071	-0.000279	0.002357	-0.000810	6233.000782	44253.061381	3921.658840	22872.424843
49.036500	0.002101	0.000426	0.003148	0.001799	6228.616819	44072.425880	3917.461108	22752.997230
49.537000	-0.001555	0.000697	0.000513	0.002340	6197.025796	44046.924726	3910.169871	22728.327419
50.034500	-0.000533	-0.000859	0.006712	0.006962	6170.173686	43466.691719	3913.782921	22518.812539
50.535000	0.013283	-0.009575	0.022850	0.388872	4326.182665	19444.472330	3346.321588	11064.076645
51.038000	0.008581	-0.018924	-0.020222	0.193474	5088.266337	28254.217003	3526.721981	15681.926031
51.535500	-0.020783	-0.032326	-0.042129	-0.104067	6920.220322	51608.511659	4067.253455	28223.205607
52.036000	-0.010318	-0.029404	-0.013805	-0.143754	7406.964476	56622.186386	4262.267805	30642.784583
52.536000	0.002250	-0.017745	0.004577	-0.140275	7501.356754	57642.390370	4309.236780	30421.736696
53.036500	0.010341	-0.008534	0.010183	-0.110201	7276.414302	55078.084027	4232.962256	28582.884245
53.537000	0.022284	-0.003000	0.025396	-0.047406	6797.682618	48641.508472	4096.391152	25130.287539
54.037000	0.021960	0.001169	0.022066	-0.011819	6491.834616	45454.368980	3995.297936	23384.233913
54.537000	0.025346	0.008062	0.031123	-0.005908	6471.262913	45550.405394	4003.136139	23107.792129
55.035000	0.033832	0.013459	0.037514	-0.011527	6587.710877	46644.302700	4033.594889	23370.464355
55.535500	0.040635	0.018494	0.043109	0.046153	6184.891821	41658.557526	3907.390192	20829.100587
56.035500	0.057497	0.026978	0.058448	0.030689	6435.334964	43851.747213	3980.192681	21477.676466
56.536000	0.067022	0.028701	0.069464	0.038576	6448.534037	43275.650643	3987.881521	21144.020936
57.036000	0.075781	0.037404	0.076697	0.100674	6043.480978	38612.911329	3860.783652	18718.188229
57.536500	0.081293	0.042890	0.083381	0.119049	5953.016375	37570.582937	3835.712141	18064.379738
58.036500	0.092745	0.048419	0.094664	0.146128	5846.667498	35895.717102	3802.896929	17149.976451
58.537000	0.096594	0.053333	0.095855	0.155966	5806.909900	35524.511292	3785.429205	16831.621435
59.037500	0.106862	0.059754	0.104462	0.170144	5781.254413	34948.204771	3774.360751	16385.334770
59.535000	0.110837	0.061622	0.116097	0.180570	5739.411334	34324.187325	3776.748163	16066.298790
60.036500	0.115275	0.066899	0.124059	0.191161	5700.089963	33942.987382	3771.561758	15750.000719
60.535000	0.124353	0.069515	0.125234	0.205168	5668.983983	33141.222174	3746.678599	15343.347360
61.035000	0.130943	0.073859	0.125965	0.224729	5588.794559	32102.353071	3711.470502	14796.935463
61.535500	0.131515	0.076409	0.138997	0.237802	5513.744554	31404.981252	3711.394916	14445.226144
62.036000	0.136117	0.078382	0.144336	0.217097	5667.946949	32929.173311	3760.497814	15007.194928
62.536000	0.138277	0.079173	0.141123	0.216373	5686.099565	33033.894480	3755.675204	15027.329337
63.036500	0.139490	0.085183	0.147516	0.248920	5495.214605	31251.955433	3706.655552	14154.360371
63.537000	0.140928	0.085204	0.142695	0.271680	5372.976909	29809.268177	3658.060925	13581.614026
64.034500	0.144104	0.089457	0.147579	0.290367	5287.752320	28931.974350	3634.874718	13133.294154
64.540500	0.146437	0.090425	0.141222	0.287516	5315.903329	29161.287362	3629.103785	13200.462813
65.068000	0.151767	0.093386	0.147166	0.284019	5364.607562	29553.648744	3644.755628	13283.441308
65.543500	0.152492	0.094376	0.153763	0.283575	5371.128885	29641.550053	3656.650998	13294.022407
66.038500	0.150482	0.092840	0.154604	0.277984	5391.223747	29891.733210	3667.688793	13428.219550
66.536000	0.149476	0.096733	0.156244	0.276796	5392.249318	30208.536530	3672.593444	13456.954789
67.036000	0.150271	0.095563	0.149036	0.273767	5413.902177	30325.361460	3665.355329	13530.583837
67.536000	0.152254	0.098695	0.156698	0.272350	5433.317871	30613.375046	3681.166676	13565.193522
68.037000	0.152568	0.098655	0.156401	0.270238	5447.261924	30745.595979	3684.368076	13617.020431
68.537000	0.153563	0.098512	0.156052	0.268111	5465.324419	30872.761755	3687.516801	13669.459236
69.035000	0.153792	0.100314	0.156356	0.270542	5452.568688	30832.408224	3683.750411	13609.539439
69.537500	0.153909	0.099774	0.159582	0.273582	5435.744517	30603.671394	3684.079039	13535.102306
70.036000	0.155004	0.098852	0.156189	0.268190	5473.242321	30889.483890	3687.617106	13667.488201
70.535500	0.154289	0.100166	0.162081	0.268772	5465.701751	30936.609021	3697.099896	13653.131262
71.036000	0.155168	0.099870	0.158871	0.269275	5467.885951	30885.221695	3690.458927	13640.728718
71.536000	0.154719	0.101130	0.161722	0.273888	5438.635011	30670.514342	3687.324472	13527.618610
72.036500	0.159255	0.101897	0.156185	0.268064	5498.867175	31094.165085	3687.835377	13670.616559
72.536500	0.156492	0.101524	0.161800	0.266477	5491.957403	31172.875568	3700.725942	13709.910610
73.034000	0.160521	0.102284	0.157813	0.264956	5524.723655	31321.334997	3696.288009	13747.696725
73.537000	0.153369	0.102429	0.156373	0.269782	5454.515431	31017.444276	3685.123760	13628.226877
74.037500	0.158158	0.102754	0.164323	0.261686	5530.122171	31566.535232	3714.038004	13829.407496
74.535000	0.158991	0.103358	0.158638	0.260329	5543.198068	31695.954943	3706.133682	13863.503832
75.036500	0.161284	0.104783	0.159518	0.259195	5563.792697	31865.714341	3709.802780	13892.074862
75.535500	0.156438	0.104062	0.160591	0.262283	5516.361374	31613.376822	3706.131204	13814.440853
76.036000	0.158653	0.105402	0.166938	0.256329	5565.205284	32098.488511	3728.805319	13964.597149
76.536500	0.163566	0.104582	0.159902	0.254534	5606.012763	32163.941679	3719.065647	14010.269050
77.037500	0.162640	0.105803	0.157876	0.254256	5602.043139	32264.936899	3715.843212	14017.366542
77.536500	0.159705	0.105344	0.156808	0.259806	5550.615166	31862.418217	3703.762124	13876.678877
78.037500	0.162863	0.106124	0.167384	0.253164	5610.108871	32360.391692	3735.584756	14045.276282
78.540000	0.163177	0.104706	0.166796	0.251750	5620.738458	32360.176414	3737.143979	14081.504549
79.035000	0.162488	0.106895	0.166946	0.252363	5612.723764	32466.976760	3736.267712	14065.778306
79.535500	0.165775	0.106101	0.164462	0.252589	5631.595224	32397.762340	3731.170336	14059.973347
80.035500	0.164112	0.106293	0.161434	0.251655	5627.091051	32474.157933	3727.255632	14083.936959
80.535500	0.162093	0.105435	0.164291	0.251196	5617.468458	32447.112548	3733.466240	14095.722910
81.036000	0.162756	0.107344	0.166111	0.253256	5608.881318	32436.831579	3733.013638	14042.904454
81.536000	0.164469	0.106862	0.166409	0.251802	5628.390097	32502.829050	3736.314516	14080.165237
82.037500	0.163794	0.107738	0.166852	0.252591	5619.358727	32508.777384	3735.662665	14059.945821
82.537000	0.166370	0.107228	0.167272	0.251818	5640.069218	32526.676035	3737.913709	14079.762520
83.039000	0.163262	0.107402	0.168067	0.252846	5614.513091	32468.609669	3737.472314	14053.408398
83.534500	0.163572	0.107460	0.165271	0.251979	5621.756124	32531.505330	3733.835596	14075.619693
84.035000	0.164687	0.107899	0.163344	0.252066	5628.099675	32555.441305	3730.055520	14073.379919
84.535500	0.167042	0.108685	0.168039	0.253098	5636.294659	32538.760442	3736.945469	14046.968438
85.036000	0.167187	0.107360	0.168008	0.252694	5639.700631	32476.111481	3737.649839	14057.308203
85.536000	0.161833	0.107889	0.171186	0.258156	5573.386138	32142.837889	3733.342868	13918.310708
86.036500	0.165046	0.108283	0.171310	0.253242	5623.059963	32501.593317	3742.870587	14043.276582
86.536000	0.165103	0.108435	0.168530	0.253952	5619.029172	32463.584359	3736.257263	14025.120128
87.036500	0.164925	0.108108	0.170132	0.254498	5614.580831	32404.439476	3738.254060	14011.206723
87.539500	0.164897	0.107788	0.164663	0.260235	5579.357743	31996.760937	3717.332341	13865.869941
88.034500	0.163817	0.108289	0.169819	0.256345	5596.469569	32291.705463	3734.178425	13964.204117
88.534500	0.166989	0.108854	0.165177	0.257455	5609.093824	32254.961040	3723.425603	13936.053371
89.035000	0.168739	0.108481	0.169763	0.258631	5612.617635	32150.719410	3729.783835	13906.309048
89.534500	0.160963	0.108519	0.167985	0.265184	5526.001358	31716.176249	3714.338987	13742.023515
90.038500	0.162381	0.108492	0.171648	0.260755	5561.004084	32009.070913	3729.336501	13852.796873
90.535500	0.163226	0.106918	0.173141	0.260715	5566.337232	31906.669927	3732.209497	13853.796181
91.036000	0.164051	0.108885	0.165245	0.263861	5552.361063	31828.232657	3711.741206	13774.990170
91.536500	0.162267	0.107891	0.163802	0.267973	5517.181504	31490.899826	3701.639701	13672.852812
92.037000	0.161281	0.107462	0.173767	0.265914	5523.553169	31598.184013	3723.669022	13723.882490
92.543000	0.163474	0.106355	0.165766	0.266657	5532.178600	31476.533487	3707.589830	13705.451760
93.034500	0.163252	0.107969	0.165901	0.269679	5512.917407	31384.229302	3702.349407	13630.761982
93.534500	0.163029	0.107852	0.163811	0.275371	5478.164786	31006.662784	3688.400522	13491.516319
94.035500	0.160403	0.106528	0.168522	0.270885	5489.038648	31211.558103	3704.913605	13601.108921
94.535500	0.163908	0.106147	0.165458	0.273652	5493.371917	31007.686461	3694.404736	13533.399443
95.036000	0.163313	0.106500	0.167565	0.275507	5479.033140	30910.825169	3694.855307	13488.231243
95.536000	0.160148	0.106506	0.173527	0.281120	5428.300541	30552.424566	3695.481389	13352.726889
96.036500	0.161390	0.107150	0.169539	0.279253	5446.151617	30712.351716	3691.687715	13397.610075
96.536500	0.158523	0.106144	0.170831	0.279686	5427.211777	30620.627814	3693.222976	13387.189694
97.037000	0.162589	0.106547	0.171233	0.281637	5439.332164	30522.231337	3690.458772	13340.342064
97.534500	0.162316	0.105615	0.170325	0.282458	5433.049089	30411.216367	3687.384204	13320.676643
