sample name	sample
index	1430
start time	 05-10-2021  12:31:05 PM
880	0.478016
Peak Time (s)	92.535
Peak Height 	0.478
calc peak height	90,93
Baseline Time (s)	11.537
Baseline Value 	-0.002625
subtract baseline	10,4
Abs	0.335984
Peak Time (s)	91.535
Peak Height 	0.336
calc peak height	90,93
Baseline Time (s)	10.536
Baseline Value 	0.001453
subtract baseline	10,3
PK_550	0.178985
Peak Time (s)	91.038
Peak Height 	0.179
calc peak height	90,93
Baseline Time (s)	8.537
Baseline Value 	2.1719E-4
subtract baseline	10,2
PK_880	0.319567
Peak Time (s)	91.038
Peak Height 	0.3196
calc peak height	90,93
Baseline Time (s)	9.534
Baseline Value 	3.8301E-4
subtract baseline	10,1


Time (s)	A880-A510	A880-A775	A880-A975	A880	I510	I775	I975	I880	
0.034500	-0.000073	-0.000944	-0.006212	0.000652	6481.191096	43951.283365	3924.612155	22625.537134
0.535000	-0.003057	-0.000623	-0.004289	0.005248	6418.362815	43549.453184	3917.803490	22417.423348
1.035500	0.002650	-0.000568	-0.000853	0.002988	6484.424089	43766.512397	3932.358404	22519.476509
1.536500	0.000579	0.000867	-0.003439	0.001130	6482.648003	44077.292364	3930.488867	22603.803245
2.036000	0.000075	0.000080	-0.001421	0.000555	6483.237002	44057.256856	3937.166588	22629.948425
2.536500	-0.003498	-0.001679	-0.005785	0.004226	6423.146689	43546.350348	3916.603018	22463.538240
3.039500	0.000693	-0.000082	-0.003298	-0.001513	6505.777533	44238.096339	3937.660813	22724.317280
3.537000	0.000311	0.000506	0.002896	0.000453	6486.070972	44107.234205	3948.640684	22634.596153
4.037500	0.001274	-0.000326	-0.002102	0.000337	6495.109754	44039.420571	3935.973485	22639.881739
4.535000	0.002167	0.000221	-0.000914	0.000373	6502.302883	44087.803773	3938.948798	22638.213381
5.035000	0.000174	-0.000839	-0.001908	-0.000508	6492.968243	44070.857076	3938.655717	22678.405160
5.535500	0.002864	0.000812	-0.000744	0.000393	6508.008127	44141.896594	3939.338139	22637.319351
6.035500	0.000076	0.000367	0.000852	0.000753	6481.590514	44065.637251	3942.542173	22620.945834
6.536000	-0.000034	-0.000647	-0.002811	-0.000332	6489.756200	44072.421503	3935.870770	22670.382202
7.036000	0.002320	0.000481	-0.004192	0.000392	6503.434386	44110.687965	3930.451531	22637.377076
7.536500	-0.000075	0.000267	0.000503	0.000480	6482.603832	44082.010256	3942.341942	22633.339473
8.037000	-0.000618	-0.000053	-0.003246	-0.000062	6482.599089	44103.007368	3934.050603	22658.031998
8.537000	-0.000677	0.000000	0.002281	-0.000083	6482.280998	44110.038028	3948.432639	22658.990399
9.034500	0.001531	-0.000307	-0.003844	0.000119	6499.098646	44061.849522	3932.046301	22649.817763
9.534500	0.000000	-0.000856	-0.003459	-0.000861	6494.475498	44102.688396	3935.563108	22694.534662
10.035000	0.001693	0.000543	0.000437	0.000573	6496.644232	44099.323406	3941.929087	22629.114892
10.535500	-0.000897	0.000434	0.000000	0.003126	6453.726074	43847.909240	3934.201172	22513.252556
11.036000	-0.000922	0.000069	0.005622	-0.000026	6479.756720	44111.156260	3957.036218	22656.392695
11.536500	0.000595	-0.000620	-0.002848	0.000000	6492.236998	44043.471094	3934.916215	22655.225955
12.036500	0.000423	0.000437	-0.001731	0.000028	6490.565560	44141.013488	3937.728273	22653.942481
12.536500	0.000559	-0.000427	-0.003371	0.001340	6480.718801	43935.098612	3930.122610	22594.226929
13.037000	0.001868	0.000428	0.001307	-0.000621	6508.158872	44201.752535	3947.299646	22683.565458
13.537000	0.001265	0.000182	-0.003094	-0.000187	6499.434476	44137.173226	3934.765422	22663.746597
14.040000	0.000099	-0.001012	0.002738	0.001121	6478.710199	43900.516680	3946.488653	22604.196972
14.536500	-0.001563	-0.000426	-0.002174	0.001488	6461.796204	43921.193574	3932.820610	22587.515307
15.035000	0.000614	-0.000133	-0.000620	-0.000922	6500.134248	44176.992689	3943.066298	22697.283370
15.535000	0.001386	0.000821	0.000270	-0.000378	6502.057669	44216.052333	3943.966681	22672.467963
16.036000	-0.000762	0.000051	0.002891	-0.001027	6489.470224	44204.557090	3952.498290	22702.096178
16.536000	-0.003333	-0.000851	-0.004970	0.004254	6424.272510	43621.205371	3918.598542	22462.250398
17.036500	0.003024	0.000968	0.006500	-0.003089	6538.806688	44488.583764	3967.444782	22796.542402
17.539000	0.000009	0.000137	0.001042	0.000281	6484.977711	44088.520307	3944.259246	22642.407610
18.037000	0.000696	0.000160	-0.002165	0.000503	6488.864229	44069.658019	3935.380608	22632.292758
18.537500	-0.000267	-0.000091	-0.001322	0.000715	6479.037925	44025.872042	3937.008875	22622.652218
19.037500	0.001568	0.000482	-0.002572	0.000738	6494.205975	44077.963780	3933.726485	22621.604090
19.535000	0.000493	-0.000750	-0.001775	0.000008	6491.324918	44030.453227	3937.666665	22654.880573
20.035500	0.000953	0.000474	0.003478	0.000778	6488.718622	44073.371846	3949.311763	22619.788931
20.538500	-0.000379	-0.000283	-0.002759	-0.000119	6485.075292	44086.634014	3935.451081	22660.632565
21.036000	-0.001077	-0.000240	-0.002176	0.000127	6477.182490	44067.455592	3936.322769	22649.442297
21.536500	0.002771	0.000191	0.002840	0.000932	6502.693260	44032.109117	3947.246214	22612.805806
22.036000	0.001311	0.000483	-0.000376	0.000842	6491.184055	44068.273164	3939.127770	22616.896438
22.537000	-0.000295	0.000550	0.000640	0.000939	6476.931594	44065.384930	3941.508417	22612.469804
23.037000	0.000465	-0.000247	-0.002105	-0.000041	6491.494439	44082.782290	3936.941638	22657.117308
23.537500	-0.000871	0.000391	-0.001660	0.000417	6476.483558	44099.762001	3936.908657	22636.242406
24.035000	-0.000575	0.000015	0.000250	0.000176	6480.975923	44086.973860	3942.475900	22647.214041
24.535000	-0.001138	-0.000119	-0.000151	0.000440	6474.059283	44049.220757	3940.748825	22635.162842
25.038000	0.000071	-0.000241	-0.002634	0.000125	6486.796387	44067.468154	3935.144693	22649.506789
25.535500	-0.001174	-0.000084	-0.002732	-0.000044	6477.800096	44098.407414	3935.327262	22657.212182
26.036000	-0.001570	0.000733	0.001182	0.000813	6467.349171	44094.563929	3943.241052	22618.190207
26.536500	-0.001877	0.000218	-0.001435	0.001732	6457.159221	43958.921537	3934.094412	22576.433515
27.036500	0.000403	-0.000889	-0.000310	-0.003112	6516.804066	44313.462706	3949.578714	22797.584877
27.537000	0.000011	-0.000289	0.000397	-0.001546	6500.321456	44221.541508	3947.337498	22725.842790
28.037000	0.001894	0.000378	-0.001447	-0.000482	6507.200052	44183.811916	3939.782031	22677.200339
28.534500	-0.000341	0.000364	-0.003509	0.001071	6475.447957	44035.304312	3930.460551	22606.467938
29.035000	0.000357	-0.000143	-0.003594	-0.000770	6496.708018	44161.727370	3934.980301	22690.377637
29.538000	-0.003604	-0.000104	0.002768	-0.000570	6461.932621	44146.314356	3950.978125	22681.204191
30.035500	0.002857	0.000621	-0.002929	0.000164	6509.874284	44145.562153	3934.286070	22647.757840
30.536000	-0.002086	0.000891	-0.000994	0.003102	6444.069192	43893.210225	3931.704297	22514.317709
31.036500	0.000831	0.000064	0.001176	0.000685	6488.480819	44043.404992	3943.560436	22624.046544
31.539500	-0.000185	0.000299	0.000894	0.000218	6483.876643	44109.842359	3944.038359	22645.271134
32.037000	-0.001044	-0.000042	-0.005491	-0.000699	6484.362180	44164.563529	3929.915683	22687.110372
32.534500	-0.001255	0.000368	-0.000042	0.006058	6426.520743	43566.406931	3926.564248	22380.977958
33.034500	0.001369	0.001258	0.000727	-0.001197	6508.805777	44335.553515	3947.285513	22709.846243
33.535000	0.000386	0.000888	-0.001953	0.001823	6475.239453	44013.729261	3932.527442	22572.298028
34.035000	-0.000785	0.000414	0.002238	0.001826	6465.451886	43968.605340	3943.353595	22572.161674
34.535500	-0.001032	0.000128	-0.004412	0.002467	6458.065421	43881.065503	3924.572340	22543.083543
35.036000	-0.001861	-0.000737	-0.001747	0.001734	6457.271526	43868.661410	3933.287413	22576.351152
35.535500	-0.000599	-0.000576	0.004772	0.001345	6471.012511	43920.562991	3951.212318	22594.010769
36.036500	0.000737	0.000780	0.002196	0.001871	6477.770549	43998.929856	3943.125651	22570.115407
36.536500	0.000447	0.000349	-0.001245	0.001645	6477.236049	43979.615716	3934.810729	22580.403197
37.036000	0.000062	0.000582	0.000573	0.001446	6475.682499	44020.383306	3940.018014	22589.400641
37.534500	-0.000799	0.000529	0.001273	0.001679	6466.563724	43993.404518	3941.231482	22578.859847
38.034500	0.000815	0.000755	-0.000339	0.001867	6478.456932	43996.952596	3936.574693	22570.323960
38.535000	0.000083	-0.000093	-0.000141	0.001195	6477.959784	43980.399450	3938.824153	22600.849116
39.035000	0.000695	0.000402	0.001345	0.001628	6479.451573	43986.200877	3941.550040	22581.150639
39.535500	0.000208	0.000397	0.002271	0.001534	6476.166109	43994.590171	3944.196209	22585.406985
40.035500	0.002007	0.000402	0.005556	0.001796	6489.016753	43970.291461	3952.083093	22573.513435
40.536500	-0.000374	0.000271	-0.000297	0.001434	6472.149547	43992.120005	3937.800778	22589.972082
41.036000	-0.001266	-0.000130	-0.004139	0.001014	6468.210656	43993.858219	3928.988171	22609.035053
41.537000	-0.001339	-0.000419	-0.002273	0.000927	6468.327310	43974.874184	3934.010340	22613.014504
42.040000	0.000454	0.000847	0.003996	0.001819	6475.840556	44010.206524	3947.948105	22572.478001
42.534500	-0.000843	-0.000051	0.001157	0.001267	6469.630013	43977.473641	3941.997615	22597.554624
43.034500	-0.000384	0.000411	0.001864	0.001019	6475.519155	44044.556313	3944.477586	22608.818740
43.535000	0.003711	-0.000240	0.005282	-0.003777	6550.504089	44438.862564	3966.039054	22828.154255
44.035500	0.000650	0.000506	0.000975	-0.000211	6494.476733	44170.269649	3945.366178	22664.855008
44.536000	-0.000871	0.000343	-0.005018	0.002519	6458.973548	43896.408862	3922.893274	22540.715297
45.036000	0.001682	0.000009	0.002312	-0.000667	6506.974551	44166.330674	3950.040697	22685.649805
45.536000	0.001428	0.000020	-0.001175	-0.000836	6506.262921	44183.483788	3941.404205	22693.392287
46.036500	0.000740	-0.000271	-0.000261	-0.000900	6501.014805	44161.862539	3943.943391	22696.293387
46.539500	0.002156	0.000935	0.001844	0.003474	6476.237010	43862.294402	3938.062461	22497.516354
47.040000	-0.001521	0.000167	-0.006060	0.001199	6464.546130	44004.510109	3923.600571	22600.630069
47.535000	-0.000112	-0.000059	0.003860	0.000179	6484.815898	44079.664878	3951.877079	22647.068245
48.035000	0.001563	-0.000035	-0.003468	-0.000966	6508.492675	44190.577675	3935.810435	22699.315706
48.541500	-0.000196	0.000552	0.000517	0.002406	6465.534398	43926.864904	3937.393706	22545.864558
49.035500	0.002226	0.000425	-0.000378	-0.001957	6522.453281	44328.634770	3946.388503	22744.651574
49.538500	0.003373	0.000405	-0.000450	-0.002691	6538.390767	44396.651708	3948.114907	22778.266855
50.036500	0.001795	0.000650	-0.001147	0.003974	6469.051588	43788.353264	3929.073224	22474.898492
50.536500	-0.006681	-0.013599	0.007309	0.017547	6289.922629	41253.591384	3916.026908	21871.313726
51.036500	-0.000991	-0.019074	0.010924	0.178922	5253.723484	29031.754181	3580.742972	15970.514552
51.536500	-0.009740	-0.041092	-0.033984	-0.164291	8041.711301	57603.487704	4336.645439	31757.680851
52.037500	-0.008689	-0.105440	-0.034328	-0.287472	9760.910159	65533.705874	4833.978701	41235.169339
52.535000	-0.002357	-0.050974	-0.008099	-0.190242	8455.861593	59663.941581	4529.515056	33537.183922
53.035000	0.007129	-0.047184	-0.007812	-0.204022	8764.340595	62005.820515	4585.949384	34526.201574
53.538500	0.006263	-0.036550	-0.000124	-0.180067	8435.836693	60221.727876	4520.855497	32826.790730
54.035500	0.015050	-0.022316	0.006762	-0.143602	8090.973900	57363.321385	4408.557614	30413.263614
54.536000	0.014641	-0.019486	0.014976	-0.125359	7870.668776	55465.700289	4372.184730	29279.763052
55.036000	0.032085	-0.010905	0.033514	-0.116408	7969.805403	55420.940110	4406.933547	28740.756374
55.536500	0.048545	0.000958	0.052727	-0.050281	7416.569825	49256.656025	4243.956416	25085.176553
56.042500	0.066734	0.013921	0.079839	0.024517	6858.539354	43110.101254	4095.392632	21568.605904
56.543000	0.085863	0.024316	0.095693	0.086507	6481.858802	38610.362977	3966.375876	19079.785500
57.037500	0.110434	0.038592	0.127634	0.142979	6224.678965	35307.672649	3903.157446	17101.872170
57.534500	0.136474	0.056028	0.154310	0.201117	5984.277399	32412.007498	3827.133418	15317.238696
58.035500	0.161599	0.073508	0.177595	0.234397	5925.981256	31359.077059	3804.111671	14398.175230
58.535500	0.185514	0.089539	0.201195	0.273532	5820.069298	29886.739760	3769.366985	13403.793808
59.035500	0.203752	0.096975	0.223328	0.327903	5582.988671	27126.366701	3701.106711	12162.853874
59.536000	0.212906	0.104129	0.238196	0.349411	5506.353494	26340.026500	3687.664891	11713.278047
60.036000	0.227372	0.112500	0.249325	0.356065	5554.565668	26432.812860	3696.702964	11578.658062
60.541500	0.240451	0.119506	0.264638	0.366312	5572.254042	26258.121334	3707.043912	11375.306973
61.037000	0.252511	0.129081	0.269572	0.406686	5400.459372	24661.726607	3637.162807	10619.225007
61.539500	0.254267	0.131337	0.281370	0.420071	5333.083685	24112.146243	3634.163961	10383.673868
62.035000	0.259305	0.138123	0.289805	0.431302	5297.928188	23896.538060	3628.907909	10191.559186
62.535000	0.262282	0.140865	0.291760	0.432191	5309.726482	23986.184614	3630.909595	10176.575275
63.077500	0.267659	0.145664	0.293195	0.432601	5338.013315	24199.920989	3632.834490	10169.656489
63.538500	0.271682	0.147480	0.295779	0.431375	5368.261169	24349.387083	3640.038281	10190.324525
64.038500	0.277634	0.151643	0.300545	0.432365	5397.199551	24506.368631	3647.242743	10173.640728
64.536500	0.276226	0.151564	0.296840	0.434044	5379.161662	24419.259643	3636.991203	10145.413217
65.036500	0.281787	0.156041	0.305670	0.435378	5403.894001	24575.277903	3651.298100	10123.064604
65.542000	0.282834	0.158306	0.306691	0.438211	5393.414814	24547.025259	3647.817132	10075.833205
66.037000	0.283902	0.161322	0.306854	0.440281	5387.552353	24594.110747	3644.168467	10041.509947
66.540000	0.291463	0.165698	0.312439	0.444907	5404.750250	24581.614753	3646.001406	9965.393444
67.035000	0.289772	0.166387	0.311168	0.443561	5402.725491	24683.281627	3646.144608	9987.454064
67.535000	0.293034	0.166789	0.314144	0.445414	5411.020627	24610.773428	3648.295571	9957.106712
68.035000	0.295934	0.169224	0.315339	0.447276	5417.146139	24639.372437	3647.016967	9926.736440
68.535500	0.298549	0.170446	0.315327	0.449501	5419.454205	24589.314979	3642.744853	9890.621905
69.036500	0.300085	0.172208	0.321932	0.451192	5418.537036	24592.866555	3652.159942	9863.284452
69.542000	0.299855	0.171919	0.318736	0.453450	5403.869099	24466.266323	3641.716142	9826.964289
70.036000	0.300544	0.171914	0.314578	0.454374	5402.483093	24420.252943	3632.102251	9812.152468
70.542500	0.300298	0.173025	0.319344	0.457884	5380.510562	24301.935912	3634.467268	9756.181595
71.036500	0.298262	0.173525	0.315325	0.459074	5361.787031	24268.054913	3624.700864	9737.311144
71.537500	0.300945	0.173102	0.323665	0.461030	5365.993272	24151.536614	3636.687965	9706.398096
72.035000	0.304037	0.176689	0.322114	0.464404	5364.357901	24161.907654	3627.424340	9653.396780
72.535500	0.304947	0.176168	0.318221	0.463967	5372.169427	24157.796284	3620.987286	9660.241748
73.035500	0.306492	0.177256	0.319303	0.465624	5371.520002	24130.041745	3619.921461	9634.338176
73.535500	0.307387	0.177877	0.326037	0.464948	5380.657552	24193.421028	3633.768613	9644.892566
74.036000	0.308468	0.179070	0.321288	0.465748	5382.296480	24212.649108	3623.377332	9632.406428
74.541500	0.308909	0.179135	0.326820	0.467568	5374.267804	24126.849370	3630.312966	9604.069064
75.037000	0.308150	0.180445	0.329023	0.466906	5373.698717	24223.266554	3635.706436	9614.354923
75.542500	0.310161	0.181597	0.327777	0.468283	5377.390961	24212.220034	3630.768046	9592.974006
76.037000	0.308887	0.181417	0.328242	0.468637	5367.929391	24186.102616	3630.976005	9587.481854
76.535000	0.306402	0.180995	0.324047	0.472546	5331.142625	23975.293661	3615.896674	9527.196123
77.035000	0.312543	0.181683	0.323003	0.470717	5377.086951	24097.552065	3617.344404	9555.342568
77.535000	0.312727	0.182958	0.328430	0.472031	5370.524125	24095.686701	3624.977885	9535.111810
78.038500	0.313781	0.184037	0.330405	0.474092	5364.682515	24047.842546	3624.815594	9503.490875
78.536000	0.310828	0.182905	0.327495	0.474778	5343.703736	23959.710065	3618.141264	9493.008859
79.036000	0.316078	0.185006	0.335338	0.475789	5368.160178	24012.500594	3630.869469	9477.574428
79.542500	0.312737	0.183151	0.337474	0.474071	5358.769558	24005.869271	3638.140876	9503.818393
80.037000	0.316661	0.182825	0.334817	0.475230	5374.791731	23933.999877	3630.941974	9486.110710
80.539500	0.315415	0.182782	0.331924	0.476145	5362.257993	23887.722842	3623.820913	9472.156276
81.035000	0.316862	0.183207	0.330038	0.477001	5365.677996	23866.927697	3618.733383	9459.134342
81.534500	0.319265	0.184341	0.332324	0.478279	5372.207224	23859.965007	3620.600423	9439.737179
82.035500	0.321634	0.183736	0.341509	0.479379	5379.582572	23778.010456	3635.731826	9423.087492
82.538000	0.318094	0.183317	0.335996	0.478809	5362.345297	23785.280437	3626.446942	9431.709622
83.036000	0.319498	0.182815	0.335453	0.478495	5372.299371	23776.202094	3626.017941	9436.457610
83.535500	0.319067	0.182934	0.336823	0.478942	5367.208967	23760.499845	3627.742984	9429.694250
84.036000	0.316931	0.181105	0.333056	0.477067	5365.699094	23762.703334	3624.212802	9458.126641
84.536000	0.320143	0.183230	0.336987	0.479133	5372.346359	23765.546268	3627.694665	9426.812739
85.037000	0.321366	0.183527	0.336353	0.478715	5381.889848	23799.838488	3627.288575	9433.128374
85.537000	0.318094	0.181404	0.332050	0.476973	5372.988125	23781.546432	3622.514509	9459.552793
86.037500	0.320870	0.183340	0.341039	0.478421	5380.716002	23805.020960	3636.654760	9437.585421
86.535000	0.317489	0.181303	0.333746	0.477132	5368.552432	23769.093413	3625.376986	9457.137529
87.035500	0.318780	0.181496	0.336588	0.477217	5375.551880	23774.253179	3630.536487	9455.842798
87.535500	0.317910	0.179887	0.336394	0.475744	5379.063783	23767.769423	3632.941560	9478.263815
88.036000	0.317016	0.179619	0.336456	0.476136	5371.588779	23736.161694	3632.321107	9472.298076
88.536000	0.315348	0.178694	0.327849	0.475172	5367.503145	23737.968885	3618.066057	9486.985693
89.036000	0.318241	0.179928	0.330607	0.476310	5377.699616	23742.603555	3621.067071	9469.646619
89.536500	0.317723	0.179944	0.337461	0.477362	5368.576098	23693.015986	3631.903070	9453.644687
90.037000	0.315549	0.178050	0.332952	0.475570	5366.364675	23688.139138	3626.812391	9480.921681
90.535000	0.316512	0.176998	0.329886	0.475405	5372.907293	23645.807285	3621.408403	9483.436211
91.037500	0.319567	0.178985	0.334799	0.477321	5379.532966	23649.212522	3626.991363	9454.275808
91.535500	0.318633	0.178444	0.335984	0.477106	5375.348811	23633.665676	3629.611608	9457.533151
92.035000	0.317697	0.177551	0.331065	0.477609	5366.992310	23567.231001	3619.506953	9449.890685
92.535500	0.313837	0.177168	0.333016	0.478016	5342.393423	23529.785370	3622.373028	9443.729391
93.083000	0.314401	0.176256	0.342678	0.477341	5349.510859	23518.499437	3641.812831	9453.961947
93.536500	0.314994	0.176277	0.330837	0.477518	5351.903710	23511.123933	3619.253980	9451.274784
94.037000	0.316550	0.176080	0.334839	0.479138	5351.532801	23425.233905	3623.674631	9426.726136
94.537000	0.312709	0.174654	0.330770	0.478608	5332.540242	23383.056283	3617.115702	9434.758443
95.037000	0.315219	0.175746	0.337920	0.479147	5343.829776	23409.076947	3629.415577	9426.595495
95.534500	0.311918	0.175584	0.333245	0.479995	5320.122860	23361.551434	3619.125806	9413.783283
