sample name	sample
index	814
start time	 03-31-2021  03:29:59 PM


Wavelength (nm)	Absorbance
494.344910	-0.445829
494.563924	-0.445829
494.782919	-0.445829
495.001897	-13.706657
495.220856	0.035993
495.439797	0.016404
495.658719	-0.165841
495.877624	-0.170746
496.096510	-0.628724
496.315378	-0.530165
496.534227	-0.602769
496.753059	-0.564970
496.971872	-0.289886
497.190667	0.049347
497.409444	0.066551
497.628203	0.068389
497.846943	0.067818
498.065665	0.070085
498.284369	0.069032
498.503055	0.069162
498.721723	0.069777
498.940372	0.069471
499.159003	0.069627
499.377616	0.067694
499.596210	0.068175
499.814787	0.068641
500.033345	0.067900
500.251885	0.068455
500.470406	0.068551
500.688910	0.067873
500.907395	0.067398
501.125862	0.067243
501.344311	0.068366
501.562742	0.068110
501.781154	0.067757
501.999548	0.068115
502.217924	0.068144
502.436282	0.067777
502.654621	0.067633
502.872942	0.068101
503.091245	0.067798
503.309530	0.066890
503.527797	0.067953
503.746045	0.068189
503.964275	0.068297
504.182487	0.069022
504.400681	0.069822
504.618856	0.070383
504.837013	0.070122
505.055152	0.070296
505.273273	0.071702
505.491376	0.070651
505.709460	0.071128
505.927526	0.071954
506.145574	0.070827
506.363604	0.070705
506.581615	0.070534
506.799608	0.069997
507.017583	0.070525
507.235540	0.069065
507.453478	0.069394
507.671399	0.069444
507.889301	0.068794
508.107185	0.069098
508.325050	0.068771
508.542898	0.069372
508.760727	0.070113
508.978538	0.069852
509.196330	0.070794
509.414105	0.071362
509.631861	0.071177
509.849599	0.071431
510.067319	0.071686
510.285021	0.072250
510.502704	0.072347
510.720369	0.072588
510.938016	0.072383
511.155645	0.072206
511.373255	0.070827
511.590848	0.070541
511.808422	0.070325
512.025977	0.070539
512.243515	0.070482
512.461034	0.070090
512.678536	0.070378
512.896018	0.070686
513.113483	0.071345
513.330930	0.071692
513.548358	0.071619
513.765768	0.071060
513.983160	0.071298
514.200533	0.070223
514.417889	0.070601
514.635226	0.070321
514.852545	0.070306
515.069845	0.070622
515.287128	0.071039
515.504392	0.070989
515.721638	0.071781
515.938866	0.072068
516.156075	0.072693
516.373267	0.072122
516.590440	0.072353
516.807594	0.072000
517.024731	0.071386
517.241850	0.071211
517.458950	0.071951
517.676032	0.072572
517.893095	0.072176
518.110141	0.071895
518.327168	0.071496
518.544177	0.071272
518.761168	0.071188
518.978141	0.070835
519.195095	0.071343
519.412031	0.071127
519.628949	0.071329
519.845849	0.071207
520.062731	0.071803
520.279594	0.072492
520.496439	0.072350
520.713266	0.072675
520.930074	0.073326
521.146865	0.072981
521.363637	0.072311
521.580391	0.072223
521.797127	0.072881
522.013844	0.072211
522.230543	0.073113
522.447224	0.073178
522.663887	0.073508
522.880532	0.073474
523.097158	0.073676
523.313766	0.074354
523.530356	0.074181
523.746928	0.073697
523.963481	0.074109
524.180017	0.074040
524.396534	0.074118
524.613032	0.074440
524.829513	0.074679
525.045975	0.075345
525.262420	0.075723
525.478845	0.076214
525.695253	0.076738
525.911643	0.076893
526.128014	0.076371
526.344367	0.076114
526.560702	0.076135
526.777018	0.076165
526.993316	0.075431
527.209597	0.075090
527.425858	0.074786
527.642102	0.074520
527.858328	0.074861
528.074535	0.074556
528.290724	0.075037
528.506894	0.074838
528.723047	0.074976
528.939181	0.075260
529.155297	0.075589
529.371395	0.075729
529.587475	0.075754
529.803536	0.075865
530.019579	0.077034
530.235604	0.077555
530.451611	0.077733
530.667600	0.077585
530.883570	0.077924
531.099522	0.078279
531.315456	0.078332
531.531372	0.078312
531.747269	0.078528
531.963148	0.078019
532.179009	0.078124
532.394852	0.079047
532.610676	0.079352
532.826482	0.079541
533.042271	0.079719
533.258040	0.079866
533.473792	0.080698
533.689525	0.080478
533.905240	0.081016
534.120937	0.080747
534.336616	0.080522
534.552277	0.080789
534.767919	0.081153
534.983543	0.081283
535.199149	0.081201
535.414736	0.081085
535.630306	0.081929
535.845857	0.082144
536.061390	0.082580
536.276904	0.082258
536.492401	0.081889
536.707879	0.081619
536.923339	0.081575
537.138781	0.081758
537.354204	0.081739
537.569610	0.081835
537.784997	0.081873
538.000366	0.082076
538.215716	0.082958
538.431049	0.083927
538.646363	0.084256
538.861659	0.084598
539.076937	0.084599
539.292196	0.084511
539.507438	0.084498
539.722661	0.084306
539.937866	0.084935
540.153052	0.084810
540.368221	0.084851
540.583371	0.084924
540.798503	0.084839
541.013617	0.085388
541.228712	0.085499
541.443789	0.085358
541.658848	0.085418
541.873889	0.084935
542.088912	0.085123
542.303916	0.085061
542.518902	0.085402
542.733870	0.085739
542.948820	0.085611
543.163752	0.085863
543.378665	0.086237
543.593560	0.087103
543.808437	0.086893
544.023295	0.086830
544.238136	0.086724
544.452958	0.086360
544.667762	0.085990
544.882548	0.086867
545.097315	0.087515
545.312064	0.087325
545.526795	0.087102
545.741508	0.087719
545.956203	0.088611
546.170879	0.088859
546.385537	0.089177
546.600177	0.089670
546.814799	0.089092
547.029402	0.089368
547.243988	0.089875
547.458555	0.090298
547.673103	0.090278
547.887634	0.089802
548.102146	0.090029
548.316640	0.090194
548.531116	0.090430
548.745574	0.091304
548.960013	0.090896
549.174435	0.091160
549.388838	0.091335
549.603222	0.091823
549.817589	0.091694
550.031937	0.092146
550.246267	0.092327
550.460579	0.092396
550.674873	0.092262
550.889148	0.092646
551.103405	0.092695
551.317644	0.092409
551.531865	0.092076
551.746068	0.092127
551.960252	0.091979
552.174418	0.092168
552.388566	0.092361
552.602696	0.092716
552.816807	0.092662
553.030900	0.092224
553.244975	0.092239
553.459032	0.092716
553.673070	0.092886
553.887091	0.093376
554.101093	0.093316
554.315077	0.093793
554.529042	0.093558
554.742990	0.094025
554.956919	0.094935
555.170830	0.095001
555.384722	0.095395
555.598597	0.095798
555.812453	0.095418
556.026291	0.095688
556.240111	0.095756
556.453913	0.095621
556.667696	0.095370
556.881461	0.095154
557.095208	0.095628
557.308937	0.095460
557.522647	0.095757
557.736339	0.095574
557.950013	0.095784
558.163669	0.095235
558.377307	0.095195
558.590926	0.095405
558.804527	0.095553
559.018110	0.095437
559.231675	0.095166
559.445221	0.095090
559.658749	0.095398
559.872259	0.095637
560.085751	0.096199
560.299225	0.096607
560.512680	0.096902
560.726117	0.096990
560.939536	0.097208
561.152937	0.097723
561.366319	0.097661
561.579683	0.097753
561.793029	0.097332
562.006357	0.097488
562.219667	0.097352
562.432958	0.097362
562.646231	0.097385
562.859486	0.097187
563.072723	0.097211
563.285941	0.097711
563.499141	0.097850
563.712323	0.098183
563.925487	0.098034
564.138632	0.098407
564.351760	0.098469
564.564869	0.098591
564.777960	0.098835
564.991032	0.098975
565.204087	0.098722
565.417123	0.099097
565.630141	0.099572
565.843140	0.099785
566.056122	0.099864
566.269085	0.100076
566.482030	0.100355
566.694957	0.100464
566.907866	0.100742
567.120756	0.101355
567.333628	0.101596
567.546482	0.101202
567.759318	0.101422
567.972135	0.101443
568.184935	0.101622
568.397716	0.101638
568.610478	0.102163
568.823223	0.101923
569.035949	0.101733
569.248657	0.101887
569.461347	0.102385
569.674019	0.102295
569.886672	0.102347
570.099308	0.102177
570.311925	0.102378
570.524523	0.102431
570.737104	0.102619
570.949666	0.102733
571.162210	0.102650
571.374736	0.102614
571.587244	0.102988
571.799733	0.103227
572.012205	0.103536
572.224658	0.103509
572.437092	0.103433
572.649509	0.103874
572.861907	0.104095
573.074287	0.104223
573.286649	0.104419
573.498993	0.104664
573.711318	0.104890
573.923625	0.105230
574.135914	0.105609
574.348185	0.105852
574.560438	0.106001
574.772672	0.105935
574.984888	0.105850
575.197086	0.106083
575.409266	0.106151
575.621427	0.106449
575.833570	0.106136
576.045695	0.106004
576.257802	0.105952
576.469890	0.106096
576.681961	0.106269
576.894013	0.106490
577.106046	0.106499
577.318062	0.106343
577.530059	0.106025
577.742039	0.106436
577.954000	0.106617
578.165942	0.106885
578.377867	0.106690
578.589773	0.106345
578.801661	0.106410
579.013531	0.106473
579.225382	0.106562
579.437216	0.106853
579.649031	0.106666
579.860828	0.106806
580.072606	0.107050
580.284367	0.107001
580.496109	0.107479
580.707833	0.107606
580.919539	0.107711
581.131227	0.108011
581.342896	0.108031
581.554547	0.108310
581.766180	0.108283
581.977795	0.108452
582.189391	0.109080
582.400969	0.109546
582.612529	0.109588
582.824071	0.110173
583.035595	0.110285
583.247100	0.110469
583.458587	0.110864
583.670056	0.111196
583.881506	0.110987
584.092939	0.110728
584.304353	0.110698
584.515749	0.111119
584.727127	0.110945
584.938486	0.111157
585.149828	0.111375
585.361151	0.111244
585.572456	0.111344
585.783742	0.111265
585.995011	0.111352
586.206261	0.111194
586.417493	0.111086
586.628706	0.111141
586.839902	0.111293
587.051079	0.111460
587.262238	0.111744
587.473379	0.111605
587.684502	0.111945
587.895606	0.111954
588.106692	0.112455
588.317760	0.112654
588.528810	0.112763
588.739841	0.112517
588.950855	0.112552
589.161850	0.112631
589.372827	0.112914
589.583785	0.113041
589.794726	0.113694
590.005648	0.113744
590.216552	0.114220
590.427437	0.114176
590.638305	0.114533
590.849154	0.114638
591.059985	0.114387
591.270798	0.114517
591.481592	0.114577
591.692369	0.114558
591.903127	0.114559
592.113867	0.114431
592.324588	0.115007
592.535292	0.115145
592.745977	0.115435
592.956644	0.115905
593.167293	0.116157
593.377923	0.116449
593.588536	0.116345
593.799130	0.116668
594.009706	0.116349
594.220263	0.116264
594.430803	0.116468
594.641324	0.116426
594.851827	0.116206
595.062312	0.116273
595.272778	0.116158
595.483227	0.116377
595.693657	0.116444
595.904069	0.116965
596.114462	0.116922
596.324838	0.116625
596.535195	0.116672
596.745534	0.116767
596.955855	0.116665
597.166157	0.117209
597.376441	0.117196
597.586707	0.117206
597.796955	0.117447
598.007185	0.117589
598.217396	0.118079
598.427589	0.118481
598.637764	0.118887
598.847921	0.119129
599.058060	0.119098
599.268180	0.119114
599.478282	0.119178
599.688366	0.119124
599.898431	0.119433
600.108479	0.119258
600.318508	0.119036
600.528519	0.119113
600.738511	0.118943
600.948486	0.118739
601.158442	0.118988
601.368380	0.118841
601.578300	0.119039
601.788202	0.119165
601.998085	0.119498
602.207950	0.119668
602.417797	0.119795
602.627626	0.119962
602.837436	0.120156
603.047228	0.120155
603.257002	0.120578
603.466758	0.120694
603.676496	0.120492
603.886215	0.120480
604.095916	0.120616
604.305599	0.120467
604.515264	0.120938
604.724910	0.120989
604.934538	0.121428
605.144148	0.121280
605.353740	0.121275
605.563314	0.121367
605.772869	0.121368
605.982406	0.121587
606.191925	0.121735
606.401425	0.121843
606.610908	0.122141
606.820372	0.122047
607.029818	0.122492
607.239246	0.122611
607.448655	0.123099
607.658047	0.123276
607.867420	0.122831
608.076775	0.122943
608.286111	0.123008
608.495430	0.123153
608.704730	0.123401
608.914012	0.123571
609.123275	0.123785
609.332521	0.123693
609.541748	0.123817
609.750957	0.124371
609.960148	0.124694
610.169321	0.124632
610.378475	0.124753
610.587611	0.124903
610.796729	0.124765
611.005829	0.124994
611.214910	0.124848
611.423974	0.124685
611.633019	0.124853
611.842045	0.124909
612.051054	0.125001
612.260044	0.124938
612.469017	0.124812
612.677970	0.124751
612.886906	0.124541
613.095824	0.124727
613.304723	0.125119
613.513604	0.125328
613.722467	0.125536
613.931311	0.125681
614.140138	0.126001
614.348946	0.125943
614.557736	0.126473
614.766507	0.126829
614.975261	0.127199
615.183996	0.127255
615.392713	0.127143
615.601412	0.127179
615.810092	0.127413
616.018754	0.127474
616.227399	0.127868
616.436024	0.127839
616.644632	0.127760
616.853222	0.127973
617.061793	0.128063
617.270346	0.128313
617.478880	0.128449
617.687397	0.128580
617.895895	0.128598
618.104375	0.128667
618.312837	0.128792
618.521281	0.129070
618.729706	0.128795
618.938113	0.128963
619.146502	0.128830
619.354873	0.128868
619.563226	0.128850
619.771560	0.129242
619.979876	0.129326
620.188174	0.129382
620.396453	0.129273
620.604715	0.129431
620.812958	0.129607
621.021183	0.129878
621.229390	0.129894
621.437578	0.129990
621.645748	0.129842
621.853900	0.129957
622.062034	0.129840
622.270150	0.130133
622.478247	0.130453
622.686326	0.130653
622.894387	0.130739
623.102430	0.130945
623.310454	0.131215
623.518461	0.131446
623.726449	0.131733
623.934418	0.132047
624.142370	0.132047
624.350303	0.132148
624.558218	0.132050
624.766115	0.132343
624.973994	0.132468
625.181855	0.132382
625.389697	0.132357
625.597521	0.132285
625.805327	0.132349
626.013114	0.132565
626.220883	0.132381
626.428634	0.132621
626.636367	0.132305
626.844082	0.132315
627.051778	0.132497
627.259457	0.132664
627.467117	0.132423
627.674758	0.132613
627.882382	0.132434
628.089987	0.132630
628.297574	0.132751
628.505143	0.133157
628.712694	0.133338
628.920226	0.133727
629.127740	0.133882
629.335236	0.134299
629.542714	0.134143
629.750174	0.134450
629.957615	0.134529
630.165038	0.134469
630.372443	0.134445
630.579829	0.134478
630.787198	0.134034
630.994548	0.134040
631.201880	0.134225
631.409194	0.134446
631.616489	0.134667
631.823766	0.134652
632.031025	0.134832
632.238266	0.135027
632.445489	0.135160
632.652693	0.135576
632.859879	0.135643
633.067047	0.135622
633.274197	0.135928
633.481329	0.135889
633.688442	0.136269
633.895537	0.136250
634.102614	0.136414
634.309672	0.136504
634.516713	0.136314
634.723735	0.136392
634.930739	0.136580
635.137724	0.136687
635.344692	0.136887
635.551641	0.136922
635.758572	0.137042
635.965485	0.136967
636.172379	0.136891
636.379256	0.137018
636.586114	0.137150
636.792954	0.137375
636.999775	0.137183
637.206579	0.137115
637.413364	0.137107
637.620131	0.137348
637.826880	0.137576
638.033610	0.137934
638.240323	0.138227
638.447017	0.138355
638.653692	0.138383
638.860350	0.138594
639.066990	0.138700
639.273611	0.138824
639.480214	0.138780
639.686798	0.138681
639.893365	0.138605
640.099913	0.138627
640.306443	0.138744
640.512955	0.138781
640.719449	0.139058
640.925924	0.139196
641.132381	0.139458
641.338820	0.139754
641.545241	0.139950
641.751644	0.140285
641.958028	0.140714
642.164394	0.140744
642.370742	0.140625
642.577071	0.140701
642.783383	0.141147
642.989676	0.141000
643.195951	0.141112
643.402207	0.141083
643.608446	0.140972
643.814666	0.140736
644.020868	0.140697
644.227052	0.140875
644.433218	0.140838
644.639365	0.140586
644.845494	0.140910
645.051605	0.140927
645.257698	0.141200
645.463772	0.141405
645.669828	0.141750
645.875866	0.141904
646.081886	0.141900
646.287888	0.141885
646.493871	0.142278
646.699836	0.142542
646.905783	0.142607
647.111712	0.142938
647.317622	0.143237
647.523514	0.143187
647.729388	0.143408
647.935244	0.143799
648.141082	0.143980
648.346901	0.143698
648.552702	0.143591
648.758485	0.143570
648.964250	0.143376
649.169996	0.143106
649.375724	0.143078
649.581434	0.143360
649.787126	0.143521
649.992800	0.143456
650.198455	0.143779
650.404092	0.144105
650.609711	0.144332
650.815311	0.144445
651.020894	0.144791
651.226458	0.144879
651.432004	0.144937
651.637532	0.144834
651.843041	0.145265
652.048532	0.145289
652.254006	0.145152
652.459460	0.145238
652.664897	0.145547
652.870315	0.145775
653.075716	0.145905
653.281097	0.146004
653.486461	0.146136
653.691807	0.146460
653.897134	0.146524
654.102443	0.146812
654.307734	0.147015
654.513006	0.147059
654.718261	0.147217
654.923497	0.147834
655.128715	0.148143
655.333915	0.148543
655.539096	0.148370
655.744259	0.148468
655.949404	0.148535
656.154531	0.148807
656.359640	0.148960
656.564730	0.148894
656.769802	0.148795
656.974856	0.148559
657.179892	0.148559
657.384909	0.148801
657.589908	0.148977
657.794889	0.148948
657.999852	0.148954
658.204797	0.149259
658.409723	0.149476
658.614631	0.149363
658.819521	0.149512
659.024393	0.149708
659.229246	0.149740
659.434081	0.150052
659.638898	0.150218
659.843697	0.150240
660.048478	0.150093
660.253240	0.149985
660.457984	0.150041
660.662710	0.150113
660.867417	0.150027
661.072107	0.150261
661.276778	0.149995
661.481431	0.150212
661.686066	0.150302
661.890682	0.150365
662.095281	0.150511
662.299861	0.150774
662.504422	0.151096
662.708966	0.151120
662.913491	0.151254
663.117999	0.151673
663.322488	0.151887
663.526958	0.152192
663.731411	0.152298
663.935845	0.152858
664.140261	0.153262
664.344659	0.153296
664.549038	0.153673
664.753400	0.153727
664.957743	0.154021
665.162068	0.154138
665.366375	0.154343
665.570663	0.154655
665.774933	0.154485
665.979185	0.154434
666.183419	0.154538
666.387635	0.154750
666.591832	0.154925
666.796011	0.154944
667.000172	0.155151
667.204315	0.155218
667.408439	0.155238
667.612545	0.155284
667.816634	0.155285
668.020703	0.155701
668.224755	0.155735
668.428788	0.155727
668.632803	0.155789
668.836800	0.155680
669.040779	0.155724
669.244739	0.155981
669.448681	0.156268
669.652605	0.156424
669.856511	0.156505
670.060399	0.156560
670.264268	0.156756
670.468119	0.156812
670.671952	0.157140
670.875767	0.157294
671.079563	0.157445
671.283341	0.157671
671.487101	0.157901
671.690843	0.158096
671.894567	0.158276
672.098272	0.158544
672.301959	0.158597
672.505628	0.158383
672.709278	0.158805
672.912911	0.158980
673.116525	0.159072
673.320121	0.159143
673.523699	0.159165
673.727258	0.159394
673.930799	0.159332
674.134322	0.159600
674.337827	0.159975
674.541314	0.159799
674.744782	0.159855
674.948232	0.159827
675.151664	0.159989
675.355078	0.159922
675.558474	0.160001
675.761851	0.160089
675.965210	0.160105
676.168551	0.160183
676.371873	0.160429
676.575178	0.160440
676.778464	0.160605
676.981732	0.160788
677.184981	0.161063
677.388213	0.161293
677.591426	0.161343
677.794621	0.161633
677.997798	0.161814
678.200956	0.161795
678.404097	0.161944
678.607219	0.162263
678.810323	0.162455
679.013408	0.162571
679.216476	0.162587
679.419525	0.162918
679.622556	0.163158
679.825569	0.163279
680.028563	0.163352
680.231540	0.163602
680.434498	0.163618
680.637438	0.163344
680.840359	0.163490
681.043263	0.163635
681.246148	0.163735
681.449015	0.163931
681.651864	0.163957
681.854694	0.164269
682.057506	0.164249
682.260301	0.164378
682.463076	0.164883
682.665834	0.164759
682.868573	0.165031
683.071295	0.165177
683.273998	0.165187
683.476682	0.165573
683.679349	0.165614
683.881997	0.165811
684.084627	0.165840
684.287239	0.165891
684.489833	0.166247
684.692408	0.166136
684.894965	0.166191
685.097504	0.166143
685.300025	0.166035
685.502527	0.165872
685.705012	0.165929
685.907478	0.166118
686.109925	0.166300
686.312355	0.166405
686.514766	0.166570
686.717159	0.166763
686.919534	0.166776
687.121891	0.166600
687.324230	0.166963
687.526550	0.167008
687.728852	0.166985
687.931136	0.166914
688.133401	0.166932
688.335649	0.167099
688.537878	0.167303
688.740089	0.167488
688.942281	0.167991
689.144456	0.168007
689.346612	0.168334
689.548750	0.168528
689.750870	0.168757
689.952971	0.168884
690.155055	0.169022
690.357120	0.168978
690.559167	0.169322
690.761195	0.169511
690.963206	0.169732
691.165198	0.169813
691.367172	0.169879
691.569128	0.169866
691.771065	0.169926
691.972984	0.169985
692.174885	0.170338
692.376768	0.170306
692.578633	0.170178
692.780479	0.170152
692.982308	0.170321
693.184118	0.170416
693.385909	0.170622
