sample name	sample
index	1456
start time	 05-10-2021  01:41:19 PM
880	0.348883
Peak Time (s)	92.037
Peak Height 	0.3489
calc peak height	90,93
Baseline Time (s)	10.537
Baseline Value 	-0.002892
subtract baseline	10,4
Abs	0.243507
Peak Time (s)	92.037
Peak Height 	0.2435
calc peak height	90,93
Baseline Time (s)	9.037
Baseline Value 	-2.8987E-5
subtract baseline	10,3
PK_550	0.133562
Peak Time (s)	90.537
Peak Height 	0.1336
calc peak height	90,93
Baseline Time (s)	10.037
Baseline Value 	2.3216E-4
subtract baseline	10,2
PK_880	0.223539
Peak Time (s)	90.537
Peak Height 	0.2235
calc peak height	90,93
Baseline Time (s)	11.535
Baseline Value 	8.9482E-4
subtract baseline	10,1


Time (s)	A880-A510	A880-A775	A880-A975	A880	I510	I775	I975	I880	
0.039500	-0.001672	-0.000341	0.002794	0.006146	6438.832588	43508.910064	3939.256993	22417.231820
0.536500	-0.002932	-0.000639	0.000278	0.003599	6449.486138	43719.564476	3939.337916	22532.296511
1.037000	-0.002777	-0.001083	-0.005166	0.002908	6456.502138	43742.752662	3927.101748	22563.618173
1.541500	-0.001520	-0.000318	0.000116	0.001263	6480.682535	43969.846603	3944.980297	22638.415970
2.035000	-0.003186	-0.000087	-0.003312	0.004872	6436.846813	43651.904194	3926.821285	22474.700769
2.535000	-0.000356	0.000101	0.003255	0.001332	6489.848445	44002.916567	3952.993099	22635.270380
3.035500	-0.000354	0.000700	0.001614	-0.001481	6513.507781	44326.707058	3956.066102	22763.751658
3.536000	-0.001410	-0.000599	-0.001177	-0.000733	6498.320858	44132.164688	3946.809018	22729.512383
4.036500	-0.001588	0.000355	0.000520	0.006382	6437.580825	43551.914487	3932.779745	22406.632673
4.536000	0.000094	0.000339	0.000014	0.000617	6499.622623	44093.115079	3946.394890	22667.851159
5.036500	0.000053	0.000804	0.002835	0.000613	6499.305026	44137.530504	3953.776894	22668.026497
5.537000	0.000536	-0.000245	0.009022	-0.000261	6510.725592	44120.929860	3972.437120	22707.921744
6.040000	-0.000488	0.000598	-0.001185	0.000303	6497.367868	44147.429568	3944.092307	22682.169024
6.535000	0.000948	-0.000134	0.000733	-0.000014	6512.111647	44108.024951	3949.913350	22696.620989
7.034500	-0.000153	0.000598	0.004837	0.000104	6501.855243	44166.295829	3960.375638	22691.234725
7.535000	-0.000653	-0.000075	-0.002723	-0.000148	6499.764178	44126.299851	3941.267321	22702.742429
8.036000	-0.000099	0.000443	0.000828	0.000289	6500.752100	44133.995317	3949.371116	22682.798372
8.536500	-0.000613	0.000094	0.006414	0.000328	6496.109781	44097.202809	3963.950594	22681.012426
9.036500	0.000475	0.000402	0.000000	-0.000018	6508.165690	44159.330410	3948.013018	22696.833812
9.536500	-0.001118	-0.000279	0.002214	-0.000350	6497.556707	44126.125112	3954.671047	22711.976432
10.037000	0.000729	0.000000	-0.000482	0.000040	6509.815686	44115.623443	3946.604967	22694.160786
10.537000	0.000618	-0.000039	-0.001878	0.000000	6509.219078	44115.715015	3943.077865	22696.002745
11.037000	-0.000123	-0.000003	0.003023	-0.000377	6506.152790	44154.953297	3956.867696	22713.227637
11.535000	0.000000	0.000476	-0.000139	0.000337	6501.181163	44132.624359	3946.724120	22680.610640
12.035000	-0.001290	0.000265	-0.000516	-0.000676	6498.849529	44208.756150	3948.382598	22726.883036
12.535000	0.000007	0.000274	-0.002282	-0.000536	6508.583340	44196.233257	3943.420850	22720.480524
13.036000	0.000312	0.000424	0.002781	0.000497	6502.459360	44112.560543	3953.937671	22673.312387
13.536000	0.001129	0.001102	0.001343	0.001095	6504.305902	44120.080207	3948.612282	22646.053892
14.036500	-0.002857	0.000452	-0.000785	0.004078	6446.136640	43777.121860	3935.353031	22510.609157
14.537000	-0.000223	-0.000045	0.000578	0.002105	6484.486591	43916.061054	3943.990574	22600.089973
15.037000	0.002171	0.000463	0.001036	0.000493	6518.156820	44116.614545	3949.382391	22673.495064
15.537500	-0.000130	-0.000496	0.003192	-0.000143	6504.125709	44086.011341	3956.698570	22702.541314
16.037500	-0.000936	-0.000160	-0.000864	0.003152	6469.790985	43806.630049	3937.539318	22552.561768
16.535000	0.001488	0.000070	0.003036	0.000587	6511.607088	44070.445342	3954.371269	22669.208909
17.035000	0.001901	0.000932	0.003376	-0.002601	6542.093486	44455.805251	3963.661936	22815.183578
17.535500	-0.001880	-0.000277	-0.002069	0.000402	6484.873607	44055.174328	3941.539522	22677.657986
18.036000	-0.001833	0.000428	-0.000965	0.002731	6465.821758	43901.660731	3938.367575	22571.654573
18.536500	0.000473	0.000468	0.000597	0.001447	6495.831068	44026.734713	3945.749512	22630.009068
19.036500	-0.001883	-0.000058	0.003853	0.000828	6481.279735	44035.511204	3955.883464	22658.213354
19.536500	-0.001608	0.000126	0.003179	0.001089	6481.395450	44028.232124	3953.430313	22646.311173
20.037000	-0.003360	-0.000414	0.001929	0.001777	6461.049593	43912.173075	3948.361408	22614.979552
20.537000	-0.002330	-0.000070	0.001370	0.001158	6474.791566	44003.195640	3948.519947	22643.200260
21.034500	-0.003370	0.000817	0.004844	0.001396	6464.144341	44064.645837	3956.994062	22632.348918
21.535000	-0.000470	0.000558	0.003304	0.001414	6488.202205	44038.338812	3952.904759	22631.512558
22.035500	-0.001592	0.000296	0.000876	0.003065	6465.041153	43857.645833	3942.268680	22556.471197
22.535500	-0.001189	-0.000407	0.002637	0.000777	6487.514588	44007.302359	3952.826918	22660.542557
23.035500	-0.002085	0.000506	0.005117	0.001267	6475.917436	44047.311045	3958.050281	22638.191660
23.539000	-0.001910	0.000539	0.006024	0.001371	6476.516662	44040.675493	3960.166611	22633.479470
24.036500	-0.000716	0.000288	0.003048	0.001347	6486.698607	44019.139645	3952.409398	22634.557950
24.537000	-0.002178	0.000034	-0.003523	0.000631	6480.459703	44062.866644	3937.183647	22667.195522
25.039500	-0.002635	0.000126	0.000170	0.000915	6474.271690	44044.693735	3946.024794	22654.254654
25.534500	-0.001922	0.000106	0.002439	0.000815	6481.059423	44052.228176	3952.207601	22658.798243
26.034500	0.000014	-0.000050	0.000900	0.001207	6493.991937	44000.430197	3947.164776	22640.933235
26.535500	-0.001058	0.000515	-0.002326	0.001309	6484.156394	44044.273431	3938.524307	22636.304371
27.036000	0.000702	-0.000279	0.003149	-0.001893	6525.907425	44272.695665	3961.190676	22782.641362
27.536000	-0.000489	0.000213	0.004211	-0.000841	6506.976330	44219.517830	3961.218321	22734.453548
28.039000	-0.001470	0.000037	-0.001811	0.002264	6472.740225	43908.803361	3937.386941	22592.868004
28.536500	0.000781	0.000296	0.005553	0.000480	6506.549194	44101.985449	3961.273698	22674.089821
29.036500	0.000683	0.000322	-0.002245	0.000250	6507.663503	44126.337076	3941.476864	22684.600502
29.537000	-0.000674	-0.000146	0.003906	-0.000382	6501.555729	44141.772063	3959.203793	22713.446714
30.037500	-0.003303	-0.000739	0.000993	0.005518	6430.554844	43530.366370	3936.223067	22445.527283
30.535000	0.000816	0.000186	0.000193	0.002217	6492.247325	43927.281581	3942.697699	22594.985500
31.035500	-0.000006	-0.000160	0.000952	0.001841	6488.506265	43930.098972	3945.648449	22612.079628
31.535500	0.000851	0.000428	-0.001475	0.000153	6509.888464	44145.515809	3943.725585	22688.992697
32.035000	-0.004014	0.001064	0.005310	0.005810	6422.295184	43671.854448	3946.661307	22432.387341
32.539000	-0.001342	0.000338	0.001240	-0.000111	6493.669497	44161.986850	3951.494521	22701.065915
33.036500	0.000359	0.001234	0.002059	0.000818	6500.158359	44158.974506	3951.207516	22658.691126
33.537000	0.003564	0.001038	0.005097	-0.001204	6544.348043	44332.558272	3964.519423	22751.059318
34.037000	0.000185	0.000583	0.003981	0.004219	6470.238824	43776.115158	3947.346295	22504.232277
34.537000	0.000832	-0.000002	0.003550	0.001501	6498.394378	43977.151886	3953.322417	22627.557404
35.034500	-0.000910	-0.001104	0.003069	0.000603	6491.314444	43957.890224	3954.417023	22668.487695
35.535000	-0.000911	0.000635	0.002711	0.001889	6480.533618	44000.675358	3950.111928	22609.895892
36.035000	-0.002280	0.000057	-0.002376	0.002441	6464.512681	43893.941022	3935.469947	22584.798273
36.535500	-0.000384	0.000274	-0.000762	0.001544	6487.829863	43999.195379	3941.966424	22625.609204
37.035500	-0.001560	0.000157	0.000978	0.001442	6478.850915	43997.745101	3946.757102	22630.247003
37.536500	-0.000215	0.000114	0.003921	0.001023	6493.618459	44033.342799	3955.548139	22649.328260
38.038500	-0.001790	-0.000063	0.002413	0.002256	6470.135609	43900.094893	3948.373733	22593.217693
38.536500	-0.003855	-0.000301	0.002037	0.000973	6463.625404	43998.858793	3950.744844	22651.602387
39.037000	-0.001465	0.000449	0.003383	0.001254	6481.207747	44043.170854	3953.532407	22638.797241
39.537000	-0.000588	0.000965	0.007313	0.001612	6485.558902	44058.184127	3962.932847	22622.525006
40.035000	-0.000894	0.000141	0.002357	0.001587	6483.205924	43982.618008	3949.976989	22623.661455
40.535000	-0.003104	-0.000365	0.008070	0.001192	6468.046670	43972.034235	3966.046869	22641.610142
41.035500	-0.002003	-0.000041	-0.002493	0.000947	6479.286450	44025.935946	3939.028739	22652.804436
41.536000	-0.002353	0.000263	0.002278	0.001508	6471.681699	44001.589940	3949.977213	22627.245169
42.036000	-0.002019	0.000262	0.001371	0.003282	6459.693479	43834.129777	3942.993104	22546.666777
42.536000	-0.000533	-0.000320	-0.000043	0.001244	6489.097437	43971.354231	3944.611767	22639.240422
43.036000	-0.000548	-0.000138	0.004189	0.001584	6486.123097	43956.500041	3954.780216	22623.796573
43.536500	-0.001225	-0.000182	0.002769	0.000990	6485.430687	44008.490081	3952.614294	22650.842190
44.037000	-0.001694	0.000472	0.000486	0.003286	6462.358620	43853.475467	3940.684807	22546.461386
44.537500	-0.000592	0.000199	0.001072	0.000059	6498.548681	44132.790986	3950.610284	22693.321990
45.034500	0.001134	-0.000264	-0.001401	-0.000580	6518.463943	44149.375499	3945.825011	22722.494307
45.535500	0.001327	0.000445	0.002236	0.000103	6514.321835	44151.890452	3953.540601	22691.277380
46.035000	-0.002304	-0.000572	0.001357	0.004096	6450.565218	43679.199282	3940.844930	22509.783354
46.536000	0.000744	0.000398	0.008538	0.000360	6507.250646	44123.057249	3969.496801	22679.566569
47.036000	-0.000916	0.000311	0.004475	-0.000248	6498.403618	44172.535248	3960.352193	22707.335593
47.536500	-0.000234	0.000404	0.003072	0.002327	6482.535253	43937.547866	3949.911766	22590.013562
48.037000	-0.005230	-0.000037	-0.000691	0.004374	6424.099680	43703.244425	3934.829956	22497.193229
48.537000	-0.000056	-0.000138	-0.000597	-0.000045	6503.917799	44110.631348	3946.525318	22698.048531
49.037500	0.000264	0.000384	0.003897	0.000276	6503.916909	44129.637411	3957.448024	22683.392045
49.534500	0.002871	0.000718	0.004697	-0.002274	6547.556776	44404.057883	3966.294128	22800.134175
50.038000	-0.000709	0.000179	0.002908	0.003666	6467.396899	43790.075017	3945.990005	22529.242665
50.535500	0.001045	0.000274	0.006911	0.000317	6510.140003	44115.356345	3965.292545	22681.506802
51.035500	0.002295	0.000370	0.005092	0.002760	6500.104899	43893.408438	3954.063073	22570.332621
51.535500	0.033324	-0.029555	0.135467	0.523425	4032.403122	14466.624918	3278.879433	8802.155051
52.036500	-0.008410	-0.028483	-0.004925	-0.021867	6618.994827	43496.804435	3993.024117	23720.397351
52.536500	-0.011442	-0.077191	-0.027994	-0.250034	9179.109629	64248.878145	4703.927586	38137.993025
53.037000	-0.009987	-0.128809	-0.026417	-0.310669	10151.776026	65535.000000	4994.810876	43424.041177
53.537000	0.002130	-0.072793	-0.012838	-0.246783	9331.322148	64411.013782	4756.419342	37874.921664
54.034500	0.003434	-0.027855	0.001866	-0.146595	8011.620517	57067.812012	4409.586997	30660.963599
54.538000	0.004624	-0.017958	0.009660	-0.085961	7351.384760	51099.602278	4226.941586	27038.052634
55.035000	0.005577	-0.021687	0.003832	-0.150158	8079.872957	58294.272073	4430.016076	30889.985861
55.535500	0.017292	-0.016431	0.009369	-0.154908	8281.946856	59584.389814	4468.717691	31198.246631
56.038000	0.031699	-0.008273	0.036532	-0.092496	7713.555729	52932.394437	4339.820020	27404.675566
56.536500	0.043276	0.001899	0.052001	-0.024734	7123.404478	46723.824676	4166.870607	23858.607611
57.036000	0.057054	0.013823	0.065467	0.032932	6712.696869	42346.831006	4036.081022	21247.366063
57.537000	0.073782	0.026202	0.086736	0.086216	6400.895099	38804.683404	3949.322883	19124.124528
58.037000	0.090461	0.036650	0.105206	0.129437	6190.398591	36197.840330	3886.497100	17583.276553
58.537500	0.099663	0.042975	0.109770	0.159111	6036.607669	34456.980228	3826.317554	16610.766757
59.037500	0.112186	0.050395	0.128005	0.189908	5905.328523	32805.397556	3797.493613	15669.327635
59.535000	0.128930	0.059131	0.152334	0.221718	5801.163500	31259.993784	3780.718089	14764.518321
60.035500	0.142155	0.068127	0.168559	0.242932	5747.382498	30474.441968	3769.690363	14196.917570
60.538000	0.153812	0.075425	0.174591	0.254721	5746.496506	30191.110074	3757.122108	13893.258474
61.038500	0.161809	0.083042	0.178086	0.254707	5800.417531	30674.192335	3764.762112	13893.617488
61.536000	0.171713	0.087734	0.195064	0.275049	5730.357433	29692.579955	3757.436758	13388.654531
62.036500	0.169423	0.093492	0.195217	0.311479	5484.710566	27868.407347	3681.935133	12541.383501
62.539500	0.176670	0.098378	0.194278	0.297625	5615.857100	28967.537771	3708.094038	12855.236744
63.040000	0.178288	0.102606	0.198694	0.299566	5613.805414	29105.030385	3713.197800	12810.669916
63.534000	0.187034	0.104893	0.197134	0.298927	5674.170734	29281.939334	3711.295506	12825.328777
64.035000	0.186150	0.107692	0.207851	0.300015	5661.379627	29385.873693	3731.382289	12800.387273
64.535500	0.188299	0.109335	0.207945	0.300893	5669.617597	29432.499565	3729.730869	12780.297475
65.035500	0.192058	0.111297	0.210363	0.302593	5683.014056	29448.524191	3731.243511	12741.547399
65.535500	0.192576	0.113023	0.210001	0.303737	5678.934648	29484.003658	3728.071341	12715.534274
66.036500	0.194995	0.115759	0.213132	0.312067	5640.694976	29144.294723	3717.210778	12528.274636
66.536500	0.200359	0.116444	0.211764	0.308151	5700.959058	29423.411078	3722.516113	12615.856760
67.036000	0.197845	0.117203	0.209764	0.308055	5685.135902	29475.612497	3718.548735	12618.024671
67.537000	0.202224	0.119096	0.213574	0.311285	5692.644406	29394.004440	3719.754629	12545.699680
68.037500	0.202860	0.119728	0.213100	0.312463	5689.103549	29360.822579	3716.322788	12519.470127
68.534500	0.204149	0.121442	0.214258	0.313635	5689.867700	29393.822431	3716.292733	12493.432003
69.035000	0.206288	0.122327	0.216341	0.315607	5690.958837	29327.714638	3716.523466	12449.784472
69.535000	0.211506	0.122366	0.219663	0.317191	5714.821242	29233.926117	3720.135690	12414.847598
70.035500	0.207294	0.122769	0.224041	0.324843	5637.636840	28798.766710	3713.341536	12247.961627
70.536000	0.207106	0.123282	0.228208	0.320496	5664.457131	29089.721760	3731.121500	12342.414648
71.036000	0.209492	0.124157	0.224248	0.323674	5659.329967	28951.436404	3716.191533	12273.259045
71.536000	0.211933	0.124774	0.218078	0.325743	5661.734132	28864.553150	3699.260930	12228.509388
72.037000	0.211240	0.124861	0.229144	0.327387	5646.647904	28771.818610	3718.648816	12193.116372
72.539500	0.215674	0.127025	0.229909	0.330606	5654.481713	28709.160842	3713.559341	12124.180778
73.037000	0.213260	0.128126	0.232114	0.332243	5628.447066	28677.310662	3714.733131	12089.306739
73.534500	0.214844	0.127388	0.230495	0.332718	5635.545973	28605.566549	3710.407448	12079.220857
74.034500	0.213585	0.126577	0.227947	0.339276	5585.867010	28173.751789	3691.833997	11941.031233
74.535500	0.216650	0.128997	0.233892	0.335914	5626.649290	28511.952565	3710.820527	12011.608750
75.035500	0.218725	0.127433	0.234815	0.335360	5643.502562	28452.518885	3713.873010	12023.292998
75.536000	0.217053	0.128731	0.233575	0.336732	5623.992844	28448.175666	3708.483534	11994.384431
76.036500	0.214362	0.129178	0.228893	0.341643	5575.873063	28187.379987	3688.970848	11891.667842
76.539500	0.219509	0.129325	0.228690	0.335763	5645.957619	28540.168075	3700.466359	12014.800936
77.037000	0.219871	0.131300	0.228604	0.335626	5649.171540	28664.978181	3700.570571	12017.685548
77.537000	0.222077	0.131926	0.237132	0.336571	5657.309952	28646.094233	3716.163801	11997.776051
78.037000	0.220248	0.131881	0.232253	0.335433	5652.852123	28710.868862	3708.437694	12021.767098
78.535000	0.218280	0.130941	0.235052	0.333394	5653.308065	28776.178181	3718.442130	12064.884158
79.035500	0.221048	0.130808	0.229660	0.332563	5676.633795	28817.754957	3709.008107	12082.521635
79.535000	0.220063	0.132221	0.236574	0.333725	5662.689989	28832.681620	3720.922101	12057.865144
80.036000	0.222863	0.133296	0.234010	0.332987	5685.697430	28940.964124	3717.122351	12073.508756
80.535500	0.222785	0.133280	0.234437	0.331822	5692.799598	29009.855836	3720.434262	12098.258044
81.038500	0.222400	0.132955	0.236682	0.331217	5694.246722	29026.728870	3726.395511	12111.156255
81.536500	0.219056	0.132955	0.227909	0.331741	5669.024300	28995.222528	3707.097189	12099.988342
82.037000	0.221203	0.133497	0.235693	0.330335	5692.184463	29112.383257	3726.171164	12129.968140
82.537000	0.220998	0.134479	0.231580	0.331193	5685.230964	29119.838890	3715.804068	12111.662302
83.035000	0.223635	0.134929	0.231918	0.331790	5698.581178	29110.949733	3715.264847	12098.942047
83.535000	0.219955	0.132767	0.234487	0.329332	5690.575921	29128.840034	3725.744642	12151.399022
84.035500	0.220076	0.134300	0.231462	0.336064	5647.669473	28817.160482	3705.516242	12008.449833
84.535500	0.224046	0.134834	0.235150	0.331474	5703.352354	29124.289904	3722.648952	12105.680257
85.036000	0.223106	0.134758	0.234989	0.332367	5691.336762	29065.911195	3720.449669	12086.671107
85.538500	0.221286	0.134261	0.239744	0.332305	5679.858931	29039.803921	3730.545682	12088.004851
86.036500	0.220216	0.133748	0.231543	0.337973	5636.302861	28670.978756	3701.778702	11968.331391
86.537000	0.223149	0.134210	0.230358	0.334365	5678.578610	28913.219491	3706.737903	12044.323088
87.040000	0.221517	0.132518	0.237068	0.333280	5675.017249	28876.930510	3722.882990	12067.302461
87.537500	0.221672	0.132985	0.235517	0.334485	5668.196066	28832.952124	3717.143386	12041.791862
88.035000	0.219037	0.132092	0.234684	0.340759	5610.981721	28409.135249	3702.504331	11910.078118
88.535000	0.225585	0.134014	0.237199	0.337353	5674.988839	28723.506599	3714.683245	11981.344450
89.035500	0.226013	0.133661	0.237051	0.338769	5668.561837	28618.670970	3711.448262	11951.631648
89.536000	0.222793	0.131789	0.237334	0.337539	5655.687773	28580.788905	3714.577604	11977.440795
90.036000	0.219395	0.132174	0.230723	0.344355	5590.476522	28203.842093	3687.197572	11835.429369
90.536500	0.223539	0.133562	0.236428	0.340940	5638.585383	28484.850435	3705.703923	11906.307029
91.036500	0.223230	0.131832	0.236318	0.340721	5638.003747	28396.081328	3705.925792	11910.857026
91.536500	0.218949	0.132129	0.234400	0.345663	5579.426470	28125.299646	3691.967060	11808.428156
92.037000	0.221339	0.132025	0.243507	0.348883	5574.218226	27933.270929	3703.931250	11742.317974
92.537500	0.223363	0.131707	0.235264	0.343844	5618.884158	28206.469016	3697.400500	11846.007374
93.035000	0.222449	0.130656	0.239955	0.343855	5612.988198	28144.747015	3706.957138	11845.771181
93.546500	0.223130	0.131963	0.241062	0.350307	5576.527281	27847.891294	3696.051870	11713.242219
94.038500	0.218981	0.129750	0.239735	0.345432	5581.083827	28001.056438	3703.275491	11813.200117
94.536000	0.223642	0.131900	0.243032	0.348106	5593.609166	27970.820527	3704.550859	11758.237877
95.036000	0.223603	0.129865	0.238541	0.347711	5595.855225	27876.449195	3696.203110	11766.327672
95.536500	0.221085	0.129182	0.242371	0.348757	5573.418748	27777.409702	3701.869453	11744.907467
96.036500	0.223160	0.131011	0.243436	0.351527	5569.064480	27723.623201	3698.394354	11688.405549
