sample name	sample
index	1458
start time	 05-10-2021  01:48:34 PM


Wavelength (nm)	Absorbance
494.344910	0.049042
494.563924	0.049042
494.782919	0.049042
495.001897	0.016734
495.220856	0.020939
495.439797	0.010464
495.658719	-0.001248
495.877624	-0.012644
496.096510	-0.011546
496.315378	-0.014162
496.534227	-0.011482
496.753059	-0.014089
496.971872	-0.021792
497.190667	0.035067
497.409444	0.067377
497.628203	0.077824
497.846943	0.087226
498.065665	0.092607
498.284369	0.096087
498.503055	0.097386
498.721723	0.098791
498.940372	0.099664
499.159003	0.099560
499.377616	0.099877
499.596210	0.100035
499.814787	0.099264
500.033345	0.098931
500.251885	0.098078
500.470406	0.097133
500.688910	0.097892
500.907395	0.099066
501.125862	0.099149
501.344311	0.099329
501.562742	0.099978
501.781154	0.099835
501.999548	0.099020
502.217924	0.099222
502.436282	0.100623
502.654621	0.100598
502.872942	0.099867
503.091245	0.100914
503.309530	0.101163
503.527797	0.101666
503.746045	0.102438
503.964275	0.102801
504.182487	0.103796
504.400681	0.102818
504.618856	0.103487
504.837013	0.104078
505.055152	0.104078
505.273273	0.103997
505.491376	0.104111
505.709460	0.103980
505.927526	0.103711
506.145574	0.102485
506.363604	0.102884
506.581615	0.103020
506.799608	0.102916
507.017583	0.102352
507.235540	0.101965
507.453478	0.101694
507.671399	0.102606
507.889301	0.102883
508.107185	0.103146
508.325050	0.103316
508.542898	0.102196
508.760727	0.102297
508.978538	0.102775
509.196330	0.104054
509.414105	0.104561
509.631861	0.103600
509.849599	0.103972
510.067319	0.104134
510.285021	0.104073
510.502704	0.105117
510.720369	0.104784
510.938016	0.104516
511.155645	0.103793
511.373255	0.103532
511.590848	0.104229
511.808422	0.104589
512.025977	0.105723
512.243515	0.105848
512.461034	0.105750
512.678536	0.105543
512.896018	0.106324
513.113483	0.106171
513.330930	0.106329
513.548358	0.105723
513.765768	0.105035
513.983160	0.104233
514.200533	0.104911
514.417889	0.104932
514.635226	0.105672
514.852545	0.105000
515.069845	0.104513
515.287128	0.104738
515.504392	0.104503
515.721638	0.104577
515.938866	0.104923
516.156075	0.104918
516.373267	0.104544
516.590440	0.104626
516.807594	0.105465
517.024731	0.106361
517.241850	0.106719
517.458950	0.107023
517.676032	0.107316
517.893095	0.106834
518.110141	0.106275
518.327168	0.106863
518.544177	0.106778
518.761168	0.106800
518.978141	0.107112
519.195095	0.107216
519.412031	0.107765
519.628949	0.107775
519.845849	0.108201
520.062731	0.108572
520.279594	0.108846
520.496439	0.108453
520.713266	0.107854
520.930074	0.107571
521.146865	0.107665
521.363637	0.107427
521.580391	0.107467
521.797127	0.107796
522.013844	0.107843
522.230543	0.107141
522.447224	0.107578
522.663887	0.108282
522.880532	0.108880
523.097158	0.108532
523.313766	0.108701
523.530356	0.108595
523.746928	0.108543
523.963481	0.108996
524.180017	0.109588
524.396534	0.109984
524.613032	0.109400
524.829513	0.109483
525.045975	0.109314
525.262420	0.109296
525.478845	0.109548
525.695253	0.109184
525.911643	0.109085
526.128014	0.109291
526.344367	0.109692
526.560702	0.110099
526.777018	0.109681
526.993316	0.110386
527.209597	0.110619
527.425858	0.110940
527.642102	0.112193
527.858328	0.112409
528.074535	0.113079
528.290724	0.113138
528.506894	0.113535
528.723047	0.114318
528.939181	0.114655
529.155297	0.115131
529.371395	0.115353
529.587475	0.114588
529.803536	0.114462
530.019579	0.113707
530.235604	0.113640
530.451611	0.113668
530.667600	0.113744
530.883570	0.113437
531.099522	0.112846
531.315456	0.112253
531.531372	0.112640
531.747269	0.113195
531.963148	0.113827
532.179009	0.113981
532.394852	0.114436
532.610676	0.114500
532.826482	0.114457
533.042271	0.115624
533.258040	0.116357
533.473792	0.116899
533.689525	0.117204
533.905240	0.117627
534.120937	0.117775
534.336616	0.117794
534.552277	0.117939
534.767919	0.117847
534.983543	0.118208
535.199149	0.118673
535.414736	0.118350
535.630306	0.118450
535.845857	0.118409
536.061390	0.118205
536.276904	0.117626
536.492401	0.117623
536.707879	0.118142
536.923339	0.117901
537.138781	0.117859
537.354204	0.117923
537.569610	0.117917
537.784997	0.117781
538.000366	0.118216
538.215716	0.118472
538.431049	0.118293
538.646363	0.118586
538.861659	0.118191
539.076937	0.117986
539.292196	0.118391
539.507438	0.118767
539.722661	0.118117
539.937866	0.117753
540.153052	0.118186
540.368221	0.118344
540.583371	0.118648
540.798503	0.119306
541.013617	0.119371
541.228712	0.118981
541.443789	0.118328
541.658848	0.119195
541.873889	0.119947
542.088912	0.119995
542.303916	0.120232
542.518902	0.120164
542.733870	0.120055
542.948820	0.120712
543.163752	0.121189
543.378665	0.121707
543.593560	0.121961
543.808437	0.121973
544.023295	0.122093
544.238136	0.122346
544.452958	0.121868
544.667762	0.122023
544.882548	0.122135
545.097315	0.122275
545.312064	0.122119
545.526795	0.122042
545.741508	0.121670
545.956203	0.122052
546.170879	0.121786
546.385537	0.122410
546.600177	0.122408
546.814799	0.122177
547.029402	0.122467
547.243988	0.122859
547.458555	0.123399
547.673103	0.123552
547.887634	0.123758
548.102146	0.123961
548.316640	0.123695
548.531116	0.124204
548.745574	0.124732
548.960013	0.124986
549.174435	0.125246
549.388838	0.124884
549.603222	0.125720
549.817589	0.125902
550.031937	0.126221
550.246267	0.126856
550.460579	0.126581
550.674873	0.126263
550.889148	0.125719
551.103405	0.125739
551.317644	0.126153
551.531865	0.126140
551.746068	0.125896
551.960252	0.126118
552.174418	0.126057
552.388566	0.126112
552.602696	0.126109
552.816807	0.126606
553.030900	0.126430
553.244975	0.126193
553.459032	0.125895
553.673070	0.125725
553.887091	0.125954
554.101093	0.125702
554.315077	0.126008
554.529042	0.126221
554.742990	0.126382
554.956919	0.126367
555.170830	0.126661
555.384722	0.126953
555.598597	0.126996
555.812453	0.126853
556.026291	0.126916
556.240111	0.126560
556.453913	0.126895
556.667696	0.126507
556.881461	0.126697
557.095208	0.126604
557.308937	0.126523
557.522647	0.126818
557.736339	0.126634
557.950013	0.127193
558.163669	0.127238
558.377307	0.127066
558.590926	0.127283
558.804527	0.127335
559.018110	0.127030
559.231675	0.126494
559.445221	0.126126
559.658749	0.125985
559.872259	0.125639
560.085751	0.125588
560.299225	0.125552
560.512680	0.125537
560.726117	0.125770
560.939536	0.126367
561.152937	0.127223
561.366319	0.127402
561.579683	0.127622
561.793029	0.127751
562.006357	0.128186
562.219667	0.128403
562.432958	0.129037
562.646231	0.129273
562.859486	0.129195
563.072723	0.128722
563.285941	0.129335
563.499141	0.129453
563.712323	0.129754
563.925487	0.130033
564.138632	0.129737
564.351760	0.129186
564.564869	0.129049
564.777960	0.128996
564.991032	0.129248
565.204087	0.128841
565.417123	0.128737
565.630141	0.128972
565.843140	0.128677
566.056122	0.128965
566.269085	0.129271
566.482030	0.129380
566.694957	0.129874
566.907866	0.130123
567.120756	0.130521
567.333628	0.130717
567.546482	0.130219
567.759318	0.130269
567.972135	0.130657
568.184935	0.130821
568.397716	0.130590
568.610478	0.130392
568.823223	0.130446
569.035949	0.130452
569.248657	0.130630
569.461347	0.130809
569.674019	0.130949
569.886672	0.130942
570.099308	0.130710
570.311925	0.130804
570.524523	0.131010
570.737104	0.130735
570.949666	0.130525
571.162210	0.130964
571.374736	0.131340
571.587244	0.131526
571.799733	0.131461
572.012205	0.131887
572.224658	0.132423
572.437092	0.132139
572.649509	0.132448
572.861907	0.132952
573.074287	0.132570
573.286649	0.132572
573.498993	0.132520
573.711318	0.132836
573.923625	0.132956
574.135914	0.133122
574.348185	0.133287
574.560438	0.133514
574.772672	0.133532
574.984888	0.133882
575.197086	0.133867
575.409266	0.134077
575.621427	0.134160
575.833570	0.134229
576.045695	0.134399
576.257802	0.134443
576.469890	0.134792
576.681961	0.135094
576.894013	0.134960
577.106046	0.135236
577.318062	0.135213
577.530059	0.135106
577.742039	0.135149
577.954000	0.134887
578.165942	0.135176
578.377867	0.134848
578.589773	0.134788
578.801661	0.135217
579.013531	0.134963
579.225382	0.135038
579.437216	0.135319
579.649031	0.135623
579.860828	0.135829
580.072606	0.135763
580.284367	0.136029
580.496109	0.135989
580.707833	0.135823
580.919539	0.136181
581.131227	0.136338
581.342896	0.135970
581.554547	0.135391
581.766180	0.135290
581.977795	0.135635
582.189391	0.135942
582.400969	0.135969
582.612529	0.136361
582.824071	0.136680
583.035595	0.137039
583.247100	0.137539
583.458587	0.138107
583.670056	0.138491
583.881506	0.138291
584.092939	0.138172
584.304353	0.138768
584.515749	0.138844
584.727127	0.139005
584.938486	0.139096
585.149828	0.139283
585.361151	0.139477
585.572456	0.139600
585.783742	0.140311
585.995011	0.140380
586.206261	0.140213
586.417493	0.140321
586.628706	0.140132
586.839902	0.140115
587.051079	0.140078
587.262238	0.140020
587.473379	0.140141
587.684502	0.140040
587.895606	0.140279
588.106692	0.140340
588.317760	0.140575
588.528810	0.140731
588.739841	0.140682
588.950855	0.141036
589.161850	0.141351
589.372827	0.141379
589.583785	0.141447
589.794726	0.141916
590.005648	0.142516
590.216552	0.142787
590.427437	0.142999
590.638305	0.143342
590.849154	0.143330
591.059985	0.143271
591.270798	0.143258
591.481592	0.143425
591.692369	0.143002
591.903127	0.142658
592.113867	0.142676
592.324588	0.142851
592.535292	0.142889
592.745977	0.142835
592.956644	0.142975
593.167293	0.143362
593.377923	0.143216
593.588536	0.143493
593.799130	0.143352
594.009706	0.142943
594.220263	0.142927
594.430803	0.143128
594.641324	0.143166
594.851827	0.143294
595.062312	0.143170
595.272778	0.143612
595.483227	0.143747
595.693657	0.144169
595.904069	0.144569
596.114462	0.144622
596.324838	0.144412
596.535195	0.144469
596.745534	0.144745
596.955855	0.144736
597.166157	0.144401
597.376441	0.144274
597.586707	0.144545
597.796955	0.144607
598.007185	0.144651
598.217396	0.144969
598.427589	0.145180
598.637764	0.144989
598.847921	0.145011
599.058060	0.145018
599.268180	0.145228
599.478282	0.144828
599.688366	0.144887
599.898431	0.145240
600.108479	0.145083
600.318508	0.145141
600.528519	0.144980
600.738511	0.145146
600.948486	0.145410
601.158442	0.145464
601.368380	0.145428
601.578300	0.145338
601.788202	0.145173
601.998085	0.145276
602.207950	0.144901
602.417797	0.145122
602.627626	0.145049
602.837436	0.145253
603.047228	0.145046
603.257002	0.145256
603.466758	0.145290
603.676496	0.145372
603.886215	0.145439
604.095916	0.145905
604.305599	0.145991
604.515264	0.146313
604.724910	0.145967
604.934538	0.145956
605.144148	0.145839
605.353740	0.145939
605.563314	0.145795
605.772869	0.145887
605.982406	0.146048
606.191925	0.146191
606.401425	0.146011
606.610908	0.146336
606.820372	0.146582
607.029818	0.146948
607.239246	0.147162
607.448655	0.147462
607.658047	0.147770
607.867420	0.147956
608.076775	0.148011
608.286111	0.148569
608.495430	0.148720
608.704730	0.148771
608.914012	0.148832
609.123275	0.148986
609.332521	0.148967
609.541748	0.149044
609.750957	0.148993
609.960148	0.149149
610.169321	0.148922
610.378475	0.149041
610.587611	0.149245
610.796729	0.149302
611.005829	0.149160
611.214910	0.149401
611.423974	0.149596
611.633019	0.149844
611.842045	0.150135
612.051054	0.150243
612.260044	0.150384
612.469017	0.150488
612.677970	0.150884
612.886906	0.151030
613.095824	0.151119
613.304723	0.150966
613.513604	0.150845
613.722467	0.150686
613.931311	0.150666
614.140138	0.150576
614.348946	0.150657
614.557736	0.150442
614.766507	0.150699
614.975261	0.150769
615.183996	0.150737
615.392713	0.150827
615.601412	0.151084
615.810092	0.151534
616.018754	0.151662
616.227399	0.151964
616.436024	0.152248
616.644632	0.152168
616.853222	0.152392
617.061793	0.152694
617.270346	0.152847
617.478880	0.153018
617.687397	0.152899
617.895895	0.153082
618.104375	0.153121
618.312837	0.152952
618.521281	0.153229
618.729706	0.153089
618.938113	0.153031
619.146502	0.153091
619.354873	0.152916
619.563226	0.153219
619.771560	0.153271
619.979876	0.153210
620.188174	0.153480
620.396453	0.153278
620.604715	0.153380
620.812958	0.153432
621.021183	0.153333
621.229390	0.153661
621.437578	0.153376
621.645748	0.153348
621.853900	0.153316
622.062034	0.153471
622.270150	0.153635
622.478247	0.153761
622.686326	0.154035
622.894387	0.154333
623.102430	0.154202
623.310454	0.154301
623.518461	0.154863
623.726449	0.155135
623.934418	0.154904
624.142370	0.155019
624.350303	0.155094
624.558218	0.154839
624.766115	0.154935
624.973994	0.154804
625.181855	0.154700
625.389697	0.154239
625.597521	0.154133
625.805327	0.154165
626.013114	0.154223
626.220883	0.154250
626.428634	0.154300
626.636367	0.153973
626.844082	0.154252
627.051778	0.154254
627.259457	0.154275
627.467117	0.154341
627.674758	0.154099
627.882382	0.153837
628.089987	0.153715
628.297574	0.154070
628.505143	0.154374
628.712694	0.154474
628.920226	0.154663
629.127740	0.154683
629.335236	0.154472
629.542714	0.154951
629.750174	0.155132
629.957615	0.155350
630.165038	0.155203
630.372443	0.155261
630.579829	0.155129
630.787198	0.155275
630.994548	0.155377
631.201880	0.155637
631.409194	0.155513
631.616489	0.156005
631.823766	0.155992
632.031025	0.156150
632.238266	0.156323
632.445489	0.156355
632.652693	0.156658
632.859879	0.156828
633.067047	0.157054
633.274197	0.157485
633.481329	0.157388
633.688442	0.157625
633.895537	0.157567
634.102614	0.157713
634.309672	0.158017
634.516713	0.157973
634.723735	0.157862
634.930739	0.158079
635.137724	0.157973
635.344692	0.158085
635.551641	0.158303
635.758572	0.158548
635.965485	0.158359
636.172379	0.158442
636.379256	0.158529
636.586114	0.158704
636.792954	0.158578
636.999775	0.158818
637.206579	0.158598
637.413364	0.158502
637.620131	0.158537
637.826880	0.158639
638.033610	0.158453
638.240323	0.158410
638.447017	0.158658
638.653692	0.158926
638.860350	0.158972
639.066990	0.159064
639.273611	0.159213
639.480214	0.159303
639.686798	0.159437
639.893365	0.159718
640.099913	0.159905
640.306443	0.159906
640.512955	0.160017
640.719449	0.160030
640.925924	0.160328
641.132381	0.160321
641.338820	0.160475
641.545241	0.160723
641.751644	0.160810
641.958028	0.160842
642.164394	0.161016
642.370742	0.160961
642.577071	0.160982
642.783383	0.161122
642.989676	0.161219
643.195951	0.161420
643.402207	0.161346
643.608446	0.161623
643.814666	0.161743
644.020868	0.161954
644.227052	0.162294
644.433218	0.162205
644.639365	0.162200
644.845494	0.162333
645.051605	0.162351
645.257698	0.162708
645.463772	0.162507
645.669828	0.162598
645.875866	0.162441
646.081886	0.162450
646.287888	0.162833
646.493871	0.163134
646.699836	0.163138
646.905783	0.163193
647.111712	0.162937
647.317622	0.163308
647.523514	0.163497
647.729388	0.163947
647.935244	0.163956
648.141082	0.164043
648.346901	0.163868
648.552702	0.164014
648.758485	0.164162
648.964250	0.164378
649.169996	0.164168
649.375724	0.164056
649.581434	0.163707
649.787126	0.163734
649.992800	0.163666
650.198455	0.163779
650.404092	0.163855
650.609711	0.163737
650.815311	0.163686
651.020894	0.163763
651.226458	0.163883
651.432004	0.164291
651.637532	0.164336
651.843041	0.164369
652.048532	0.164362
652.254006	0.164415
652.459460	0.164530
652.664897	0.164754
652.870315	0.164902
653.075716	0.164879
653.281097	0.164660
653.486461	0.164562
653.691807	0.164588
653.897134	0.165062
654.102443	0.165347
654.307734	0.165485
654.513006	0.165758
654.718261	0.165979
654.923497	0.166234
655.128715	0.166667
655.333915	0.166994
655.539096	0.167280
655.744259	0.167197
655.949404	0.167140
656.154531	0.167134
656.359640	0.167137
656.564730	0.167054
656.769802	0.166971
656.974856	0.166926
657.179892	0.167207
657.384909	0.167350
657.589908	0.167433
657.794889	0.167488
657.999852	0.167879
658.204797	0.167855
658.409723	0.168023
658.614631	0.168330
658.819521	0.168361
659.024393	0.168220
659.229246	0.168450
659.434081	0.168467
659.638898	0.168758
659.843697	0.168718
660.048478	0.168924
660.253240	0.169158
660.457984	0.169254
660.662710	0.169315
660.867417	0.169376
661.072107	0.169324
661.276778	0.169690
661.481431	0.169523
661.686066	0.169625
661.890682	0.169552
662.095281	0.169526
662.299861	0.169532
662.504422	0.169651
662.708966	0.169791
662.913491	0.169813
663.117999	0.169594
663.322488	0.170039
663.526958	0.170163
663.731411	0.170248
663.935845	0.170408
664.140261	0.170423
664.344659	0.170655
664.549038	0.170635
664.753400	0.170835
664.957743	0.170987
665.162068	0.170778
665.366375	0.170924
665.570663	0.171289
665.774933	0.171112
665.979185	0.171342
666.183419	0.171291
666.387635	0.171434
666.591832	0.171270
666.796011	0.171455
667.000172	0.171469
667.204315	0.171497
667.408439	0.171540
667.612545	0.171736
667.816634	0.171873
668.020703	0.171989
668.224755	0.171923
668.428788	0.172121
668.632803	0.172140
668.836800	0.172127
669.040779	0.172005
669.244739	0.171764
669.448681	0.171962
669.652605	0.171932
669.856511	0.171760
670.060399	0.172110
670.264268	0.172235
670.468119	0.172260
670.671952	0.172429
670.875767	0.172684
671.079563	0.172823
671.283341	0.172889
671.487101	0.173092
671.690843	0.173419
671.894567	0.173385
672.098272	0.173543
672.301959	0.173757
672.505628	0.173819
672.709278	0.173907
672.912911	0.174365
673.116525	0.174218
673.320121	0.174416
673.523699	0.174458
673.727258	0.174728
673.930799	0.174926
674.134322	0.175087
674.337827	0.175235
674.541314	0.175494
674.744782	0.175724
674.948232	0.176096
675.151664	0.175986
675.355078	0.176023
675.558474	0.176168
675.761851	0.176079
675.965210	0.176202
676.168551	0.176298
676.371873	0.176204
676.575178	0.175945
676.778464	0.175961
676.981732	0.176016
677.184981	0.176183
677.388213	0.176303
677.591426	0.176269
677.794621	0.176253
677.997798	0.176506
678.200956	0.176414
678.404097	0.176558
678.607219	0.176687
678.810323	0.177036
679.013408	0.177185
679.216476	0.177088
679.419525	0.177354
679.622556	0.177474
679.825569	0.177591
680.028563	0.177870
680.231540	0.177968
680.434498	0.178089
680.637438	0.178187
680.840359	0.178269
681.043263	0.178538
681.246148	0.178611
681.449015	0.178499
681.651864	0.178552
681.854694	0.178569
682.057506	0.178561
682.260301	0.178665
682.463076	0.178637
682.665834	0.178699
682.868573	0.178829
683.071295	0.179054
683.273998	0.179327
683.476682	0.179450
683.679349	0.179848
683.881997	0.180143
684.084627	0.180193
684.287239	0.180262
684.489833	0.180338
684.692408	0.179997
684.894965	0.180041
685.097504	0.180202
685.300025	0.180190
685.502527	0.180024
685.705012	0.179986
685.907478	0.180051
686.109925	0.179934
686.312355	0.180027
686.514766	0.180162
686.717159	0.180119
686.919534	0.180186
687.121891	0.180061
687.324230	0.180241
687.526550	0.180132
687.728852	0.180041
687.931136	0.180034
688.133401	0.180026
688.335649	0.180207
688.537878	0.180056
688.740089	0.179882
688.942281	0.180047
689.144456	0.179940
689.346612	0.179929
689.548750	0.180327
689.750870	0.180401
689.952971	0.180409
690.155055	0.180648
690.357120	0.180906
690.559167	0.181300
690.761195	0.181475
690.963206	0.181625
691.165198	0.181877
691.367172	0.181729
691.569128	0.181895
691.771065	0.182200
691.972984	0.182196
692.174885	0.182430
692.376768	0.182215
692.578633	0.182000
692.780479	0.182217
692.982308	0.182189
693.184118	0.182110
693.385909	0.182196
