sample name	sample
index	713
start time	 03-25-2021  11:19:05 AM


Wavelength (nm)	Absorbance
494.344910	0.013517
494.563924	0.013517
494.782919	0.013517
495.001897	-0.023787
495.220856	0.021686
495.439797	0.010495
495.658719	0.016628
495.877624	0.016875
496.096510	0.010106
496.315378	0.012250
496.534227	-0.000175
496.753059	0.009288
496.971872	-0.013871
497.190667	0.053295
497.409444	0.073553
497.628203	0.080344
497.846943	0.084870
498.065665	0.088420
498.284369	0.089621
498.503055	0.091552
498.721723	0.092458
498.940372	0.093206
499.159003	0.093074
499.377616	0.093946
499.596210	0.094039
499.814787	0.093254
500.033345	0.093464
500.251885	0.092753
500.470406	0.092852
500.688910	0.093021
500.907395	0.092656
501.125862	0.091838
501.344311	0.091899
501.562742	0.091824
501.781154	0.092496
501.999548	0.092312
502.217924	0.092941
502.436282	0.092074
502.654621	0.091591
502.872942	0.092859
503.091245	0.093567
503.309530	0.093190
503.527797	0.093569
503.746045	0.093965
503.964275	0.093924
504.182487	0.094281
504.400681	0.095358
504.618856	0.095344
504.837013	0.095506
505.055152	0.095815
505.273273	0.096932
505.491376	0.096342
505.709460	0.095764
505.927526	0.095331
506.145574	0.095328
506.363604	0.095317
506.581615	0.095786
506.799608	0.094908
507.017583	0.095064
507.235540	0.095035
507.453478	0.095281
507.671399	0.096146
507.889301	0.097572
508.107185	0.098134
508.325050	0.097526
508.542898	0.097047
508.760727	0.097685
508.978538	0.098082
509.196330	0.097436
509.414105	0.097477
509.631861	0.097294
509.849599	0.096737
510.067319	0.096941
510.285021	0.097667
510.502704	0.098756
510.720369	0.099517
510.938016	0.099803
511.155645	0.099970
511.373255	0.100856
511.590848	0.100541
511.808422	0.100695
512.025977	0.100970
512.243515	0.101264
512.461034	0.101244
512.678536	0.100483
512.896018	0.100653
513.113483	0.101301
513.330930	0.101279
513.548358	0.102144
513.765768	0.101817
513.983160	0.102046
514.200533	0.101811
514.417889	0.101431
514.635226	0.102017
514.852545	0.101410
515.069845	0.101387
515.287128	0.101710
515.504392	0.101043
515.721638	0.101184
515.938866	0.101244
516.156075	0.101175
516.373267	0.100585
516.590440	0.100192
516.807594	0.100574
517.024731	0.100647
517.241850	0.100432
517.458950	0.100664
517.676032	0.100870
517.893095	0.100349
518.110141	0.101091
518.327168	0.101787
518.544177	0.102087
518.761168	0.102469
518.978141	0.102528
519.195095	0.102824
519.412031	0.103124
519.628949	0.104012
519.845849	0.104231
520.062731	0.104076
520.279594	0.104036
520.496439	0.104448
520.713266	0.104346
520.930074	0.104333
521.146865	0.104422
521.363637	0.104307
521.580391	0.104284
521.797127	0.104649
522.013844	0.104324
522.230543	0.104813
522.447224	0.104178
522.663887	0.104151
522.880532	0.104572
523.097158	0.104661
523.313766	0.104749
523.530356	0.104648
523.746928	0.104627
523.963481	0.104988
524.180017	0.105187
524.396534	0.105866
524.613032	0.105711
524.829513	0.105486
525.045975	0.105489
525.262420	0.106390
525.478845	0.106688
525.695253	0.106607
525.911643	0.106874
526.128014	0.107344
526.344367	0.107446
526.560702	0.108100
526.777018	0.108865
526.993316	0.108943
527.209597	0.108775
527.425858	0.108703
527.642102	0.108927
527.858328	0.109188
528.074535	0.108948
528.290724	0.108910
528.506894	0.108815
528.723047	0.108266
528.939181	0.108876
529.155297	0.108885
529.371395	0.109075
529.587475	0.108813
529.803536	0.109349
530.019579	0.109099
530.235604	0.109740
530.451611	0.110179
530.667600	0.111153
530.883570	0.110552
531.099522	0.110752
531.315456	0.111082
531.531372	0.112114
531.747269	0.112365
531.963148	0.113059
532.179009	0.113169
532.394852	0.113154
532.610676	0.113520
532.826482	0.114443
533.042271	0.114817
533.258040	0.114801
533.473792	0.114653
533.689525	0.114641
533.905240	0.115076
534.120937	0.115167
534.336616	0.115444
534.552277	0.115012
534.767919	0.114774
534.983543	0.114428
535.199149	0.114736
535.414736	0.114887
535.630306	0.115114
535.845857	0.115011
536.061390	0.114867
536.276904	0.114795
536.492401	0.114631
536.707879	0.114644
536.923339	0.115198
537.138781	0.115375
537.354204	0.115364
537.569610	0.115209
537.784997	0.115570
538.000366	0.115540
538.215716	0.115964
538.431049	0.116035
538.646363	0.116262
538.861659	0.116105
539.076937	0.116447
539.292196	0.117007
539.507438	0.116877
539.722661	0.116476
539.937866	0.116529
540.153052	0.116616
540.368221	0.117254
540.583371	0.117549
540.798503	0.117685
541.013617	0.117515
541.228712	0.117338
541.443789	0.117607
541.658848	0.118247
541.873889	0.119074
542.088912	0.119466
542.303916	0.119364
542.518902	0.119641
542.733870	0.120305
542.948820	0.120614
543.163752	0.121248
543.378665	0.121799
543.593560	0.121813
543.808437	0.121580
544.023295	0.121706
544.238136	0.122251
544.452958	0.122362
544.667762	0.122368
544.882548	0.122400
545.097315	0.122181
545.312064	0.122126
545.526795	0.122348
545.741508	0.122622
545.956203	0.122587
546.170879	0.122402
546.385537	0.122226
546.600177	0.122018
546.814799	0.122200
547.029402	0.122251
547.243988	0.122116
547.458555	0.122301
547.673103	0.122650
547.887634	0.123182
548.102146	0.123558
548.316640	0.123828
548.531116	0.124080
548.745574	0.124166
548.960013	0.124421
549.174435	0.124938
549.388838	0.125142
549.603222	0.125378
549.817589	0.125047
550.031937	0.124604
550.246267	0.124695
550.460579	0.124702
550.674873	0.125194
550.889148	0.125178
551.103405	0.125235
551.317644	0.125150
551.531865	0.124784
551.746068	0.124887
551.960252	0.125486
552.174418	0.125892
552.388566	0.126153
552.602696	0.125733
552.816807	0.125780
553.030900	0.125863
553.244975	0.126283
553.459032	0.126523
553.673070	0.126728
553.887091	0.126511
554.101093	0.126275
554.315077	0.126555
554.529042	0.126899
554.742990	0.127234
554.956919	0.127402
555.170830	0.127411
555.384722	0.127632
555.598597	0.127558
555.812453	0.128264
556.026291	0.128341
556.240111	0.128297
556.453913	0.128507
556.667696	0.128598
556.881461	0.128651
557.095208	0.128560
557.308937	0.128906
557.522647	0.129083
557.736339	0.128906
557.950013	0.129380
558.163669	0.129959
558.377307	0.129990
558.590926	0.130166
558.804527	0.130352
559.018110	0.130310
559.231675	0.130235
559.445221	0.130756
559.658749	0.131080
559.872259	0.131186
560.085751	0.130731
560.299225	0.130861
560.512680	0.130718
560.726117	0.130751
560.939536	0.131058
561.152937	0.130986
561.366319	0.131218
561.579683	0.131123
561.793029	0.131195
562.006357	0.131700
562.219667	0.131775
562.432958	0.131970
562.646231	0.132104
562.859486	0.132412
563.072723	0.132498
563.285941	0.132569
563.499141	0.132824
563.712323	0.132754
563.925487	0.132689
564.138632	0.132869
564.351760	0.133064
564.564869	0.133337
564.777960	0.133121
564.991032	0.133472
565.204087	0.133224
565.417123	0.133317
565.630141	0.133494
565.843140	0.133682
566.056122	0.134045
566.269085	0.134141
566.482030	0.133965
566.694957	0.134163
566.907866	0.134301
567.120756	0.134342
567.333628	0.134815
567.546482	0.134771
567.759318	0.134865
567.972135	0.134811
568.184935	0.134880
568.397716	0.135246
568.610478	0.135300
568.823223	0.135262
569.035949	0.135446
569.248657	0.134858
569.461347	0.135064
569.674019	0.135205
569.886672	0.135124
570.099308	0.135056
570.311925	0.134630
570.524523	0.134691
570.737104	0.134854
570.949666	0.134811
571.162210	0.135164
571.374736	0.135395
571.587244	0.135325
571.799733	0.135155
572.012205	0.135331
572.224658	0.135478
572.437092	0.135748
572.649509	0.136045
572.861907	0.135960
573.074287	0.135844
573.286649	0.135952
573.498993	0.136028
573.711318	0.136391
573.923625	0.136910
574.135914	0.137234
574.348185	0.137437
574.560438	0.137514
574.772672	0.137748
574.984888	0.138074
575.197086	0.138227
575.409266	0.138376
575.621427	0.138531
575.833570	0.138362
576.045695	0.138645
576.257802	0.138660
576.469890	0.138448
576.681961	0.138836
576.894013	0.138903
577.106046	0.138975
577.318062	0.139298
577.530059	0.139130
577.742039	0.139221
577.954000	0.139045
578.165942	0.138737
578.377867	0.139209
578.589773	0.139161
578.801661	0.139178
579.013531	0.139077
579.225382	0.138915
579.437216	0.139377
579.649031	0.139267
579.860828	0.139653
580.072606	0.139863
580.284367	0.139676
580.496109	0.139733
580.707833	0.139635
580.919539	0.139644
581.131227	0.139768
581.342896	0.139570
581.554547	0.139752
581.766180	0.139965
581.977795	0.140332
582.189391	0.140591
582.400969	0.140698
582.612529	0.140857
582.824071	0.141266
583.035595	0.141294
583.247100	0.141494
583.458587	0.141740
583.670056	0.141558
583.881506	0.141620
584.092939	0.141760
584.304353	0.141851
584.515749	0.142083
584.727127	0.141877
584.938486	0.141939
585.149828	0.141952
585.361151	0.142198
585.572456	0.142369
585.783742	0.142419
585.995011	0.142347
586.206261	0.142374
586.417493	0.142777
586.628706	0.142810
586.839902	0.142882
587.051079	0.143020
587.262238	0.143106
587.473379	0.143231
587.684502	0.143237
587.895606	0.143250
588.106692	0.143264
588.317760	0.142829
588.528810	0.143011
588.739841	0.143434
588.950855	0.143669
589.161850	0.143809
589.372827	0.143914
589.583785	0.144176
589.794726	0.144321
590.005648	0.144509
590.216552	0.144882
590.427437	0.145069
590.638305	0.145476
590.849154	0.145726
591.059985	0.145463
591.270798	0.145328
591.481592	0.145127
591.692369	0.145252
591.903127	0.145669
592.113867	0.145888
592.324588	0.145848
592.535292	0.145738
592.745977	0.145558
592.956644	0.145617
593.167293	0.145557
593.377923	0.145815
593.588536	0.145711
593.799130	0.145760
594.009706	0.145528
594.220263	0.145775
594.430803	0.145754
594.641324	0.145899
594.851827	0.146337
595.062312	0.146824
595.272778	0.147060
595.483227	0.147485
595.693657	0.147413
595.904069	0.147670
596.114462	0.147722
596.324838	0.147557
596.535195	0.147572
596.745534	0.147663
596.955855	0.147908
597.166157	0.147849
597.376441	0.147651
597.586707	0.147941
597.796955	0.148145
598.007185	0.148420
598.217396	0.148628
598.427589	0.148797
598.637764	0.148840
598.847921	0.148955
599.058060	0.149299
599.268180	0.149616
599.478282	0.149494
599.688366	0.149246
599.898431	0.149170
600.108479	0.149002
600.318508	0.149092
600.528519	0.149014
600.738511	0.148654
600.948486	0.148784
601.158442	0.148748
601.368380	0.149044
601.578300	0.149410
601.788202	0.149547
601.998085	0.149835
602.207950	0.149790
602.417797	0.150137
602.627626	0.150539
602.837436	0.150409
603.047228	0.150462
603.257002	0.150428
603.466758	0.150612
603.676496	0.150762
603.886215	0.150853
604.095916	0.151285
604.305599	0.151249
604.515264	0.151307
604.724910	0.151199
604.934538	0.151619
605.144148	0.151543
605.353740	0.151388
605.563314	0.151199
605.772869	0.151655
605.982406	0.151464
606.191925	0.151454
606.401425	0.151301
606.610908	0.151703
606.820372	0.151815
607.029818	0.152121
607.239246	0.152270
607.448655	0.152532
607.658047	0.152348
607.867420	0.152625
608.076775	0.152770
608.286111	0.153055
608.495430	0.152840
608.704730	0.152816
608.914012	0.152811
609.123275	0.152587
609.332521	0.152628
609.541748	0.152798
609.750957	0.152759
609.960148	0.152897
610.169321	0.152740
610.378475	0.152939
610.587611	0.152839
610.796729	0.152942
611.005829	0.153361
611.214910	0.153548
611.423974	0.153561
611.633019	0.153754
611.842045	0.153564
612.051054	0.153857
612.260044	0.153822
612.469017	0.153792
612.677970	0.153685
612.886906	0.153779
613.095824	0.153963
613.304723	0.154097
613.513604	0.154050
613.722467	0.154374
613.931311	0.154592
614.140138	0.154674
614.348946	0.154916
614.557736	0.154849
614.766507	0.154885
614.975261	0.154888
615.183996	0.154897
615.392713	0.154903
615.601412	0.155057
615.810092	0.155061
616.018754	0.155411
616.227399	0.155523
616.436024	0.155855
616.644632	0.155987
616.853222	0.156018
617.061793	0.156131
617.270346	0.156284
617.478880	0.156262
617.687397	0.156135
617.895895	0.156154
618.104375	0.156345
618.312837	0.156512
618.521281	0.156380
618.729706	0.156357
618.938113	0.156147
619.146502	0.156081
619.354873	0.156219
619.563226	0.156297
619.771560	0.156166
619.979876	0.156189
620.188174	0.156254
620.396453	0.156467
620.604715	0.156805
620.812958	0.157058
621.021183	0.157222
621.229390	0.157241
621.437578	0.157409
621.645748	0.157628
621.853900	0.157378
622.062034	0.157444
622.270150	0.157454
622.478247	0.157324
622.686326	0.157407
622.894387	0.157455
623.102430	0.157353
623.310454	0.157356
623.518461	0.157513
623.726449	0.157768
623.934418	0.157831
624.142370	0.158245
624.350303	0.158412
624.558218	0.158335
624.766115	0.158577
624.973994	0.158762
625.181855	0.158912
625.389697	0.158766
625.597521	0.158860
625.805327	0.158797
626.013114	0.158582
626.220883	0.158523
626.428634	0.158673
626.636367	0.158660
626.844082	0.158726
627.051778	0.158717
627.259457	0.158880
627.467117	0.159116
627.674758	0.159263
627.882382	0.159402
628.089987	0.159655
628.297574	0.160033
628.505143	0.159994
628.712694	0.159945
628.920226	0.160071
629.127740	0.160195
629.335236	0.160051
629.542714	0.160195
629.750174	0.160306
629.957615	0.160382
630.165038	0.160245
630.372443	0.160369
630.579829	0.160396
630.787198	0.160492
630.994548	0.160408
631.201880	0.160366
631.409194	0.160259
631.616489	0.160170
631.823766	0.160137
632.031025	0.160340
632.238266	0.160387
632.445489	0.160703
632.652693	0.160841
632.859879	0.161206
633.067047	0.161519
633.274197	0.161871
633.481329	0.162146
633.688442	0.162156
633.895537	0.162112
634.102614	0.162343
634.309672	0.162438
634.516713	0.162301
634.723735	0.162305
634.930739	0.162355
635.137724	0.162208
635.344692	0.162120
635.551641	0.162226
635.758572	0.162453
635.965485	0.162598
636.172379	0.162656
636.379256	0.162830
636.586114	0.162986
636.792954	0.163273
636.999775	0.163449
637.206579	0.163673
637.413364	0.164126
637.620131	0.163907
637.826880	0.164068
638.033610	0.164190
638.240323	0.164457
638.447017	0.164501
638.653692	0.164623
638.860350	0.164706
639.066990	0.164787
639.273611	0.164649
639.480214	0.165027
639.686798	0.164884
639.893365	0.164910
640.099913	0.164671
640.306443	0.164696
640.512955	0.164655
640.719449	0.164869
640.925924	0.164802
641.132381	0.164636
641.338820	0.164561
641.545241	0.164773
641.751644	0.164964
641.958028	0.165356
642.164394	0.165167
642.370742	0.165004
642.577071	0.165137
642.783383	0.165371
642.989676	0.165714
643.195951	0.165858
643.402207	0.165744
643.608446	0.165834
643.814666	0.165850
644.020868	0.166254
644.227052	0.166562
644.433218	0.166525
644.639365	0.166721
644.845494	0.166547
645.051605	0.166499
645.257698	0.166784
645.463772	0.166692
645.669828	0.166455
645.875866	0.166283
646.081886	0.166264
646.287888	0.166431
646.493871	0.166335
646.699836	0.166553
646.905783	0.166697
647.111712	0.166788
647.317622	0.166910
647.523514	0.167080
647.729388	0.167540
647.935244	0.167602
648.141082	0.167685
648.346901	0.167708
648.552702	0.167879
648.758485	0.168050
648.964250	0.168329
649.169996	0.168490
649.375724	0.168921
649.581434	0.168661
649.787126	0.168811
649.992800	0.168476
650.198455	0.168827
650.404092	0.168967
650.609711	0.168970
650.815311	0.168960
651.020894	0.169099
651.226458	0.169026
651.432004	0.169458
651.637532	0.169549
651.843041	0.169768
652.048532	0.169750
652.254006	0.169686
652.459460	0.169864
652.664897	0.169636
652.870315	0.169573
653.075716	0.169687
653.281097	0.169640
653.486461	0.169915
653.691807	0.170049
653.897134	0.170224
654.102443	0.170322
654.307734	0.170278
654.513006	0.170408
654.718261	0.170718
654.923497	0.170816
655.128715	0.170928
655.333915	0.170833
655.539096	0.171016
655.744259	0.171054
655.949404	0.171120
656.154531	0.171293
656.359640	0.171322
656.564730	0.171198
656.769802	0.171186
656.974856	0.171208
657.179892	0.171353
657.384909	0.171398
657.589908	0.171353
657.794889	0.171451
657.999852	0.171648
658.204797	0.171853
658.409723	0.172034
658.614631	0.172461
658.819521	0.172458
659.024393	0.172446
659.229246	0.172868
659.434081	0.172816
659.638898	0.172938
659.843697	0.172890
660.048478	0.173074
660.253240	0.173153
660.457984	0.173058
660.662710	0.173201
660.867417	0.173340
661.072107	0.173268
661.276778	0.173534
661.481431	0.173554
661.686066	0.173875
661.890682	0.173815
662.095281	0.173808
662.299861	0.173648
662.504422	0.173828
662.708966	0.173928
662.913491	0.173876
663.117999	0.174117
663.322488	0.174276
663.526958	0.174243
663.731411	0.174334
663.935845	0.174379
664.140261	0.174800
664.344659	0.174943
664.549038	0.174986
664.753400	0.175348
664.957743	0.175340
665.162068	0.175545
665.366375	0.175599
665.570663	0.175742
665.774933	0.176058
665.979185	0.175998
666.183419	0.176004
666.387635	0.176080
666.591832	0.176005
666.796011	0.176268
667.000172	0.176362
667.204315	0.176431
667.408439	0.176571
667.612545	0.176567
667.816634	0.176821
668.020703	0.177098
668.224755	0.177136
668.428788	0.177310
668.632803	0.177330
668.836800	0.177450
669.040779	0.177700
669.244739	0.177901
669.448681	0.178102
669.652605	0.178137
669.856511	0.178056
670.060399	0.178243
670.264268	0.178244
670.468119	0.178169
670.671952	0.178394
670.875767	0.178563
671.079563	0.178600
671.283341	0.178681
671.487101	0.178645
671.690843	0.178754
671.894567	0.179109
672.098272	0.179282
672.301959	0.179414
672.505628	0.179267
672.709278	0.179396
672.912911	0.179511
673.116525	0.179583
673.320121	0.179743
673.523699	0.179738
673.727258	0.179751
673.930799	0.179840
674.134322	0.180190
674.337827	0.180260
674.541314	0.180236
674.744782	0.180279
674.948232	0.180412
675.151664	0.180565
675.355078	0.180838
675.558474	0.180740
675.761851	0.180780
675.965210	0.180711
676.168551	0.180882
676.371873	0.181003
676.575178	0.181373
676.778464	0.181447
676.981732	0.181552
677.184981	0.181542
677.388213	0.181859
677.591426	0.182282
677.794621	0.182477
677.997798	0.182648
678.200956	0.182617
678.404097	0.182587
678.607219	0.182809
678.810323	0.183148
679.013408	0.183355
679.216476	0.183446
679.419525	0.183323
679.622556	0.183491
679.825569	0.183820
680.028563	0.183923
680.231540	0.183985
680.434498	0.183887
680.637438	0.183959
680.840359	0.184172
681.043263	0.184229
681.246148	0.184282
681.449015	0.184239
681.651864	0.184064
681.854694	0.184485
682.057506	0.184661
682.260301	0.184899
682.463076	0.184971
682.665834	0.185155
682.868573	0.185241
683.071295	0.185532
683.273998	0.185602
683.476682	0.185804
683.679349	0.185817
683.881997	0.185912
684.084627	0.186007
684.287239	0.186049
684.489833	0.185887
684.692408	0.186023
684.894965	0.185810
685.097504	0.186081
685.300025	0.186175
685.502527	0.186074
685.705012	0.186203
685.907478	0.186364
686.109925	0.186398
686.312355	0.186760
686.514766	0.186829
686.717159	0.187118
686.919534	0.187141
687.121891	0.187318
687.324230	0.187507
687.526550	0.187583
687.728852	0.187627
687.931136	0.187886
688.133401	0.187812
688.335649	0.188048
688.537878	0.187983
688.740089	0.187933
688.942281	0.187815
689.144456	0.187773
689.346612	0.187828
689.548750	0.187803
689.750870	0.187726
689.952971	0.187766
690.155055	0.187812
690.357120	0.188066
690.559167	0.188232
690.761195	0.188499
690.963206	0.188675
691.165198	0.188715
691.367172	0.188928
691.569128	0.188816
691.771065	0.189054
691.972984	0.189055
692.174885	0.189196
692.376768	0.189398
692.578633	0.189480
692.780479	0.189390
692.982308	0.189561
693.184118	0.189419
693.385909	0.189837
