sample name	sample
index	1504
start time	 05-18-2021  02:39:04 PM


Wavelength (nm)	Absorbance
494.344910	0.009314
494.563924	0.009314
494.782919	0.009314
495.001897	-0.016967
495.220856	-0.056011
495.439797	-0.082523
495.658719	-0.097793
495.877624	-0.110222
496.096510	-0.096681
496.315378	-0.074978
496.534227	-0.067232
496.753059	-0.062277
496.971872	-0.050572
497.190667	0.081195
497.409444	0.106626
497.628203	0.113350
497.846943	0.116162
498.065665	0.117880
498.284369	0.119545
498.503055	0.121237
498.721723	0.121990
498.940372	0.123467
499.159003	0.122766
499.377616	0.122074
499.596210	0.121852
499.814787	0.121828
500.033345	0.120243
500.251885	0.119481
500.470406	0.118915
500.688910	0.119729
500.907395	0.118476
501.125862	0.119000
501.344311	0.119606
501.562742	0.118771
501.781154	0.119282
501.999548	0.119981
502.217924	0.119860
502.436282	0.119730
502.654621	0.119133
502.872942	0.119325
503.091245	0.119542
503.309530	0.119798
503.527797	0.120563
503.746045	0.119415
503.964275	0.119578
504.182487	0.119525
504.400681	0.119496
504.618856	0.119572
504.837013	0.119234
505.055152	0.118956
505.273273	0.119679
505.491376	0.119341
505.709460	0.121065
505.927526	0.121442
506.145574	0.121315
506.363604	0.121092
506.581615	0.121050
506.799608	0.120970
507.017583	0.120288
507.235540	0.119282
507.453478	0.119291
507.671399	0.119176
507.889301	0.118948
508.107185	0.118341
508.325050	0.119356
508.542898	0.119636
508.760727	0.120358
508.978538	0.120895
509.196330	0.121465
509.414105	0.121783
509.631861	0.121041
509.849599	0.121809
510.067319	0.122059
510.285021	0.121295
510.502704	0.121219
510.720369	0.121644
510.938016	0.121954
511.155645	0.121452
511.373255	0.122504
511.590848	0.122760
511.808422	0.122873
512.025977	0.123389
512.243515	0.122804
512.461034	0.122756
512.678536	0.121567
512.896018	0.121972
513.113483	0.122267
513.330930	0.121509
513.548358	0.122052
513.765768	0.121925
513.983160	0.121619
514.200533	0.122214
514.417889	0.122624
514.635226	0.122885
514.852545	0.123192
515.069845	0.124153
515.287128	0.125053
515.504392	0.125271
515.721638	0.125624
515.938866	0.126730
516.156075	0.127529
516.373267	0.127283
516.590440	0.127664
516.807594	0.127033
517.024731	0.126648
517.241850	0.125721
517.458950	0.125367
517.676032	0.125044
517.893095	0.124462
518.110141	0.124128
518.327168	0.124856
518.544177	0.125753
518.761168	0.126471
518.978141	0.126308
519.195095	0.127061
519.412031	0.127648
519.628949	0.127963
519.845849	0.128836
520.062731	0.128435
520.279594	0.127318
520.496439	0.126611
520.713266	0.126008
520.930074	0.127019
521.146865	0.127374
521.363637	0.127561
521.580391	0.127480
521.797127	0.127412
522.013844	0.127874
522.230543	0.129129
522.447224	0.129029
522.663887	0.129192
522.880532	0.128857
523.097158	0.129036
523.313766	0.129000
523.530356	0.129494
523.746928	0.129481
523.963481	0.130434
524.180017	0.130008
524.396534	0.131166
524.613032	0.131885
524.829513	0.132409
525.045975	0.131689
525.262420	0.131924
525.478845	0.131638
525.695253	0.132089
525.911643	0.131461
526.128014	0.131781
526.344367	0.131744
526.560702	0.131997
526.777018	0.131704
526.993316	0.132591
527.209597	0.132870
527.425858	0.133160
527.642102	0.133658
527.858328	0.133944
528.074535	0.134414
528.290724	0.134585
528.506894	0.134804
528.723047	0.134753
528.939181	0.134665
529.155297	0.134510
529.371395	0.134637
529.587475	0.134647
529.803536	0.135412
530.019579	0.135528
530.235604	0.135467
530.451611	0.135558
530.667600	0.136181
530.883570	0.136766
531.099522	0.136851
531.315456	0.137279
531.531372	0.137074
531.747269	0.137084
531.963148	0.137835
532.179009	0.138646
532.394852	0.139067
532.610676	0.139491
532.826482	0.140313
533.042271	0.140664
533.258040	0.141051
533.473792	0.141725
533.689525	0.142501
533.905240	0.142053
534.120937	0.141454
534.336616	0.141720
534.552277	0.141782
534.767919	0.141542
534.983543	0.141770
535.199149	0.142410
535.414736	0.142614
535.630306	0.142864
535.845857	0.143366
536.061390	0.144222
536.276904	0.144112
536.492401	0.144030
536.707879	0.143852
536.923339	0.143861
537.138781	0.143840
537.354204	0.144269
537.569610	0.144067
537.784997	0.143937
538.000366	0.144202
538.215716	0.144931
538.431049	0.145714
538.646363	0.146448
538.861659	0.146961
539.076937	0.147071
539.292196	0.147369
539.507438	0.147919
539.722661	0.148629
539.937866	0.148946
540.153052	0.148848
540.368221	0.148900
540.583371	0.148755
540.798503	0.148818
541.013617	0.149420
541.228712	0.149199
541.443789	0.149138
541.658848	0.149426
541.873889	0.149667
542.088912	0.150137
542.303916	0.149792
542.518902	0.150116
542.733870	0.150675
542.948820	0.150572
543.163752	0.151113
543.378665	0.151389
543.593560	0.152031
543.808437	0.151974
544.023295	0.151729
544.238136	0.152213
544.452958	0.151753
544.667762	0.151595
544.882548	0.151446
545.097315	0.150864
545.312064	0.151243
545.526795	0.150396
545.741508	0.150622
545.956203	0.150707
546.170879	0.150745
546.385537	0.151368
546.600177	0.151950
546.814799	0.152451
547.029402	0.153027
547.243988	0.153203
547.458555	0.153291
547.673103	0.153447
547.887634	0.154154
548.102146	0.154537
548.316640	0.154758
548.531116	0.154439
548.745574	0.154457
548.960013	0.154316
549.174435	0.154173
549.388838	0.154273
549.603222	0.154285
549.817589	0.154056
550.031937	0.153962
550.246267	0.154013
550.460579	0.154434
550.674873	0.154641
550.889148	0.155115
551.103405	0.155128
551.317644	0.155757
551.531865	0.156223
551.746068	0.156070
551.960252	0.156286
552.174418	0.156483
552.388566	0.156369
552.602696	0.156637
552.816807	0.156741
553.030900	0.157346
553.244975	0.157825
553.459032	0.157453
553.673070	0.158165
553.887091	0.158266
554.101093	0.158512
554.315077	0.158777
554.529042	0.158296
554.742990	0.158501
554.956919	0.158047
555.170830	0.157540
555.384722	0.157675
555.598597	0.157515
555.812453	0.157722
556.026291	0.157558
556.240111	0.157841
556.453913	0.158514
556.667696	0.158883
556.881461	0.159678
557.095208	0.159680
557.308937	0.159948
557.522647	0.160150
557.736339	0.160110
557.950013	0.160313
558.163669	0.160229
558.377307	0.160212
558.590926	0.159960
558.804527	0.159582
559.018110	0.159699
559.231675	0.159893
559.445221	0.159627
559.658749	0.159352
559.872259	0.159839
560.085751	0.159933
560.299225	0.160113
560.512680	0.160487
560.726117	0.160453
560.939536	0.160591
561.152937	0.160766
561.366319	0.161398
561.579683	0.162210
561.793029	0.161751
562.006357	0.161731
562.219667	0.162050
562.432958	0.162244
562.646231	0.162292
562.859486	0.162399
563.072723	0.162326
563.285941	0.162297
563.499141	0.162113
563.712323	0.162639
563.925487	0.162787
564.138632	0.162368
564.351760	0.161851
564.564869	0.162132
564.777960	0.161968
564.991032	0.162248
565.204087	0.162225
565.417123	0.162714
565.630141	0.162470
565.843140	0.162401
566.056122	0.162385
566.269085	0.162944
566.482030	0.162998
566.694957	0.163404
566.907866	0.163003
567.120756	0.162951
567.333628	0.162905
567.546482	0.163038
567.759318	0.163414
567.972135	0.163856
568.184935	0.163827
568.397716	0.164010
568.610478	0.164366
568.823223	0.164907
569.035949	0.165023
569.248657	0.165050
569.461347	0.164862
569.674019	0.164826
569.886672	0.164440
570.099308	0.164610
570.311925	0.164616
570.524523	0.164627
570.737104	0.164580
570.949666	0.164533
571.162210	0.164323
571.374736	0.164860
571.587244	0.164865
571.799733	0.165419
572.012205	0.165114
572.224658	0.165302
572.437092	0.165210
572.649509	0.165439
572.861907	0.165871
573.074287	0.166024
573.286649	0.166009
573.498993	0.166270
573.711318	0.166442
573.923625	0.166820
574.135914	0.166649
574.348185	0.166836
574.560438	0.167296
574.772672	0.167162
574.984888	0.167405
575.197086	0.167544
575.409266	0.167648
575.621427	0.167618
575.833570	0.167758
576.045695	0.168056
576.257802	0.168378
576.469890	0.168299
576.681961	0.168416
576.894013	0.168695
577.106046	0.168802
577.318062	0.168954
577.530059	0.168832
577.742039	0.168653
577.954000	0.168960
578.165942	0.169168
578.377867	0.168856
578.589773	0.169162
578.801661	0.169356
579.013531	0.169948
579.225382	0.170012
579.437216	0.170515
579.649031	0.171042
579.860828	0.171130
580.072606	0.171204
580.284367	0.171693
580.496109	0.171640
580.707833	0.171603
580.919539	0.171429
581.131227	0.171736
581.342896	0.171542
581.554547	0.171421
581.766180	0.171746
581.977795	0.171810
582.189391	0.171755
582.400969	0.172487
582.612529	0.172563
582.824071	0.172261
583.035595	0.172389
583.247100	0.172692
583.458587	0.172661
583.670056	0.172609
583.881506	0.172990
584.092939	0.173139
584.304353	0.172919
584.515749	0.173012
584.727127	0.173600
584.938486	0.173556
585.149828	0.173607
585.361151	0.173825
585.572456	0.173676
585.783742	0.173345
585.995011	0.173718
586.206261	0.174018
586.417493	0.174327
586.628706	0.174601
586.839902	0.174909
587.051079	0.175102
587.262238	0.175298
587.473379	0.175636
587.684502	0.175672
587.895606	0.175871
588.106692	0.176048
588.317760	0.175930
588.528810	0.175511
588.739841	0.175480
588.950855	0.175687
589.161850	0.175590
589.372827	0.175737
589.583785	0.175828
589.794726	0.175541
590.005648	0.175216
590.216552	0.175489
590.427437	0.175716
590.638305	0.176062
590.849154	0.176107
591.059985	0.176479
591.270798	0.176691
591.481592	0.177291
591.692369	0.177488
591.903127	0.177821
592.113867	0.178173
592.324588	0.178547
592.535292	0.178258
592.745977	0.178554
592.956644	0.179103
593.167293	0.179170
593.377923	0.179410
593.588536	0.179578
593.799130	0.180010
594.009706	0.179806
594.220263	0.180034
594.430803	0.180499
594.641324	0.180631
594.851827	0.180713
595.062312	0.180961
595.272778	0.180800
595.483227	0.181173
595.693657	0.181100
595.904069	0.181328
596.114462	0.181608
596.324838	0.181409
596.535195	0.181898
596.745534	0.181879
596.955855	0.181872
597.166157	0.182390
597.376441	0.182311
597.586707	0.182647
597.796955	0.183031
598.007185	0.183008
598.217396	0.183850
598.427589	0.183871
598.637764	0.183994
598.847921	0.184422
599.058060	0.184316
599.268180	0.184577
599.478282	0.184325
599.688366	0.184628
599.898431	0.184744
600.108479	0.184508
600.318508	0.184262
600.528519	0.184106
600.738511	0.184163
600.948486	0.184529
601.158442	0.184754
601.368380	0.185481
601.578300	0.185655
601.788202	0.185753
601.998085	0.185735
602.207950	0.186029
602.417797	0.186480
602.627626	0.186407
602.837436	0.186476
603.047228	0.186415
603.257002	0.186238
603.466758	0.185956
603.676496	0.186242
603.886215	0.186721
604.095916	0.186916
604.305599	0.187147
604.515264	0.187542
604.724910	0.187543
604.934538	0.187846
605.144148	0.187925
605.353740	0.187990
605.563314	0.188051
605.772869	0.187939
605.982406	0.188087
606.191925	0.188351
606.401425	0.188109
606.610908	0.188247
606.820372	0.188543
607.029818	0.188662
607.239246	0.189228
607.448655	0.189244
607.658047	0.189451
607.867420	0.189653
608.076775	0.189980
608.286111	0.190186
608.495430	0.190174
608.704730	0.190352
608.914012	0.190279
609.123275	0.190330
609.332521	0.190668
609.541748	0.190678
609.750957	0.190753
609.960148	0.190522
610.169321	0.190780
610.378475	0.190921
610.587611	0.190806
610.796729	0.191083
611.005829	0.190932
611.214910	0.190897
611.423974	0.191100
611.633019	0.191044
611.842045	0.191364
612.051054	0.191616
612.260044	0.191940
612.469017	0.191907
612.677970	0.192134
612.886906	0.192483
613.095824	0.192498
613.304723	0.192809
613.513604	0.192892
613.722467	0.192996
613.931311	0.193125
614.140138	0.192875
614.348946	0.193060
614.557736	0.193223
614.766507	0.193473
614.975261	0.193910
615.183996	0.194121
615.392713	0.194542
615.601412	0.194682
615.810092	0.194586
616.018754	0.194847
616.227399	0.194832
616.436024	0.194800
616.644632	0.194722
616.853222	0.194843
617.061793	0.195076
617.270346	0.195259
617.478880	0.195271
617.687397	0.195500
617.895895	0.195791
618.104375	0.196151
618.312837	0.196189
618.521281	0.196224
618.729706	0.196169
618.938113	0.196198
619.146502	0.195870
619.354873	0.196045
619.563226	0.196237
619.771560	0.196526
619.979876	0.196662
620.188174	0.197045
620.396453	0.197314
620.604715	0.197385
620.812958	0.197308
621.021183	0.197980
621.229390	0.198083
621.437578	0.198304
621.645748	0.198286
621.853900	0.198626
622.062034	0.198601
622.270150	0.198707
622.478247	0.198901
622.686326	0.199248
622.894387	0.199190
623.102430	0.199165
623.310454	0.199171
623.518461	0.199399
623.726449	0.199052
623.934418	0.199206
624.142370	0.199219
624.350303	0.199537
624.558218	0.199470
624.766115	0.199340
624.973994	0.199670
625.181855	0.199626
625.389697	0.199522
625.597521	0.199815
625.805327	0.199852
626.013114	0.199788
626.220883	0.199687
626.428634	0.199794
626.636367	0.200060
626.844082	0.199987
627.051778	0.200187
627.259457	0.200272
627.467117	0.200572
627.674758	0.201000
627.882382	0.201583
628.089987	0.201700
628.297574	0.201848
628.505143	0.201926
628.712694	0.202123
628.920226	0.202201
629.127740	0.202657
629.335236	0.202793
629.542714	0.202801
629.750174	0.202867
629.957615	0.203207
630.165038	0.203221
630.372443	0.203213
630.579829	0.203173
630.787198	0.203331
630.994548	0.203163
631.201880	0.203356
631.409194	0.203453
631.616489	0.203370
631.823766	0.203407
632.031025	0.203579
632.238266	0.204034
632.445489	0.204467
632.652693	0.204738
632.859879	0.204862
633.067047	0.204720
633.274197	0.204875
633.481329	0.204785
633.688442	0.204966
633.895537	0.205043
634.102614	0.205118
634.309672	0.205255
634.516713	0.205442
634.723735	0.205581
634.930739	0.205985
635.137724	0.205954
635.344692	0.206426
635.551641	0.206478
635.758572	0.206629
635.965485	0.206694
636.172379	0.206835
636.379256	0.206791
636.586114	0.206752
636.792954	0.206686
636.999775	0.207025
637.206579	0.207217
637.413364	0.207501
637.620131	0.207793
637.826880	0.208121
638.033610	0.207951
638.240323	0.207877
638.447017	0.208381
638.653692	0.208329
638.860350	0.208274
639.066990	0.208359
639.273611	0.208335
639.480214	0.208333
639.686798	0.208089
639.893365	0.208435
640.099913	0.208664
640.306443	0.208576
640.512955	0.208694
640.719449	0.208895
640.925924	0.209054
641.132381	0.209274
641.338820	0.209187
641.545241	0.209588
641.751644	0.209587
641.958028	0.209843
642.164394	0.210045
642.370742	0.210425
642.577071	0.210419
642.783383	0.210378
642.989676	0.210315
643.195951	0.210733
643.402207	0.210851
643.608446	0.211080
643.814666	0.211232
644.020868	0.211078
644.227052	0.211280
644.433218	0.211663
644.639365	0.211836
644.845494	0.212204
645.051605	0.212203
645.257698	0.212408
645.463772	0.212605
645.669828	0.212577
645.875866	0.213105
646.081886	0.213229
646.287888	0.213294
646.493871	0.213526
646.699836	0.213636
646.905783	0.213959
647.111712	0.213860
647.317622	0.213844
647.523514	0.214044
647.729388	0.214158
647.935244	0.214197
648.141082	0.214452
648.346901	0.214643
648.552702	0.214840
648.758485	0.214878
648.964250	0.215071
649.169996	0.215365
649.375724	0.215564
649.581434	0.215548
649.787126	0.215722
649.992800	0.215685
650.198455	0.215898
650.404092	0.215884
650.609711	0.216166
650.815311	0.216444
651.020894	0.216519
651.226458	0.216820
651.432004	0.216960
651.637532	0.216897
651.843041	0.217015
652.048532	0.217025
652.254006	0.216935
652.459460	0.217114
652.664897	0.216878
652.870315	0.217037
653.075716	0.217029
653.281097	0.217364
653.486461	0.217764
653.691807	0.217991
653.897134	0.218103
654.102443	0.218699
654.307734	0.218931
654.513006	0.219313
654.718261	0.219435
654.923497	0.219412
655.128715	0.219485
655.333915	0.219725
655.539096	0.219914
655.744259	0.220142
655.949404	0.219948
656.154531	0.219746
656.359640	0.219647
656.564730	0.219766
656.769802	0.220071
656.974856	0.220264
657.179892	0.220160
657.384909	0.220224
657.589908	0.220374
657.794889	0.220643
657.999852	0.221027
658.204797	0.221317
658.409723	0.221326
658.614631	0.221528
658.819521	0.221417
659.024393	0.221648
659.229246	0.221893
659.434081	0.222144
659.638898	0.222428
659.843697	0.222566
660.048478	0.222761
660.253240	0.222877
660.457984	0.222969
660.662710	0.223520
660.867417	0.223624
661.072107	0.223730
661.276778	0.223840
661.481431	0.223931
661.686066	0.224036
661.890682	0.224374
662.095281	0.224762
662.299861	0.224991
662.504422	0.224933
662.708966	0.225249
662.913491	0.225437
663.117999	0.225314
663.322488	0.225424
663.526958	0.225369
663.731411	0.225417
663.935845	0.225606
664.140261	0.225845
664.344659	0.226152
664.549038	0.226241
664.753400	0.226427
664.957743	0.226658
665.162068	0.226567
665.366375	0.226872
665.570663	0.226987
665.774933	0.227065
665.979185	0.227045
666.183419	0.227117
666.387635	0.227456
666.591832	0.227483
666.796011	0.227604
667.000172	0.228186
667.204315	0.228682
667.408439	0.229005
667.612545	0.229354
667.816634	0.229756
668.020703	0.229875
668.224755	0.229863
668.428788	0.230034
668.632803	0.230407
668.836800	0.230586
669.040779	0.230535
669.244739	0.230561
669.448681	0.230704
669.652605	0.230751
669.856511	0.231117
670.060399	0.231458
670.264268	0.231769
670.468119	0.232152
670.671952	0.232214
670.875767	0.232425
671.079563	0.232701
671.283341	0.232870
671.487101	0.233193
671.690843	0.233414
671.894567	0.233523
672.098272	0.233833
672.301959	0.233941
672.505628	0.234065
672.709278	0.234345
672.912911	0.234691
673.116525	0.234845
673.320121	0.234834
673.523699	0.234897
673.727258	0.234970
673.930799	0.235133
674.134322	0.235195
674.337827	0.235398
674.541314	0.235470
674.744782	0.235408
674.948232	0.235338
675.151664	0.235559
675.355078	0.235716
675.558474	0.235922
675.761851	0.236208
675.965210	0.236325
676.168551	0.236380
676.371873	0.236565
676.575178	0.236812
676.778464	0.237211
676.981732	0.237488
677.184981	0.237766
677.388213	0.237781
677.591426	0.237725
677.794621	0.237824
677.997798	0.238192
678.200956	0.238648
678.404097	0.238871
678.607219	0.239180
678.810323	0.239294
679.013408	0.239449
679.216476	0.240012
679.419525	0.240205
679.622556	0.240548
679.825569	0.240620
680.028563	0.240435
680.231540	0.240617
680.434498	0.240777
680.637438	0.240888
680.840359	0.240852
681.043263	0.240567
681.246148	0.240599
681.449015	0.240779
681.651864	0.241047
681.854694	0.241146
682.057506	0.241126
682.260301	0.240960
682.463076	0.241347
682.665834	0.241635
682.868573	0.241862
683.071295	0.242134
683.273998	0.242320
683.476682	0.242351
683.679349	0.242644
683.881997	0.242996
684.084627	0.243554
684.287239	0.243552
684.489833	0.243768
684.692408	0.244195
684.894965	0.244171
685.097504	0.244102
685.300025	0.244347
685.502527	0.244572
685.705012	0.244586
685.907478	0.244515
686.109925	0.244620
686.312355	0.244644
686.514766	0.244748
686.717159	0.244734
686.919534	0.245080
687.121891	0.245255
687.324230	0.245231
687.526550	0.245512
687.728852	0.245471
687.931136	0.245333
688.133401	0.245359
688.335649	0.245283
688.537878	0.245588
688.740089	0.245527
688.942281	0.245727
689.144456	0.245927
689.346612	0.245968
689.548750	0.246239
689.750870	0.246622
689.952971	0.246786
690.155055	0.247030
690.357120	0.247304
690.559167	0.247269
690.761195	0.247342
690.963206	0.247501
691.165198	0.247592
691.367172	0.247753
691.569128	0.247733
691.771065	0.247949
691.972984	0.247935
692.174885	0.247957
692.376768	0.248358
692.578633	0.248330
692.780479	0.248190
692.982308	0.248311
693.184118	0.248350
693.385909	0.248499
