sample name	sample
index	751
start time	 03-31-2021  11:19:08 AM
880	0.001639
Peak Time (s)	90.037
Peak Height 	0.001639
calc peak height	90,93
Baseline Time (s)	10.536
Baseline Value 	-0.004198
subtract baseline	10,4
Abs	0.010453
Peak Time (s)	91.535
Peak Height 	0.01045
calc peak height	90,93
Baseline Time (s)	8.537
Baseline Value 	0.002825
subtract baseline	10,3
PK_550	-0.016066
Peak Time (s)	90.037
Peak Height 	-0.01607
calc peak height	90,93
Baseline Time (s)	8.537
Baseline Value 	6.3985E-4
subtract baseline	10,2
PK_880	0.009356
Peak Time (s)	91.535
Peak Height 	0.009356
calc peak height	90,93
Baseline Time (s)	9.037
Baseline Value 	0.001477
subtract baseline	10,1


Time (s)	A880-A510	A880-A775	A880-A975	A880	I510	I775	I975	I880	
0.035000	0.000222	-0.000751	-0.003732	0.001365	6687.770255	40922.085304	3899.499314	22271.196599
0.536000	-0.003176	-0.000469	-0.001902	0.004183	6633.968206	40700.770231	3897.164576	22145.836456
1.035500	-0.002593	-0.000639	-0.002661	0.002837	6650.587381	40803.341397	3898.553021	22205.646614
1.541500	-0.004483	-0.000574	0.001409	0.002956	6633.294868	40798.594939	3907.936626	22200.362526
2.036000	-0.000313	0.000214	0.000458	0.000555	6690.167060	41077.761758	3911.399640	22307.397371
2.536500	0.002010	0.000205	-0.000600	0.000739	6708.874977	41060.756924	3908.432124	22299.174529
3.036500	0.003043	-0.000360	-0.001169	-0.001148	6734.552599	41177.078749	3911.582365	22383.693152
3.537000	0.000708	-0.000584	-0.001290	0.000671	6698.064803	40997.454912	3906.945784	22302.192279
4.040000	0.000147	-0.000032	-0.004316	0.001040	6689.950354	41013.592608	3898.887433	22285.737696
4.537500	0.000844	0.000429	0.002375	0.001331	6693.493385	41028.546646	3914.135821	22272.746985
5.035500	0.000295	-0.000250	0.000077	0.000002	6700.307008	41085.535959	3911.811893	22332.140434
5.535500	0.003034	0.000754	0.003247	0.000896	6716.474096	41095.159521	3917.276215	22292.145921
6.035500	0.002309	-0.000299	0.001150	0.000682	6711.992304	41021.569160	3912.751731	22301.712253
6.535500	-0.000917	-0.000564	-0.001592	-0.000036	6690.053123	41061.340906	3907.913112	22333.842305
7.036500	-0.001285	-0.000745	-0.001769	-0.000096	6687.373753	41050.672299	3907.635419	22336.538130
7.536500	-0.000594	-0.000435	-0.000639	-0.000264	6694.864074	41092.644256	3910.733209	22344.031364
8.036500	-0.000486	0.000251	-0.002277	0.000567	6688.554071	41079.903613	3904.845377	22306.850057
8.537500	0.000217	0.000000	0.000000	0.000020	6699.471659	41105.942368	3911.584017	22331.332617
9.037000	0.000000	0.000614	-0.002583	0.000796	6690.800130	41091.766918	3903.574880	22296.641683
9.535000	-0.001950	-0.000729	0.001941	-0.000648	6686.385979	41100.544178	3917.847746	22361.250390
10.038000	-0.000517	-0.000604	0.000346	-0.000749	6699.772359	41120.459147	3914.257832	22365.792536
10.535500	0.001477	0.000131	-0.000390	0.000000	6710.676804	41119.195619	3910.697904	22332.228870
11.036000	-0.000587	-0.000645	0.002497	-0.000148	6693.915629	41064.051582	3917.984561	22338.858580
11.536000	0.001467	0.000193	-0.001458	0.000542	6705.841397	41077.074759	3906.854344	22307.984185
12.036500	0.000955	-0.000188	-0.004463	0.000089	6705.323349	41083.323498	3900.791001	22328.230944
12.536500	0.000294	-0.000974	0.002057	-0.000195	6702.026620	41039.269745	3917.039095	22340.973340
13.036500	-0.003921	-0.000748	-0.002720	0.004825	6622.074455	40620.741781	3893.722373	22117.393990
13.543500	0.002159	0.000396	-0.001731	-0.000058	6717.169075	41147.674198	3907.635195	22334.833189
14.035000	-0.001268	-0.000917	0.000798	0.001814	6670.904532	40868.294317	3909.201941	22251.171506
14.534500	-0.001126	0.000214	-0.001226	0.002188	6668.895090	40934.585161	3903.490137	22234.532643
15.036500	-0.003477	-0.000366	-0.002941	0.005194	6622.716222	40621.911998	3892.337232	22101.066880
15.536000	0.000811	0.000836	-0.002618	0.000029	6704.583013	41178.709059	3905.313523	22330.909172
16.036000	0.001284	-0.000656	0.000296	-0.001269	6720.119945	41161.636219	3915.385799	22389.122195
16.539000	-0.000633	0.000682	-0.002602	-0.000487	6696.475185	41210.661156	3906.580559	22354.058682
17.036500	-0.003110	-0.000419	-0.003270	0.005266	6625.245095	40611.107893	3891.395742	22097.896476
17.537000	-0.000562	-0.000368	0.003440	0.000453	6688.894940	41035.639525	3918.808309	22311.980515
18.037000	-0.000079	-0.000684	-0.004117	0.000632	6691.543925	40992.199363	3900.325626	22303.972542
18.537000	-0.000438	0.000233	-0.002995	0.001312	6682.484589	41012.894714	3901.372137	22273.575103
19.034500	-0.003137	-0.000606	-0.001986	0.002628	6647.704200	40824.459853	3900.645011	22214.944622
19.535000	-0.001648	-0.000158	-0.000327	0.000985	6674.812000	41007.398160	3908.495987	22288.197869
20.035500	0.000341	-0.000355	-0.000754	0.001237	6689.922833	40967.954066	3906.875311	22276.919469
20.536000	-0.000475	-0.000575	-0.000911	0.000672	6687.739474	40998.201420	3907.848801	22302.167586
21.036000	-0.000772	-0.000718	0.001185	0.000930	6682.905549	40963.089358	3912.243304	22290.651098
21.539500	-0.001737	-0.000912	0.000085	0.000645	6676.988689	40971.071587	3910.293914	22303.387622
22.036500	-0.001928	-0.000576	-0.000827	0.000699	6674.853552	40995.764232	3907.983137	22300.947604
22.537000	0.000066	-0.000228	0.002141	0.001033	6689.306858	40997.030398	3914.288490	22286.039252
23.039500	-0.000922	-0.000345	-0.000285	0.000788	6682.828965	41008.208261	3909.065797	22296.969109
23.537500	-0.002196	-0.000790	-0.002807	0.000294	6676.048989	41012.526304	3904.233565	22319.068024
24.035000	0.000231	-0.000326	0.000252	0.000996	6691.068665	40991.601446	3909.851382	22287.681626
24.535000	-0.002662	-0.000965	0.004090	0.000319	6671.786127	40994.935015	3920.700446	22317.950829
25.035500	-0.001691	0.000234	-0.000990	0.001302	6671.686223	41013.994747	3906.159218	22274.047161
25.536000	-0.001176	-0.000043	0.001873	0.001138	6677.576353	41004.019712	3913.393133	22281.355849
26.036500	-0.001216	-0.000673	-0.002760	0.000278	6684.711131	41024.165779	3904.384668	22319.790261
26.536500	-0.001273	0.000052	-0.006358	0.001196	6676.224884	41007.186013	3893.702388	22278.740487
27.036500	-0.002393	0.000100	0.002055	0.001267	6665.895355	41005.247662	3913.520927	22275.601366
27.537500	0.001174	-0.000789	0.004913	-0.002664	6731.432900	41272.869086	3929.929816	22451.839916
28.035000	0.001278	-0.000349	0.002169	-0.000848	6716.363717	41151.579665	3918.878042	22370.208821
28.534500	0.001743	-0.000147	-0.001069	-0.000511	6717.499963	41139.734395	3910.295945	22355.117731
29.035000	-0.004406	-0.000999	-0.012365	0.004876	6617.492711	40594.621379	3871.162919	22115.149015
29.535000	0.001406	-0.000013	0.008442	-0.000518	6714.594993	41152.083611	3933.304386	22355.426146
30.035500	0.000160	-0.000733	0.001100	-0.001419	6711.575050	41168.075627	3917.681547	22395.864559
30.536000	0.001905	-0.000363	0.001971	-0.000528	6719.064482	41122.206535	3917.631059	22355.878500
31.035500	0.000016	0.000333	0.002746	0.004509	6658.684142	40742.331369	3907.421366	22131.425848
31.536500	0.001252	0.000442	0.004289	0.001214	6698.081602	41039.919371	3919.020865	22277.972049
32.037000	0.000937	0.000154	0.000582	-0.000441	6709.809142	41160.056044	3914.083904	22351.999874
32.540000	0.001897	0.000429	-0.003910	-0.000746	6720.915471	41211.090395	3904.083151	22365.640685
33.034500	-0.005180	-0.001491	-0.002416	0.004594	6613.285235	40576.436733	3894.984831	22127.651513
33.538000	0.001324	0.000347	0.004712	-0.000893	6717.173620	41216.916743	3925.138312	22372.250757
34.035500	-0.001028	-0.000261	0.000297	0.000905	6680.899318	41005.390815	3910.179115	22291.776741
34.538500	-0.001384	-0.000832	-0.004764	0.001415	6673.360478	40910.626170	3896.942484	22268.981854
35.036000	-0.001802	0.000073	-0.000127	0.003525	6651.479402	40805.368645	3902.924837	22175.046610
35.536000	0.000495	-0.000086	0.003045	0.001362	6690.178868	40980.613043	3915.669275	22271.338789
36.036500	-0.000131	-0.000599	0.002664	0.000937	6688.426350	40972.873431	3915.774761	22290.325835
36.536500	-0.001514	-0.000885	-0.002234	0.001390	6672.449584	40908.147856	3902.990576	22270.085331
37.040000	-0.001755	0.000297	-0.003646	0.003210	6654.603844	40852.401618	3895.345167	22189.039577
37.536500	-0.000016	-0.000161	0.002783	0.001201	6687.127797	40988.142083	3915.427421	22278.539762
38.034500	-0.001187	-0.000173	-0.000158	0.000904	6679.509409	41013.042097	3909.091945	22291.780865
38.535500	-0.002518	0.000262	0.002481	0.002180	6656.906871	40939.422110	3912.352922	22234.870089
39.035500	-0.000025	-0.000478	0.002996	0.001753	6682.234878	40911.996999	3914.610284	22253.889801
39.536000	-0.001701	-0.000009	0.002875	0.001836	6666.964109	40945.837623	3914.122067	22250.206065
40.036000	0.001616	-0.000579	-0.001991	0.001071	6702.515566	40962.895649	3904.327328	22284.360905
40.536000	-0.001019	-0.000200	-0.002340	0.001538	6675.462758	40955.177149	3902.388610	22263.483507
41.036500	0.002736	0.001530	0.001700	0.002531	6699.536187	41019.767408	3909.642734	22219.228944
41.537000	-0.000828	0.000057	0.000385	0.001402	6678.304732	40989.631309	3909.198705	22269.549146
42.037500	0.001587	0.000592	0.005853	0.002111	6693.176775	40974.421013	3920.631178	22237.964934
42.534000	-0.002247	-0.000101	0.001833	0.001435	6665.704688	40972.957220	3912.585755	22268.110209
43.035000	-0.001368	-0.000153	-0.003527	0.001922	6669.099147	40925.659145	3898.667751	22246.355567
43.535000	-0.001722	-0.000522	0.003301	0.001304	6671.396541	40947.518873	3916.426009	22273.956496
44.036000	0.001697	0.000735	0.002657	-0.002419	6733.882818	41385.963984	3923.853390	22440.805226
44.536000	-0.000494	-0.000387	-0.000186	-0.001408	6705.742135	41197.549593	3914.562275	22395.363805
45.039000	-0.003950	-0.000975	0.001542	0.004764	6622.349710	40606.357809	3903.947162	22120.107564
45.536500	0.001619	0.000772	0.003801	-0.000008	6711.998184	41176.389664	3920.791507	22332.597356
46.037000	0.001863	-0.000164	-0.004080	-0.000806	6721.148728	41164.160968	3903.822449	22368.351884
46.539500	-0.000104	-0.000362	0.001177	-0.000668	6702.680442	41134.586623	3916.057927	22362.156450
47.040000	-0.002278	-0.000090	-0.000436	0.005726	6628.438808	40599.767723	3896.984107	22077.583964
47.537500	-0.000348	-0.000520	-0.002189	0.001883	6678.297025	40896.950143	3901.927678	22248.094496
48.035000	-0.002322	0.000081	-0.000590	0.002330	6657.310044	40910.481479	3904.666716	22228.213396
48.546000	0.001761	-0.000003	0.002677	-0.000452	6717.135774	41147.165564	3919.150467	22352.463173
49.036000	-0.000724	-0.000729	-0.004311	0.003971	6656.942593	40696.738714	3891.993801	22155.280449
49.535500	-0.000276	-0.000596	-0.002653	-0.000503	6699.730460	41099.517151	3906.496108	22354.753546
50.036000	0.002514	0.000197	-0.000455	-0.002355	6740.536456	41332.741525	3916.190542	22437.929757
50.536500	0.001877	-0.000476	0.000651	0.003534	6683.292417	40756.722262	3904.750632	22174.640311
51.036500	-0.008310	-0.002867	0.001214	0.001338	6614.362389	40739.776041	3911.335398	22272.428519
51.537000	-0.044333	-0.004021	-0.008393	0.329850	4505.858527	20623.896489	3349.067838	11986.544516
52.034500	-0.057832	-0.014427	-0.006844	-0.010588	6306.532268	40771.639368	3920.635688	22812.082264
52.534500	-0.038800	-0.018167	-0.010069	-0.101297	7285.176841	49163.576675	4154.673963	27439.727494
53.035000	-0.023758	-0.035761	-0.000895	-0.216143	8813.100808	60769.623621	4578.655893	34871.274294
53.535500	-0.013167	-0.024060	-0.002586	-0.179113	8463.992989	57492.215121	4433.070969	32257.331629
54.035500	-0.011156	-0.021284	-0.001064	-0.168352	8353.067802	56498.023214	4400.206182	31538.572143
54.536000	-0.011221	-0.017275	-0.005430	-0.153137	8164.626042	55133.334083	4332.829990	30552.263911
55.036000	-0.008376	-0.013183	-0.005107	-0.129695	7920.882487	52858.133155	4257.093190	29098.694396
55.536000	-0.004131	-0.014602	-0.004742	-0.142068	8116.639911	54133.612881	4298.324145	29856.146957
56.039500	-0.001369	-0.012180	-0.008145	-0.133959	8052.839518	53467.484407	4261.013230	29357.320600
56.537000	-0.001773	-0.011660	-0.001975	-0.114765	7825.566518	51340.003743	4219.970939	28212.963512
57.035000	-0.004481	-0.012924	-0.010759	-0.115729	7805.838217	51306.574432	4195.912578	28269.247949
57.535000	0.001466	-0.010828	-0.003947	-0.103281	7732.990840	50166.989145	4178.844196	27552.149999
58.035500	-0.002966	-0.012101	-0.004976	-0.090703	7547.438337	48683.844079	4138.527447	26848.083722
58.535500	0.002842	-0.008361	-0.002809	-0.075534	7448.393611	47495.260223	4101.169952	26025.690582
59.036000	-0.003340	-0.010260	-0.002056	-0.048419	7112.875685	44614.754172	4028.770627	24625.343806
59.535500	-0.006580	-0.010476	-0.005725	-0.021922	6834.223973	42127.543420	3951.142516	23338.860444
60.036000	-0.004174	-0.011440	-0.004510	-0.061133	7229.640605	45736.883925	4056.427147	25271.093182
60.537500	-0.003729	-0.012006	-0.005601	-0.084629	7474.891413	48058.142489	4119.141214	26515.321169
61.037000	-0.006345	-0.013659	-0.002465	-0.047460	7074.621241	44198.479868	4025.131275	24577.405178
61.537500	-0.008857	-0.015220	0.001599	-0.032558	6910.628462	42663.021193	3996.708553	23845.831465
62.035000	-0.005186	-0.011245	-0.003647	-0.023023	6856.878143	42157.440016	3959.071110	23390.754793
62.548000	-0.000037	-0.010419	-0.005004	-0.024879	6921.170051	42400.541902	3960.320106	23478.547723
63.035000	-0.000700	-0.010428	-0.000782	-0.029229	6955.444991	42797.081470	3982.015842	23685.822951
63.536000	0.001972	-0.010522	0.000844	-0.030427	6991.713315	42898.553555	3989.257727	23743.254179
64.036000	0.001977	-0.009268	-0.002953	-0.028064	6969.578526	42796.637015	3973.522775	23630.100209
64.545000	0.003846	-0.009275	-0.004374	-0.025072	6959.077846	42522.302750	3962.385811	23487.731999
65.037000	0.000059	-0.009988	-0.008004	-0.016134	6841.937818	41651.966157	3931.280701	23068.123635
65.539500	0.007110	-0.009526	0.000580	-0.019470	6937.293857	41992.071133	3960.759178	23223.702536
66.037000	0.005337	-0.008501	-0.000646	-0.016669	6895.018800	41832.731409	3950.710278	23092.994538
66.537500	0.007854	-0.008994	0.001940	-0.015110	6903.837517	41649.284870	3953.262014	23020.589565
67.035000	0.003775	-0.009052	-0.008650	-0.008112	6803.061370	41025.099990	3910.344178	22698.799341
67.535000	0.007247	-0.007773	0.007590	-0.009832	6849.975091	41289.095624	3954.188545	22777.397975
68.036000	0.007962	-0.008082	0.002144	-0.007291	6833.410611	41038.177825	3934.467899	22661.385537
68.535500	0.007249	-0.008685	0.002457	-0.006149	6816.666185	40885.382391	3932.442097	22609.482619
69.036500	0.003393	-0.008622	0.000374	0.002475	6705.777116	40144.324681	3906.612646	22221.719293
69.536500	0.006449	-0.009733	-0.001502	-0.002766	6779.142590	40500.011403	3914.663251	22456.450671
70.039500	0.008401	-0.008991	0.001851	-0.000804	6779.052914	40394.590859	3918.008230	22368.248768
70.537000	0.006101	-0.009926	0.001327	-0.000011	6751.539323	40245.741870	3914.839433	22332.720597
71.036500	0.002780	-0.010713	-0.000127	0.007192	6659.384507	39565.368715	3894.255879	22012.899843
71.535000	0.004283	-0.009850	-0.000191	0.002883	6710.002231	40004.415222	3904.298410	22203.586088
72.035500	0.008031	-0.010040	0.005605	0.004145	6731.857961	39880.604348	3915.133875	22147.549546
72.535000	0.006878	-0.009430	0.005070	0.005391	6710.767419	39826.471427	3910.863501	22092.366784
73.036000	0.006008	-0.010279	0.006774	0.008509	6675.954175	39490.952433	3907.487484	21954.993128
73.536000	0.007502	-0.010278	0.003582	0.006814	6703.767922	39634.099824	3903.923201	22029.568662
74.036500	0.008060	-0.009480	-0.000538	0.007800	6700.025380	39618.165652	3891.860514	21986.156690
74.536500	0.009875	-0.009589	0.002310	0.008554	6709.313674	39545.364409	3896.791915	21953.036656
75.037000	0.007417	-0.011778	0.002628	0.014110	6639.705071	38897.942967	3884.502179	21710.679806
75.534500	0.008896	-0.011800	0.001031	0.008398	6702.106958	39372.386359	3894.143267	21959.874254
76.036500	0.009501	-0.010724	0.005563	0.009510	6697.672401	39369.373593	3902.226337	21911.110700
76.537500	0.008604	-0.011221	0.005470	0.009067	6693.704556	39364.897420	3903.056315	21930.520374
77.035000	0.004064	-0.012212	-0.001274	0.014430	6608.230602	38835.597121	3874.707595	21696.836911
77.535500	0.008857	-0.011856	0.004498	0.009782	6689.669319	39251.737079	3899.058590	21899.185744
78.036000	0.009224	-0.011766	0.007949	0.010310	6688.274864	39215.131873	3905.996479	21876.115918
78.535500	0.009126	-0.011831	0.007799	0.010366	6686.921764	39205.031812	3905.503838	21873.644013
79.036000	0.003501	-0.012243	0.001704	0.014484	6602.965885	38828.502795	3881.481851	21694.486231
79.539500	0.008712	-0.011672	0.009646	0.010725	6680.201622	39188.310666	3909.053627	21857.980460
80.036500	0.008373	-0.011440	0.006648	0.010990	6674.947873	39185.547987	3901.287997	21846.388077
80.536000	0.008485	-0.012270	0.003954	0.009844	6685.886262	39211.895533	3897.624080	21896.461103
81.035000	0.006827	-0.012282	0.005363	0.015884	6619.417022	38709.736732	3886.744961	21633.951375
81.537500	0.010979	-0.012001	0.008924	0.010099	6705.440052	39213.082249	3908.821465	21885.309251
82.035500	0.009186	-0.012036	0.011719	0.009802	6692.373394	39235.084378	3916.231339	21898.333713
82.536000	0.009234	-0.012925	0.011037	0.009001	6699.780511	39227.669597	3916.518120	21933.395454
83.036000	0.010053	-0.013444	0.006008	0.008521	6711.161057	39224.373327	3905.633217	21954.461487
83.536000	0.009724	-0.012576	0.001851	0.008862	6705.282340	39268.414244	3894.981750	21939.488612
84.036500	0.010302	-0.013024	0.012022	0.008179	6716.342620	39288.104376	3920.871895	21969.473703
84.536500	0.008553	-0.013809	0.010807	0.007226	6709.361699	39302.227145	3920.240340	22011.390097
85.037000	0.005547	-0.014327	0.002560	0.013178	6631.641661	38764.209425	3886.520011	21751.116592
85.535000	0.008339	-0.012891	0.011259	0.007648	6703.794404	39343.786032	3920.314342	21992.837479
86.035000	0.009349	-0.013761	0.015269	0.006850	6719.651998	39337.757094	3931.985140	22027.981218
86.535000	0.007828	-0.015117	0.005087	0.005465	6718.457450	39340.160664	3910.728562	22089.100299
87.035500	0.006906	-0.015001	0.005785	0.008348	6685.161539	39108.897968	3905.514132	21962.063039
87.536000	0.007759	-0.015110	0.007499	0.005196	6720.210659	39363.358334	3917.160125	22100.988976
88.036500	0.007968	-0.014883	0.005578	0.005615	6718.360807	39347.187039	3911.542015	22082.458408
88.536500	0.007216	-0.015400	0.003110	0.004247	6723.778048	39418.706498	3908.913576	22143.017001
89.039500	0.008674	-0.015472	0.003515	0.007222	6710.460148	39163.539723	3902.794700	22011.571422
89.537000	0.006069	-0.016500	0.001963	0.001895	6734.402002	39524.050779	3911.795884	22247.590977
90.037000	0.008794	-0.016066	0.009561	0.001639	6760.789327	39582.243012	3930.770622	22258.978962
90.535000	0.008004	-0.016841	0.007541	0.000035	6768.033545	39652.293662	3929.757609	22330.646750
91.035000	0.007087	-0.016264	0.003592	0.001592	6746.072574	39569.517897	3916.432017	22261.093387
91.535000	0.009356	-0.016842	0.010453	-0.001945	6797.809943	39820.042328	3941.742008	22419.505795
92.036000	0.008429	-0.016707	0.008829	-0.002683	6796.112417	39894.244649	3939.561436	22452.704221
92.535500	0.009164	-0.016784	0.005996	-0.003252	6807.815698	39936.195860	3934.010632	22478.362693
93.036500	0.008954	-0.016908	0.001590	-0.001973	6794.460495	39816.836897	3920.198872	22420.778659
93.537000	0.008018	-0.016444	0.011230	-0.003135	6796.481153	39955.227576	3946.598202	22473.094553
94.033500	0.010300	-0.015593	0.006647	-0.002269	6809.195874	39953.945719	3933.196576	22434.058531
94.537000	0.010477	-0.016763	0.014649	-0.002201	6810.177818	39848.515598	3952.765155	22431.009558
95.037500	0.003785	-0.018388	0.001616	0.002849	6705.929789	39285.278068	3908.682550	22205.087952
95.534500	0.007469	-0.018376	0.011160	-0.002640	6787.124723	39748.817250	3945.199686	22450.762002
96.035500	0.010346	-0.017862	0.007545	-0.001472	6802.448606	39693.428784	3933.447071	22398.258254
96.536000	0.008986	-0.017195	0.007277	-0.000894	6785.076199	39700.917302	3931.378596	22372.286249
