sample name	sample
index	1241
start time	 04-29-2021  11:40:53 AM


Wavelength (nm)	Absorbance
494.344910	0.090509
494.563924	0.090509
494.782919	0.090509
495.001897	0.036876
495.220856	-0.012773
495.439797	-0.035326
495.658719	-0.032856
495.877624	-0.011515
496.096510	-0.020477
496.315378	-0.003139
496.534227	0.013576
496.753059	0.006348
496.971872	0.009069
497.190667	0.113545
497.409444	0.145841
497.628203	0.149779
497.846943	0.147020
498.065665	0.150022
498.284369	0.151283
498.503055	0.151910
498.721723	0.154058
498.940372	0.155706
499.159003	0.154786
499.377616	0.153543
499.596210	0.153886
499.814787	0.154902
500.033345	0.154793
500.251885	0.156790
500.470406	0.158025
500.688910	0.156923
500.907395	0.157567
501.125862	0.159359
501.344311	0.159455
501.562742	0.159839
501.781154	0.160628
501.999548	0.160792
502.217924	0.159372
502.436282	0.158481
502.654621	0.158658
502.872942	0.157851
503.091245	0.156321
503.309530	0.157006
503.527797	0.156980
503.746045	0.156493
503.964275	0.156917
504.182487	0.156461
504.400681	0.156852
504.618856	0.157240
504.837013	0.156891
505.055152	0.157884
505.273273	0.157744
505.491376	0.157661
505.709460	0.158223
505.927526	0.158905
506.145574	0.159869
506.363604	0.161086
506.581615	0.161539
506.799608	0.162534
507.017583	0.162074
507.235540	0.161413
507.453478	0.161045
507.671399	0.160227
507.889301	0.160090
508.107185	0.159925
508.325050	0.159854
508.542898	0.159007
508.760727	0.159013
508.978538	0.160439
509.196330	0.160993
509.414105	0.162269
509.631861	0.162515
509.849599	0.162069
510.067319	0.162831
510.285021	0.162150
510.502704	0.162868
510.720369	0.162211
510.938016	0.160990
511.155645	0.161964
511.373255	0.162507
511.590848	0.163274
511.808422	0.163897
512.025977	0.163897
512.243515	0.164845
512.461034	0.164639
512.678536	0.165886
512.896018	0.167691
513.113483	0.166676
513.330930	0.165239
513.548358	0.166466
513.765768	0.166797
513.983160	0.167946
514.200533	0.167329
514.417889	0.166924
514.635226	0.166961
514.852545	0.166280
515.069845	0.167012
515.287128	0.167660
515.504392	0.167173
515.721638	0.166884
515.938866	0.165703
516.156075	0.166481
516.373267	0.167337
516.590440	0.167230
516.807594	0.167526
517.024731	0.168462
517.241850	0.169302
517.458950	0.169161
517.676032	0.168951
517.893095	0.170065
518.110141	0.170257
518.327168	0.171021
518.544177	0.171682
518.761168	0.171365
518.978141	0.171176
519.195095	0.171168
519.412031	0.171674
519.628949	0.173745
519.845849	0.172747
520.062731	0.171926
520.279594	0.172184
520.496439	0.172450
520.713266	0.172551
520.930074	0.172527
521.146865	0.172912
521.363637	0.172687
521.580391	0.171688
521.797127	0.172881
522.013844	0.174251
522.230543	0.174110
522.447224	0.174573
522.663887	0.175926
522.880532	0.175954
523.097158	0.175970
523.313766	0.176832
523.530356	0.177187
523.746928	0.177654
523.963481	0.177461
524.180017	0.177794
524.396534	0.177444
524.613032	0.177953
524.829513	0.178278
525.045975	0.178213
525.262420	0.177751
525.478845	0.178395
525.695253	0.178378
525.911643	0.178193
526.128014	0.178201
526.344367	0.179476
526.560702	0.178832
526.777018	0.179296
526.993316	0.179838
527.209597	0.180517
527.425858	0.180745
527.642102	0.180650
527.858328	0.181669
528.074535	0.182419
528.290724	0.182461
528.506894	0.183363
528.723047	0.183910
528.939181	0.183955
529.155297	0.184745
529.371395	0.184102
529.587475	0.185069
529.803536	0.185501
530.019579	0.185900
530.235604	0.185436
530.451611	0.185766
530.667600	0.186137
530.883570	0.185792
531.099522	0.185856
531.315456	0.186254
531.531372	0.186984
531.747269	0.187181
531.963148	0.187301
532.179009	0.187884
532.394852	0.188281
532.610676	0.188329
532.826482	0.189896
533.042271	0.190230
533.258040	0.191282
533.473792	0.190427
533.689525	0.190320
533.905240	0.191081
534.120937	0.191737
534.336616	0.192184
534.552277	0.192327
534.767919	0.191940
534.983543	0.192971
535.199149	0.192951
535.414736	0.193554
535.630306	0.194679
535.845857	0.195217
536.061390	0.195679
536.276904	0.195411
536.492401	0.196457
536.707879	0.197457
536.923339	0.197174
537.138781	0.197580
537.354204	0.198103
537.569610	0.197537
537.784997	0.197230
538.000366	0.197044
538.215716	0.197607
538.431049	0.197248
538.646363	0.197428
538.861659	0.197817
539.076937	0.198006
539.292196	0.198519
539.507438	0.199066
539.722661	0.199094
539.937866	0.199579
540.153052	0.199811
540.368221	0.200150
540.583371	0.201097
540.798503	0.201024
541.013617	0.201222
541.228712	0.201214
541.443789	0.201690
541.658848	0.202825
541.873889	0.203203
542.088912	0.203689
542.303916	0.204254
542.518902	0.204296
542.733870	0.204449
542.948820	0.204913
543.163752	0.205102
543.378665	0.204342
543.593560	0.204006
543.808437	0.203762
544.023295	0.203257
544.238136	0.203963
544.452958	0.203739
544.667762	0.204067
544.882548	0.204923
545.097315	0.205469
545.312064	0.206953
545.526795	0.207333
545.741508	0.207713
545.956203	0.208215
546.170879	0.207841
546.385537	0.208274
546.600177	0.208498
546.814799	0.208179
547.029402	0.208160
547.243988	0.207822
547.458555	0.207759
547.673103	0.208547
547.887634	0.209490
548.102146	0.209746
548.316640	0.209714
548.531116	0.210301
548.745574	0.210640
548.960013	0.211356
549.174435	0.212472
549.388838	0.213140
549.603222	0.213425
549.817589	0.213207
550.031937	0.213258
550.246267	0.213187
550.460579	0.213469
550.674873	0.213667
550.889148	0.213261
551.103405	0.212692
551.317644	0.213104
551.531865	0.212554
551.746068	0.213160
551.960252	0.213257
552.174418	0.213715
552.388566	0.213796
552.602696	0.213519
552.816807	0.213987
553.030900	0.214396
553.244975	0.214314
553.459032	0.214678
553.673070	0.214673
553.887091	0.214869
554.101093	0.215563
554.315077	0.215120
554.529042	0.215980
554.742990	0.216114
554.956919	0.216458
555.170830	0.216354
555.384722	0.216683
555.598597	0.216633
555.812453	0.216888
556.026291	0.216687
556.240111	0.217351
556.453913	0.216926
556.667696	0.216839
556.881461	0.216908
557.095208	0.216758
557.308937	0.217325
557.522647	0.217608
557.736339	0.218109
557.950013	0.218100
558.163669	0.218506
558.377307	0.219353
558.590926	0.219964
558.804527	0.220267
559.018110	0.221213
559.231675	0.220695
559.445221	0.220662
559.658749	0.220940
559.872259	0.221366
560.085751	0.221362
560.299225	0.221201
560.512680	0.221110
560.726117	0.220690
560.939536	0.220664
561.152937	0.221273
561.366319	0.221565
561.579683	0.221357
561.793029	0.221333
562.006357	0.221347
562.219667	0.221679
562.432958	0.221783
562.646231	0.222114
562.859486	0.221927
563.072723	0.221967
563.285941	0.222225
563.499141	0.222518
563.712323	0.222580
563.925487	0.222478
564.138632	0.222331
564.351760	0.222616
564.564869	0.222955
564.777960	0.223491
564.991032	0.223934
565.204087	0.223972
565.417123	0.223836
565.630141	0.224131
565.843140	0.224313
566.056122	0.224572
566.269085	0.224655
566.482030	0.224602
566.694957	0.224628
566.907866	0.224329
567.120756	0.224264
567.333628	0.224386
567.546482	0.224428
567.759318	0.224041
567.972135	0.223823
568.184935	0.223811
568.397716	0.223710
568.610478	0.223905
568.823223	0.224025
569.035949	0.224435
569.248657	0.224710
569.461347	0.224674
569.674019	0.225443
569.886672	0.225931
570.099308	0.225781
570.311925	0.226150
570.524523	0.225640
570.737104	0.225730
570.949666	0.225374
571.162210	0.225434
571.374736	0.225517
571.587244	0.225786
571.799733	0.225863
572.012205	0.226198
572.224658	0.226602
572.437092	0.226905
572.649509	0.227185
572.861907	0.227428
573.074287	0.228023
573.286649	0.228472
573.498993	0.228336
573.711318	0.228372
573.923625	0.228466
574.135914	0.228272
574.348185	0.228577
574.560438	0.228840
574.772672	0.228965
574.984888	0.228782
575.197086	0.228737
575.409266	0.229032
575.621427	0.228796
575.833570	0.228937
576.045695	0.229260
576.257802	0.229676
576.469890	0.229540
576.681961	0.229862
576.894013	0.229734
577.106046	0.229881
577.318062	0.229767
577.530059	0.230610
577.742039	0.230553
577.954000	0.230740
578.165942	0.230755
578.377867	0.230941
578.589773	0.231105
578.801661	0.231334
579.013531	0.231307
579.225382	0.231540
579.437216	0.231280
579.649031	0.231380
579.860828	0.231325
580.072606	0.231188
580.284367	0.231390
580.496109	0.230907
580.707833	0.231363
580.919539	0.231512
581.131227	0.231748
581.342896	0.231796
581.554547	0.232305
581.766180	0.232298
581.977795	0.232869
582.189391	0.233023
582.400969	0.233545
582.612529	0.233495
582.824071	0.233665
583.035595	0.233714
583.247100	0.234326
583.458587	0.234862
583.670056	0.234905
583.881506	0.234716
584.092939	0.234586
584.304353	0.234920
584.515749	0.234730
584.727127	0.235065
584.938486	0.235228
585.149828	0.235190
585.361151	0.234869
585.572456	0.235593
585.783742	0.235736
585.995011	0.235908
586.206261	0.236012
586.417493	0.236229
586.628706	0.236348
586.839902	0.236307
587.051079	0.236288
587.262238	0.236546
587.473379	0.236553
587.684502	0.236819
587.895606	0.237180
588.106692	0.237441
588.317760	0.237925
588.528810	0.238480
588.739841	0.238976
588.950855	0.239272
589.161850	0.239482
589.372827	0.239506
589.583785	0.239477
589.794726	0.239324
590.005648	0.239361
590.216552	0.239278
590.427437	0.238982
590.638305	0.239265
590.849154	0.239281
591.059985	0.239006
591.270798	0.239026
591.481592	0.239489
591.692369	0.239703
591.903127	0.240086
592.113867	0.240423
592.324588	0.240234
592.535292	0.240211
592.745977	0.240320
592.956644	0.240752
593.167293	0.240956
593.377923	0.240964
593.588536	0.241380
593.799130	0.241481
594.009706	0.241778
594.220263	0.242354
594.430803	0.242745
594.641324	0.242865
594.851827	0.243302
595.062312	0.243338
595.272778	0.243550
595.483227	0.243593
595.693657	0.243561
595.904069	0.243350
596.114462	0.243610
596.324838	0.243287
596.535195	0.243582
596.745534	0.243416
596.955855	0.243515
597.166157	0.243777
597.376441	0.243635
597.586707	0.244052
597.796955	0.244658
598.007185	0.244500
598.217396	0.244619
598.427589	0.244833
598.637764	0.245248
598.847921	0.245490
599.058060	0.245575
599.268180	0.246374
599.478282	0.246507
599.688366	0.246239
599.898431	0.246100
600.108479	0.246429
600.318508	0.246313
600.528519	0.246422
600.738511	0.246558
600.948486	0.246694
601.158442	0.246384
601.368380	0.246516
601.578300	0.246848
601.788202	0.247622
601.998085	0.247836
602.207950	0.247935
602.417797	0.247832
602.627626	0.248184
602.837436	0.248020
603.047228	0.248074
603.257002	0.247795
603.466758	0.247838
603.676496	0.247899
603.886215	0.248382
604.095916	0.248552
604.305599	0.248620
604.515264	0.248625
604.724910	0.249161
604.934538	0.249313
605.144148	0.249649
605.353740	0.249517
605.563314	0.249578
605.772869	0.249104
605.982406	0.249095
606.191925	0.249252
606.401425	0.249506
606.610908	0.249345
606.820372	0.249290
607.029818	0.249637
607.239246	0.250318
607.448655	0.250388
607.658047	0.250792
607.867420	0.251204
608.076775	0.251539
608.286111	0.251699
608.495430	0.251787
608.704730	0.252493
608.914012	0.252411
609.123275	0.252428
609.332521	0.252248
609.541748	0.252088
609.750957	0.251794
609.960148	0.252008
610.169321	0.252210
610.378475	0.252684
610.587611	0.252797
610.796729	0.252809
611.005829	0.252727
611.214910	0.253174
611.423974	0.253551
611.633019	0.254164
611.842045	0.254293
612.051054	0.254106
612.260044	0.254220
612.469017	0.254082
612.677970	0.254398
612.886906	0.254759
613.095824	0.254826
613.304723	0.254868
613.513604	0.254916
613.722467	0.254873
613.931311	0.255381
614.140138	0.255011
614.348946	0.255071
614.557736	0.255191
614.766507	0.255022
614.975261	0.255142
615.183996	0.255161
615.392713	0.254738
615.601412	0.254856
615.810092	0.254561
616.018754	0.254648
616.227399	0.254694
616.436024	0.254782
616.644632	0.254736
616.853222	0.255247
617.061793	0.255417
617.270346	0.256177
617.478880	0.256659
617.687397	0.257060
617.895895	0.257736
618.104375	0.257897
618.312837	0.257937
618.521281	0.258252
618.729706	0.258080
618.938113	0.258460
619.146502	0.258290
619.354873	0.258253
619.563226	0.257964
619.771560	0.257816
619.979876	0.258284
620.188174	0.258421
620.396453	0.258996
620.604715	0.259368
620.812958	0.259389
621.021183	0.259734
621.229390	0.259648
621.437578	0.260087
621.645748	0.260618
621.853900	0.260470
622.062034	0.260570
622.270150	0.260287
622.478247	0.260167
622.686326	0.260320
622.894387	0.260457
623.102430	0.260854
623.310454	0.261035
623.518461	0.261067
623.726449	0.261209
623.934418	0.261334
624.142370	0.261828
624.350303	0.262023
624.558218	0.262250
624.766115	0.262114
624.973994	0.262143
625.181855	0.261987
625.389697	0.262038
625.597521	0.262286
625.805327	0.262557
626.013114	0.262483
626.220883	0.262367
626.428634	0.262043
626.636367	0.262402
626.844082	0.262239
627.051778	0.262510
627.259457	0.262496
627.467117	0.262514
627.674758	0.262923
627.882382	0.262919
628.089987	0.262876
628.297574	0.263216
628.505143	0.262971
628.712694	0.263441
628.920226	0.263773
629.127740	0.264008
629.335236	0.264167
629.542714	0.263890
629.750174	0.264077
629.957615	0.264461
630.165038	0.264527
630.372443	0.264958
630.579829	0.264572
630.787198	0.264347
630.994548	0.264486
631.201880	0.264609
631.409194	0.264684
631.616489	0.264674
631.823766	0.264669
632.031025	0.265071
632.238266	0.265131
632.445489	0.265628
632.652693	0.265947
632.859879	0.266088
633.067047	0.266158
633.274197	0.266357
633.481329	0.266602
633.688442	0.266910
633.895537	0.267046
634.102614	0.267377
634.309672	0.267438
634.516713	0.267564
634.723735	0.267676
634.930739	0.267876
635.137724	0.268005
635.344692	0.268101
635.551641	0.267916
635.758572	0.267985
635.965485	0.267942
636.172379	0.268220
636.379256	0.268372
636.586114	0.268405
636.792954	0.268509
636.999775	0.268640
637.206579	0.268710
637.413364	0.269376
637.620131	0.269511
637.826880	0.269566
638.033610	0.269383
638.240323	0.269461
638.447017	0.269402
638.653692	0.269398
638.860350	0.269510
639.066990	0.269718
639.273611	0.269614
639.480214	0.269766
639.686798	0.270085
639.893365	0.270471
640.099913	0.270545
640.306443	0.271152
640.512955	0.271450
640.719449	0.271809
640.925924	0.271711
641.132381	0.271940
641.338820	0.272041
641.545241	0.272023
641.751644	0.272122
641.958028	0.272614
642.164394	0.272498
642.370742	0.272872
642.577071	0.272921
642.783383	0.273824
642.989676	0.274003
643.195951	0.274293
643.402207	0.274693
643.608446	0.275009
643.814666	0.274977
644.020868	0.275150
644.227052	0.275263
644.433218	0.275282
644.639365	0.275093
644.845494	0.275351
645.051605	0.275359
645.257698	0.275379
645.463772	0.275428
645.669828	0.275444
645.875866	0.275330
646.081886	0.275351
646.287888	0.275536
646.493871	0.275698
646.699836	0.275463
646.905783	0.275707
647.111712	0.275951
647.317622	0.276022
647.523514	0.276177
647.729388	0.276381
647.935244	0.276439
648.141082	0.276711
648.346901	0.276772
648.552702	0.277158
648.758485	0.277137
648.964250	0.277362
649.169996	0.277571
649.375724	0.277864
649.581434	0.278028
649.787126	0.278319
649.992800	0.278260
650.198455	0.278325
650.404092	0.278155
650.609711	0.278205
650.815311	0.277896
651.020894	0.277878
651.226458	0.278021
651.432004	0.278286
651.637532	0.277958
651.843041	0.278007
652.048532	0.278084
652.254006	0.278037
652.459460	0.278193
652.664897	0.278558
652.870315	0.278833
653.075716	0.278790
653.281097	0.278847
653.486461	0.279387
653.691807	0.279722
653.897134	0.279890
654.102443	0.280586
654.307734	0.280819
654.513006	0.280743
654.718261	0.280741
654.923497	0.280966
655.128715	0.281237
655.333915	0.281604
655.539096	0.282067
655.744259	0.282412
655.949404	0.282634
656.154531	0.282848
656.359640	0.283391
656.564730	0.283924
656.769802	0.284451
656.974856	0.284806
657.179892	0.284930
657.384909	0.284814
657.589908	0.284847
657.794889	0.285233
657.999852	0.285386
658.204797	0.285647
658.409723	0.285760
658.614631	0.285874
658.819521	0.285906
659.024393	0.285925
659.229246	0.286243
659.434081	0.286475
659.638898	0.286453
659.843697	0.287000
660.048478	0.287089
660.253240	0.287244
660.457984	0.287348
660.662710	0.287495
660.867417	0.287916
661.072107	0.288142
661.276778	0.288108
661.481431	0.288317
661.686066	0.288229
661.890682	0.288229
662.095281	0.288268
662.299861	0.288462
662.504422	0.288676
662.708966	0.288702
662.913491	0.288748
663.117999	0.288951
663.322488	0.288933
663.526958	0.289059
663.731411	0.289360
663.935845	0.289654
664.140261	0.289637
664.344659	0.289961
664.549038	0.289767
664.753400	0.290009
664.957743	0.290413
665.162068	0.290655
665.366375	0.290769
665.570663	0.291093
665.774933	0.291319
665.979185	0.291815
666.183419	0.291738
666.387635	0.292535
666.591832	0.292704
666.796011	0.293011
667.000172	0.293291
667.204315	0.293792
667.408439	0.293958
667.612545	0.294063
667.816634	0.294349
668.020703	0.294754
668.224755	0.294965
668.428788	0.295362
668.632803	0.295702
668.836800	0.295918
669.040779	0.296234
669.244739	0.296575
669.448681	0.296948
669.652605	0.296724
669.856511	0.296873
670.060399	0.297190
670.264268	0.297338
670.468119	0.297191
670.671952	0.297401
670.875767	0.297372
671.079563	0.297674
671.283341	0.297714
671.487101	0.298360
671.690843	0.298546
671.894567	0.298488
672.098272	0.298780
672.301959	0.299219
672.505628	0.299516
672.709278	0.299758
672.912911	0.299691
673.116525	0.299912
673.320121	0.299714
673.523699	0.299702
673.727258	0.299776
673.930799	0.299997
674.134322	0.299961
674.337827	0.299920
674.541314	0.300063
674.744782	0.300472
674.948232	0.300585
675.151664	0.301011
675.355078	0.301376
675.558474	0.301588
675.761851	0.301593
675.965210	0.302009
676.168551	0.302075
676.371873	0.302370
676.575178	0.302370
676.778464	0.302459
676.981732	0.302437
677.184981	0.302555
677.388213	0.302739
677.591426	0.302715
677.794621	0.302838
677.997798	0.303323
678.200956	0.303445
678.404097	0.303529
678.607219	0.303881
678.810323	0.304103
679.013408	0.304598
679.216476	0.304717
679.419525	0.304954
679.622556	0.305231
679.825569	0.305229
680.028563	0.305238
680.231540	0.305586
680.434498	0.305784
680.637438	0.306027
680.840359	0.306023
681.043263	0.306345
681.246148	0.306408
681.449015	0.306345
681.651864	0.306473
681.854694	0.306723
682.057506	0.306738
682.260301	0.306964
682.463076	0.306999
682.665834	0.307049
682.868573	0.307182
683.071295	0.307580
683.273998	0.307884
683.476682	0.308165
683.679349	0.308519
683.881997	0.308576
684.084627	0.308639
684.287239	0.308951
684.489833	0.309275
684.692408	0.309298
684.894965	0.309453
685.097504	0.309617
685.300025	0.309755
685.502527	0.309851
685.705012	0.310125
685.907478	0.310350
686.109925	0.310408
686.312355	0.310420
686.514766	0.310781
686.717159	0.311002
686.919534	0.311102
687.121891	0.311231
687.324230	0.311428
687.526550	0.311579
687.728852	0.311743
687.931136	0.311869
688.133401	0.312082
688.335649	0.312450
688.537878	0.312577
688.740089	0.312732
688.942281	0.313188
689.144456	0.313015
689.346612	0.313188
689.548750	0.313261
689.750870	0.313688
689.952971	0.313886
690.155055	0.313677
690.357120	0.313618
690.559167	0.313795
690.761195	0.313749
690.963206	0.314147
691.165198	0.314293
691.367172	0.314770
691.569128	0.314623
691.771065	0.314779
691.972984	0.315036
692.174885	0.315478
692.376768	0.315839
692.578633	0.316072
692.780479	0.316243
692.982308	0.316413
693.184118	0.316314
693.385909	0.316514
