sample name	sample
index	1083
start time	 04-22-2021  11:21:37 AM
880	0.281672
Peak Time (s)	102.538
Peak Height 	0.2817
calc peak height	100,103
Baseline Time (s)	11.037
Baseline Value 	-0.006266
subtract baseline	10,4
Abs	0.148337
Peak Time (s)	100.536
Peak Height 	0.1483
calc peak height	100,103
Baseline Time (s)	10.04
Baseline Value 	0.002391
subtract baseline	10,3
PK_550	0.093373
Peak Time (s)	101.537
Peak Height 	0.09337
calc peak height	100,103
Baseline Time (s)	11.037
Baseline Value 	5.7101E-4
subtract baseline	10,2
PK_880	0.133223
Peak Time (s)	100.536
Peak Height 	0.1332
calc peak height	100,103
Baseline Time (s)	8.536
Baseline Value 	0.003275
subtract baseline	10,1


Time (s)	A880-A510	A880-A775	A880-A975	A880	I510	I775	I975	I880	
0.036000	0.000520	0.000251	-0.003999	0.003314	6233.002956	42982.057811	3866.811915	22530.731744
0.536500	-0.002441	-0.000527	0.001014	0.005139	6196.474249	42742.858479	3874.161609	22448.441406
1.037000	-0.000986	-0.000140	0.003294	0.005181	6207.215449	42774.472158	3879.350338	22446.537482
1.537000	-0.004939	-0.000718	-0.004456	0.007524	6159.611394	42507.511549	3856.152477	22341.351541
2.040000	-0.000200	-0.000010	0.003309	0.001114	6244.373075	43161.139267	3888.885785	22630.402100
2.537500	-0.000464	0.000137	0.001144	0.000971	6243.449829	43187.993104	3884.151155	22636.920903
3.037500	0.001274	0.000167	0.004478	-0.001063	6272.611883	43379.614885	3896.770570	22729.561660
3.535500	-0.004067	-0.000092	0.000451	0.003511	6196.489615	42932.280689	3876.626104	22521.826074
4.036000	-0.001583	-0.000297	0.002344	0.000314	6239.892223	43208.634494	3888.498631	22666.778003
4.535500	-0.001606	-0.000336	0.003281	-0.000020	6242.281319	43236.006047	3891.484480	22681.994198
5.036500	-0.000620	-0.000839	-0.003557	-0.000314	6252.152041	43216.569536	3876.201750	22695.382272
5.536500	0.001515	0.000318	0.001095	0.001115	6257.608414	43191.445619	3883.701566	22630.397678
6.036500	-0.001431	0.000189	-0.000249	0.000159	6242.249056	43268.060995	3882.794486	22673.837322
6.537000	-0.000227	0.000350	0.002760	-0.000018	6252.896182	43299.452730	3890.254022	22681.903295
7.034500	-0.001148	-0.000487	-0.002552	-0.000211	6247.286148	43239.713739	3878.296373	22690.718756
7.537500	0.000558	-0.000369	-0.002513	-0.000464	6262.416005	43274.139664	3878.972496	22702.236955
8.035000	-0.002291	-0.000294	0.004880	-0.000255	6238.821542	43261.716858	3895.810076	22692.703319
8.536000	0.000000	0.000097	-0.000040	0.000012	6254.420284	43273.243539	3883.624775	22680.538083
9.036000	-0.001282	-0.000001	-0.001313	-0.000177	6245.984581	43281.689999	3881.096951	22689.145809
9.572000	0.001776	-0.000042	0.005024	-0.000471	6271.916410	43305.160993	3896.661555	22702.569314
10.039500	-0.001015	-0.000073	0.000000	0.000218	6245.002391	43238.332400	3883.237552	22671.156207
10.536500	-0.001501	0.000258	0.002970	0.000013	6242.833508	43288.023534	3890.674692	22680.482107
11.037000	0.001437	0.000000	0.004815	0.000000	6265.632692	43265.332228	3895.054615	22681.095989
11.537500	0.000085	0.000204	-0.003770	-0.000438	6258.552461	43324.911861	3875.994238	22701.045644
12.036500	0.001195	0.000095	0.001255	-0.000211	6265.393111	43293.686789	3887.175769	22690.700586
12.538000	-0.002535	0.000050	-0.001321	-0.000502	6238.852768	43316.602237	3881.837005	22703.981932
13.035500	0.000380	0.000022	-0.001443	-0.001267	6267.260306	43385.213100	3883.335894	22738.897481
13.535500	-0.000625	-0.000222	0.001877	-0.000895	6256.598703	43327.833458	3890.239975	22721.892118
14.036000	-0.000434	0.001155	0.002683	0.003276	6225.980680	43068.963257	3882.363454	22532.458765
14.536500	-0.001221	0.000476	0.000061	0.002177	6228.376151	43107.827214	3878.818330	22582.207971
15.036000	-0.000059	-0.000301	-0.003990	-0.000511	6258.008968	43284.894643	3875.655540	22704.398763
15.536500	-0.001523	-0.000360	-0.002281	-0.000696	6248.134739	43296.537359	3880.054330	22712.842151
16.037000	0.000521	0.000075	0.001266	-0.000826	6264.937269	43348.980406	3888.643863	22718.738135
16.534500	-0.001863	-0.000195	0.001533	-0.000514	6244.111705	43294.989594	3888.538377	22704.523532
17.035000	0.001801	0.000365	0.004266	-0.003871	6298.609771	43660.387294	3902.927316	22858.167140
17.535500	-0.003114	-0.000164	0.003684	-0.000115	6231.426035	43260.798174	3892.658561	22686.333870
18.035500	-0.001049	0.000209	0.005773	0.000582	6241.940055	43230.729953	3895.943138	22654.610507
18.536000	0.000553	0.000323	0.003944	0.001048	6250.692219	43198.133045	3890.534727	22633.436065
19.036000	-0.000513	-0.000082	0.002616	0.000953	6243.213212	43169.341536	3887.638957	22637.736900
19.536500	-0.000465	-0.000525	-0.001868	0.000369	6248.078710	43182.409684	3878.536953	22664.289793
20.036500	-0.003657	-0.000934	0.002885	0.000377	6223.498844	43143.793580	3889.621485	22663.929999
20.537000	-0.001152	0.000103	-0.000849	0.000979	6238.091483	43184.130503	3879.487222	22636.547782
21.037000	-0.003036	-0.000150	-0.002681	0.000681	6225.927912	43188.335935	3875.927828	22650.118960
21.537500	-0.001972	-0.000430	-0.001759	0.000439	6235.939893	43184.762240	3878.626964	22661.096102
22.037000	-0.001682	-0.000302	0.004391	0.000472	6237.919245	43193.504618	3892.940385	22659.601997
22.534500	-0.002177	0.000045	0.005426	0.000949	6230.454319	43181.498746	3894.255586	22637.905112
23.038500	-0.000600	-0.000852	0.004430	0.000153	6248.707185	43172.168246	3893.784652	22674.138312
23.535500	-0.001041	0.000479	0.005395	0.001772	6232.856212	43145.478895	3892.242935	22600.557092
24.036000	0.000617	-0.000910	0.001959	0.000280	6257.113193	43155.008340	3887.673902	22668.325410
24.536000	-0.001495	-0.000490	0.001651	0.000254	6241.029408	43196.359674	3887.014528	22669.525626
25.036500	-0.000292	0.000543	0.004045	0.001136	6243.499929	43210.252132	3890.561391	22629.406252
25.537500	-0.001921	0.000259	-0.001491	0.000862	6233.087839	43209.380654	3878.267523	22641.873557
26.037500	-0.002402	-0.000348	0.004345	0.000378	6233.111753	43198.025616	3893.054220	22663.886259
26.535500	-0.000117	0.000189	-0.000802	0.000488	6249.842048	43237.547806	3880.739317	22658.863698
27.035500	-0.000205	-0.000051	0.001336	-0.002129	6269.412093	43458.628318	3891.870274	22778.297962
27.535500	0.001115	-0.000632	-0.000038	-0.002665	6283.840498	43454.468315	3889.901432	22802.861466
28.036000	0.001293	-0.000083	0.004229	-0.001079	6272.885557	43357.924458	3896.219626	22730.312500
28.536000	0.002283	0.000315	0.003602	-0.000447	6275.675800	43336.161630	3893.247910	22701.486023
29.036500	-0.001136	-0.000406	-0.001728	-0.001231	6255.247431	43341.938961	3882.586975	22737.238412
29.536500	0.000777	-0.000030	0.001894	-0.000769	6266.482814	43334.062659	3889.985573	22716.169791
30.036500	-0.001111	-0.000085	0.002412	-0.001181	6255.060766	43367.262208	3892.174562	22734.971509
30.537500	0.000270	0.000059	-0.000061	0.001851	6242.324848	43099.312822	3879.292259	22596.977409
31.034500	-0.002018	-0.000852	0.002377	0.000354	6236.246769	43153.566776	3888.483448	22664.995578
31.538000	-0.000988	-0.000165	-0.001653	-0.001076	6255.194960	43349.905717	3882.400343	22730.145343
32.035500	-0.000991	-0.000069	0.005549	-0.001458	6258.124584	43394.437415	3900.242828	22747.597760
32.535500	0.000813	-0.000919	0.004910	-0.000941	6268.092986	43267.336386	3897.504100	22724.001074
33.035500	-0.002805	-0.000717	0.004736	-0.001129	6241.590441	43303.548170	3897.537082	22732.575042
33.540500	0.001906	0.000256	0.003434	-0.002124	6285.785659	43486.784630	3896.809490	22778.057614
34.036000	-0.001050	-0.000826	-0.002958	0.000201	6244.860984	43170.130579	3876.396197	22671.931686
34.537000	-0.000489	0.000087	0.002010	0.000781	6244.723727	43201.020181	3886.621744	22645.578259
35.037000	-0.002936	0.000079	0.005282	0.001218	6222.579304	43159.748663	3893.281270	22625.693340
35.537500	-0.001066	-0.000544	0.001438	0.001113	6237.726305	43111.808304	3884.505931	22630.480974
36.038000	-0.002090	-0.000347	0.006972	0.000892	6231.561810	43150.480438	3898.044974	22640.513523
36.534500	-0.002674	-0.000357	-0.000690	0.000807	6227.733692	43157.455452	3880.257263	22644.396395
37.035000	-0.000485	0.000228	0.006372	0.001288	6240.845608	43167.110160	3895.690991	22622.529008
37.536000	0.000089	-0.000348	-0.000684	0.000975	6247.673017	43142.731066	3879.879868	22636.729260
38.036000	-0.002767	-0.000452	0.002154	0.000632	6228.362366	43164.819054	3887.307919	22652.343841
38.536000	-0.002135	0.000317	0.001693	0.001335	6227.819416	43170.940497	3884.582567	22620.385102
39.037000	-0.000982	-0.000088	-0.000097	0.001100	6238.474596	43155.224149	3880.957347	22631.078131
39.536500	-0.000220	-0.000467	0.002434	0.000852	6246.241851	43143.020906	3887.447902	22642.314301
40.037500	-0.000604	-0.000555	0.003522	0.000598	6245.242071	43158.461587	3890.598056	22653.878196
40.534500	-0.000558	0.000379	0.002380	0.001046	6242.149498	43203.496884	3886.867350	22633.527328
41.035500	-0.002509	-0.000471	0.002987	0.000282	6233.024300	43195.501984	3890.084828	22668.259146
41.534500	-0.000780	0.000257	-0.002761	0.000951	6241.171457	43201.024466	3875.116543	22637.851778
42.035500	0.000191	0.000248	0.000767	0.001222	6246.561919	43174.966668	3882.684577	22625.509487
42.536000	-0.000569	0.000111	0.004342	0.001346	6239.754571	43150.892538	3890.767784	22619.882576
43.036000	-0.000815	-0.000724	0.006380	0.000670	6243.064987	43136.161506	3897.168931	22650.607379
43.536500	-0.001814	-0.000091	-0.002568	0.000154	6239.342850	43242.588681	3877.411018	22674.076165
44.036500	-0.000527	-0.000161	0.004512	-0.001451	6261.659956	43385.290206	3897.768934	22747.313648
44.537000	-0.000044	-0.000327	0.001658	-0.001268	6263.984921	43352.857893	3890.603995	22738.952800
45.034500	-0.001123	-0.000762	0.000111	-0.001705	6259.010478	43352.906947	3887.996522	22758.883262
45.537500	-0.001383	0.000447	0.005199	-0.000951	6251.182400	43395.293678	3898.210794	22724.458477
46.035500	0.000237	0.000578	0.003985	-0.000831	6262.770856	43396.319442	3895.056354	22718.976857
46.535500	0.000011	0.000034	0.004435	-0.000590	6259.156677	43323.228817	3895.548995	22707.965514
47.035500	-0.000290	-0.000382	-0.000720	0.001618	6239.812280	43080.149873	3878.302381	22607.545425
47.539000	-0.001475	0.000111	-0.002408	0.001479	6231.769770	43138.502892	3874.709316	22613.838597
48.036000	-0.001133	0.000203	0.002202	-0.000749	6251.551382	43353.774507	3890.662074	22715.245263
48.536500	0.000221	-0.000045	0.005610	-0.000881	6263.039885	43343.052708	3899.020203	22721.265718
49.037000	-0.002659	-0.000546	0.000437	0.001571	6222.005622	43069.392441	3881.102356	22609.690653
49.537000	0.003307	0.000684	0.011236	-0.002690	6301.157073	43579.711964	3916.795658	22803.994364
50.034500	0.003324	0.000150	0.008186	-0.001984	6295.770761	43463.942114	3907.778241	22771.682597
50.537500	-0.002735	0.000853	0.006027	0.005586	6190.849888	42828.407598	3884.777461	22428.317796
51.035000	0.003602	-0.002972	0.012970	0.158486	5248.218147	30749.340970	3594.993220	16633.315857
51.535000	0.003510	-0.010136	-0.003688	0.146661	5312.524532	31049.258421	3586.965750	17012.347651
52.036000	-0.010018	-0.016340	-0.006771	-0.061177	6673.901501	47649.541824	4019.103907	25673.215737
52.536000	-0.014665	-0.034346	-0.010215	-0.187860	7898.390228	60357.584229	4396.306196	33386.050910
53.036000	-0.001592	-0.032555	0.007499	-0.186097	8030.278729	60361.336966	4453.426940	33262.584579
53.537000	0.003558	-0.022596	0.008836	-0.156318	7747.418652	57800.315284	4353.019383	31250.494389
54.036500	0.004489	-0.014832	0.009955	-0.123651	7405.813358	54743.864066	4249.074138	29196.297192
54.537000	-0.007490	-0.012001	0.007078	-0.047834	6581.075371	46732.322772	4020.443380	24984.189331
55.037500	-0.002947	-0.008917	0.002089	-0.098243	7077.625225	52470.771046	4147.328934	27702.095093
55.535000	0.005947	-0.003354	0.008609	-0.102648	7207.531854	53620.371596	4179.880792	27954.905867
56.035500	0.008268	0.000071	0.011606	-0.103526	7239.381333	54124.924848	4191.624697	28005.629298
56.535500	0.014290	0.003102	0.017562	-0.093037	7194.969755	53253.661643	4177.897749	27406.583431
57.035500	0.014752	0.006049	0.017707	-0.077862	7051.900863	51857.191693	4133.392821	26565.091614
57.536000	0.024679	0.009404	0.022579	-0.063543	7010.122607	50638.051178	4106.196924	25797.606595
58.036500	0.034441	0.013580	0.034932	-0.036615	6850.829313	48204.373764	4065.383024	24421.062140
58.537000	0.036359	0.016422	0.039043	-0.015559	6680.509683	46345.794494	4019.622180	23402.594230
59.037000	0.040906	0.018992	0.037249	0.020413	6416.599872	43133.643202	3923.836554	21772.891809
59.537000	0.045273	0.024492	0.055025	0.069571	6071.986048	39291.046352	3850.340144	19753.266575
60.037500	0.050569	0.031540	0.058991	0.148615	5576.573576	33740.006297	3694.630959	16949.000345
60.535000	0.052888	0.028225	0.060342	0.158567	5529.938915	32813.815689	3678.451754	16630.750102
61.035500	0.058579	0.031410	0.070416	0.190258	5377.107851	30916.864360	3639.174632	15664.577753
61.536000	0.058509	0.032622	0.071071	0.258220	5017.918879	26933.124956	3528.678050	13815.677859
62.036000	0.065134	0.035588	0.076177	0.288915	4903.719445	25449.961213	3490.961492	13070.885605
62.537000	0.069317	0.043093	0.076469	0.272786	4999.670510	26708.102539	3514.908944	13455.678922
63.036500	0.068276	0.043061	0.080469	0.285688	4933.327361	26011.112919	3501.816272	13146.750241
63.539500	0.071447	0.046179	0.082055	0.296013	4900.106748	25631.654046	3489.219993	12906.039790
64.052500	0.073529	0.047400	0.087765	0.303098	4877.195110	25327.541327	3487.261221	12744.153886
64.540000	0.073150	0.050432	0.088956	0.306899	4858.256999	25287.975283	3483.560863	12658.381201
65.035000	0.071873	0.051530	0.082784	0.307309	4850.658226	25323.316175	3474.322560	12649.154781
65.538000	0.070979	0.052723	0.087061	0.307001	4848.032611	25400.808339	3480.743089	12656.090652
66.035500	0.072550	0.054083	0.085693	0.304570	4866.067536	25597.598345	3482.240859	12710.839833
66.536000	0.080423	0.057870	0.089563	0.302210	4912.949141	25920.380028	3491.093126	12764.299874
67.036500	0.073776	0.057184	0.081572	0.302969	4878.907310	25844.077106	3478.695425	12747.071797
67.536500	0.080162	0.058902	0.096543	0.292776	4955.916361	26480.521973	3515.033744	12980.883405
68.037000	0.081765	0.059322	0.093139	0.287140	4990.473720	26810.848058	3518.360323	13112.546550
68.537000	0.083545	0.059792	0.096902	0.280755	5030.150090	27190.384879	3533.699082	13263.779018
69.040000	0.082828	0.061313	0.092351	0.280954	5025.663160	27264.306718	3526.476288	13259.043962
69.534500	0.084241	0.061328	0.096518	0.268088	5096.717653	27996.123944	3552.752402	13570.484072
70.034500	0.085815	0.062227	0.093203	0.261396	5138.930999	28437.704064	3558.086364	13736.164711
70.535500	0.081742	0.064783	0.096812	0.256182	5144.821820	28897.718294	3572.217147	13867.028348
71.035500	0.083742	0.063492	0.095630	0.254659	5163.106456	28911.525497	3572.768177	13905.537357
71.536000	0.085010	0.064891	0.096848	0.244082	5225.682557	29637.258140	3592.129537	14176.827803
72.036000	0.083706	0.065294	0.092858	0.239035	5245.814772	29974.239974	3593.891401	14308.649657
72.536500	0.086306	0.065947	0.102921	0.234453	5284.929318	30301.919122	3618.732557	14429.627022
73.036500	0.082539	0.065971	0.099831	0.235248	5260.011599	30253.414886	3612.062446	14408.555574
73.537500	0.089467	0.067187	0.101206	0.225571	5351.994918	30946.756104	3631.199079	14667.827243
74.037500	0.088009	0.068969	0.106168	0.222285	5362.339072	31275.350493	3645.802226	14757.201179
74.535000	0.092618	0.069185	0.109809	0.219175	5406.496591	31493.058929	3657.964460	14842.397368
75.035000	0.087152	0.067751	0.101185	0.220874	5365.482487	31287.932841	3639.445938	14795.793873
75.535500	0.089745	0.069177	0.105453	0.212322	5429.573402	31946.449400	3662.509979	15032.332468
76.036000	0.091791	0.070265	0.110265	0.211347	5447.230500	32084.426880	3673.147848	15059.587984
76.536000	0.091343	0.071152	0.107003	0.210404	5450.134927	32207.445635	3668.868230	15086.026150
77.036000	0.092432	0.071568	0.103711	0.214672	5431.534275	31949.138945	3655.073510	14966.859936
77.536500	0.097803	0.072378	0.100817	0.207903	5503.301731	32459.563517	3662.113581	15156.385941
78.037000	0.095813	0.071776	0.111623	0.208103	5490.205428	32405.147788	3681.707257	15150.746604
78.540000	0.098560	0.073376	0.114866	0.210327	5493.330513	32362.855943	3683.615851	15088.173937
79.034500	0.097970	0.073946	0.112150	0.216601	5452.661971	31979.143848	3666.937619	14913.396825
79.535000	0.100261	0.076099	0.108623	0.214541	5478.363952	32262.048664	3664.247572	14970.498191
80.035500	0.101548	0.075193	0.104821	0.215308	5481.455488	32149.391666	3655.933097	14949.216746
80.535500	0.100213	0.075428	0.115296	0.216938	5463.893896	32055.785207	3672.112749	14904.078838
81.036000	0.099922	0.076895	0.109105	0.225665	5411.200375	31573.346677	3645.011976	14665.294123
81.536500	0.103445	0.077776	0.119249	0.222585	5449.668807	31835.501264	3668.987538	14749.002792
82.036500	0.107129	0.078445	0.120392	0.225042	5456.885603	31716.880020	3666.573220	14682.176002
82.536500	0.107358	0.078089	0.119879	0.226511	5449.600031	31596.315976	3662.944025	14642.394884
83.037000	0.105307	0.079328	0.120370	0.229282	5421.441215	31495.391343	3658.788586	14567.707030
83.537500	0.107727	0.079948	0.120867	0.231153	5424.630383	31413.319074	3656.294862	14517.552969
84.035000	0.109580	0.080432	0.116515	0.233026	5424.515557	31322.449916	3645.099060	14467.569342
84.535000	0.111807	0.081001	0.123880	0.234377	5429.614707	31271.408515	3655.914230	14431.643326
85.035500	0.112295	0.081245	0.117802	0.234493	5431.784974	31279.778637	3644.777937	14428.581751
85.535500	0.110330	0.081099	0.121947	0.235484	5414.604568	31205.690245	3650.428357	14402.291341
86.036000	0.112869	0.082173	0.126695	0.237230	5419.204198	31162.036654	3655.845117	14356.161556
86.536500	0.112913	0.083112	0.128408	0.238797	5410.389137	31121.294936	3656.110193	14314.902938
87.036500	0.115933	0.082854	0.125309	0.239116	5426.049986	31083.908743	3649.943531	14306.521484
87.537000	0.115171	0.082861	0.122751	0.239693	5418.267513	31046.936773	3644.330001	14291.361808
88.039500	0.115278	0.083862	0.130519	0.242576	5402.226021	30925.545416	3653.093909	14216.018318
88.537000	0.113310	0.083269	0.135683	0.242605	5390.743250	30885.480993	3662.412824	14215.250782
89.035000	0.116563	0.084361	0.123246	0.249162	5371.868826	30536.227562	3628.485294	14045.727612
89.536000	0.118314	0.085929	0.132100	0.246231	5398.661004	30823.445092	3649.361327	14121.193802
90.035500	0.120235	0.086163	0.131485	0.247457	5402.665855	30759.860272	3646.062257	14089.558577
90.535500	0.119749	0.086065	0.128726	0.248163	5395.801193	30708.357388	3639.890122	14071.371710
91.036500	0.118411	0.085534	0.127900	0.255036	5349.059167	30239.247950	3626.355881	13896.000055
91.538000	0.119418	0.085388	0.134958	0.250198	5382.237437	30535.588831	3647.372345	14019.151952
92.036500	0.121579	0.087213	0.145279	0.253534	5375.535032	30439.848592	3659.984547	13934.093470
92.537500	0.121533	0.087677	0.138340	0.254952	5367.203976	30379.514174	3644.918212	13898.123928
93.037500	0.116933	0.086768	0.133145	0.259486	5315.857873	30037.992885	3627.742003	13783.923999
93.535000	0.124834	0.089260	0.141954	0.258523	5365.670387	30254.314142	3644.995898	13808.081088
94.038000	0.123969	0.088872	0.140020	0.259860	5353.195939	30146.086661	3639.176732	13774.543322
94.535500	0.124471	0.087817	0.136717	0.259623	5357.379699	30094.914504	3633.762674	13780.486293
95.036000	0.124314	0.088920	0.134679	0.265527	5323.316573	29796.544251	3619.914472	13633.582613
95.536000	0.124752	0.089099	0.139035	0.263164	5338.995357	29954.053293	3631.612984	13692.125498
96.036500	0.124530	0.088421	0.143797	0.264572	5329.859685	29824.721767	3637.522540	13657.207306
96.537000	0.125612	0.087748	0.136923	0.264995	5333.555684	29756.990971	3624.726409	13646.746377
97.037000	0.124149	0.089446	0.139344	0.270879	5292.724144	29499.908661	3618.728271	13502.127112
