sample name	sample
index	494
start time	 03-11-2021  02:21:56 PM


Wavelength (nm)	Absorbance
494.344910	-0.420537
494.563924	-0.420537
494.782919	-0.420537
495.001897	0.679441
495.220856	-0.024753
495.439797	0.237167
495.658719	0.351918
495.877624	0.375184
496.096510	0.549445
496.315378	1.424861
496.534227	1.432491
496.753059	0.534202
496.971872	0.241911
497.190667	0.185498
497.409444	0.172446
497.628203	0.175681
497.846943	0.177226
498.065665	0.178939
498.284369	0.178563
498.503055	0.178457
498.721723	0.179814
498.940372	0.180887
499.159003	0.180706
499.377616	0.183199
499.596210	0.182123
499.814787	0.181524
500.033345	0.180027
500.251885	0.180166
500.470406	0.181102
500.688910	0.180272
500.907395	0.179451
501.125862	0.179568
501.344311	0.178665
501.562742	0.179737
501.781154	0.180254
501.999548	0.180341
502.217924	0.180864
502.436282	0.180844
502.654621	0.181076
502.872942	0.180991
503.091245	0.180957
503.309530	0.181187
503.527797	0.180948
503.746045	0.181648
503.964275	0.182682
504.182487	0.182657
504.400681	0.183090
504.618856	0.183047
504.837013	0.183060
505.055152	0.183158
505.273273	0.183871
505.491376	0.183471
505.709460	0.183672
505.927526	0.183927
506.145574	0.184124
506.363604	0.184047
506.581615	0.184345
506.799608	0.184268
507.017583	0.184521
507.235540	0.184036
507.453478	0.184960
507.671399	0.185471
507.889301	0.184607
508.107185	0.184235
508.325050	0.184038
508.542898	0.184578
508.760727	0.185187
508.978538	0.185300
509.196330	0.185185
509.414105	0.185774
509.631861	0.185182
509.849599	0.186128
510.067319	0.186175
510.285021	0.186414
510.502704	0.186381
510.720369	0.186482
510.938016	0.186517
511.155645	0.186353
511.373255	0.186466
511.590848	0.186994
511.808422	0.186236
512.025977	0.186249
512.243515	0.186090
512.461034	0.186651
512.678536	0.187076
512.896018	0.188053
513.113483	0.188837
513.330930	0.189053
513.548358	0.189159
513.765768	0.189864
513.983160	0.190309
514.200533	0.190706
514.417889	0.190100
514.635226	0.189901
514.852545	0.189751
515.069845	0.189819
515.287128	0.189523
515.504392	0.189869
515.721638	0.190534
515.938866	0.191412
516.156075	0.191971
516.373267	0.192844
516.590440	0.192862
516.807594	0.193418
517.024731	0.193295
517.241850	0.193089
517.458950	0.192679
517.676032	0.192500
517.893095	0.191822
518.110141	0.191998
518.327168	0.192519
518.544177	0.193434
518.761168	0.192826
518.978141	0.192109
519.195095	0.192858
519.412031	0.193230
519.628949	0.193762
519.845849	0.194008
520.062731	0.193815
520.279594	0.194049
520.496439	0.194425
520.713266	0.195037
520.930074	0.196194
521.146865	0.195726
521.363637	0.196471
521.580391	0.196520
521.797127	0.197029
522.013844	0.197367
522.230543	0.197441
522.447224	0.197237
522.663887	0.197715
522.880532	0.197686
523.097158	0.198321
523.313766	0.198233
523.530356	0.198508
523.746928	0.198561
523.963481	0.199148
524.180017	0.199115
524.396534	0.199754
524.613032	0.200145
524.829513	0.200657
525.045975	0.200637
525.262420	0.200929
525.478845	0.200546
525.695253	0.201129
525.911643	0.201371
526.128014	0.201767
526.344367	0.202466
526.560702	0.202212
526.777018	0.202889
526.993316	0.203984
527.209597	0.204324
527.425858	0.204893
527.642102	0.205830
527.858328	0.205714
528.074535	0.206255
528.290724	0.206392
528.506894	0.206773
528.723047	0.206483
528.939181	0.206562
529.155297	0.206725
529.371395	0.207792
529.587475	0.207459
529.803536	0.207988
530.019579	0.208058
530.235604	0.208034
530.451611	0.208501
530.667600	0.209273
530.883570	0.209737
531.099522	0.210555
531.315456	0.210233
531.531372	0.210492
531.747269	0.210939
531.963148	0.211534
532.179009	0.211632
532.394852	0.211923
532.610676	0.211924
532.826482	0.212494
533.042271	0.212066
533.258040	0.212418
533.473792	0.212722
533.689525	0.213229
533.905240	0.213480
534.120937	0.214254
534.336616	0.214451
534.552277	0.214358
534.767919	0.214007
534.983543	0.214672
535.199149	0.214977
535.414736	0.215506
535.630306	0.215964
535.845857	0.216732
536.061390	0.216460
536.276904	0.216787
536.492401	0.217520
536.707879	0.217989
536.923339	0.218416
537.138781	0.218759
537.354204	0.219066
537.569610	0.219104
537.784997	0.219022
538.000366	0.219650
538.215716	0.219637
538.431049	0.220419
538.646363	0.220848
538.861659	0.221042
539.076937	0.221739
539.292196	0.221566
539.507438	0.222070
539.722661	0.222258
539.937866	0.222699
540.153052	0.223363
540.368221	0.223548
540.583371	0.223816
540.798503	0.224286
541.013617	0.224559
541.228712	0.225580
541.443789	0.225641
541.658848	0.225721
541.873889	0.225848
542.088912	0.226048
542.303916	0.226287
542.518902	0.226876
542.733870	0.226885
542.948820	0.226844
543.163752	0.227035
543.378665	0.227335
543.593560	0.227641
543.808437	0.227856
544.023295	0.228024
544.238136	0.228189
544.452958	0.228340
544.667762	0.228456
544.882548	0.228969
545.097315	0.228990
545.312064	0.229035
545.526795	0.229721
545.741508	0.229909
545.956203	0.230296
546.170879	0.230468
546.385537	0.230656
546.600177	0.231381
546.814799	0.231307
547.029402	0.231546
547.243988	0.231971
547.458555	0.231952
547.673103	0.232253
547.887634	0.232657
548.102146	0.232859
548.316640	0.232889
548.531116	0.232854
548.745574	0.233373
548.960013	0.233722
549.174435	0.233876
549.388838	0.234115
549.603222	0.234094
549.817589	0.234487
550.031937	0.235431
550.246267	0.235988
550.460579	0.236338
550.674873	0.236500
550.889148	0.236785
551.103405	0.236905
551.317644	0.237064
551.531865	0.237757
551.746068	0.237356
551.960252	0.237118
552.174418	0.236956
552.388566	0.237718
552.602696	0.238298
552.816807	0.238394
553.030900	0.239075
553.244975	0.239631
553.459032	0.239545
553.673070	0.240163
553.887091	0.240614
554.101093	0.241000
554.315077	0.241231
554.529042	0.241045
554.742990	0.241309
554.956919	0.241661
555.170830	0.241321
555.384722	0.241572
555.598597	0.242058
555.812453	0.242313
556.026291	0.242704
556.240111	0.242700
556.453913	0.243030
556.667696	0.243604
556.881461	0.243740
557.095208	0.244749
557.308937	0.244799
557.522647	0.244892
557.736339	0.244840
557.950013	0.244963
558.163669	0.244593
558.377307	0.244883
558.590926	0.245064
558.804527	0.244536
559.018110	0.244433
559.231675	0.245091
559.445221	0.245079
559.658749	0.245335
559.872259	0.245818
560.085751	0.246396
560.299225	0.246624
560.512680	0.246755
560.726117	0.247268
560.939536	0.247343
561.152937	0.247969
561.366319	0.248064
561.579683	0.248273
561.793029	0.248256
562.006357	0.248460
562.219667	0.248631
562.432958	0.248578
562.646231	0.248723
562.859486	0.249133
563.072723	0.248776
563.285941	0.249119
563.499141	0.249402
563.712323	0.249765
563.925487	0.250114
564.138632	0.250241
564.351760	0.250475
564.564869	0.250791
564.777960	0.250856
564.991032	0.251055
565.204087	0.251172
565.417123	0.251232
565.630141	0.251474
565.843140	0.251601
566.056122	0.251975
566.269085	0.252217
566.482030	0.252660
566.694957	0.252902
566.907866	0.253077
567.120756	0.253671
567.333628	0.254162
567.546482	0.254027
567.759318	0.254176
567.972135	0.254166
568.184935	0.254448
568.397716	0.254667
568.610478	0.254869
568.823223	0.255108
569.035949	0.255014
569.248657	0.255048
569.461347	0.255560
569.674019	0.255977
569.886672	0.256467
570.099308	0.256925
570.311925	0.256932
570.524523	0.257032
570.737104	0.257488
570.949666	0.257815
571.162210	0.257627
571.374736	0.257578
571.587244	0.257841
571.799733	0.257964
572.012205	0.257706
572.224658	0.257795
572.437092	0.258056
572.649509	0.258002
572.861907	0.258147
573.074287	0.258499
573.286649	0.258834
573.498993	0.258838
573.711318	0.259021
573.923625	0.259664
574.135914	0.260610
574.348185	0.260728
574.560438	0.260864
574.772672	0.261042
574.984888	0.261175
575.197086	0.261254
575.409266	0.261283
575.621427	0.261233
575.833570	0.261366
576.045695	0.261243
576.257802	0.261584
576.469890	0.261768
576.681961	0.262176
576.894013	0.262658
577.106046	0.262769
577.318062	0.262756
577.530059	0.263089
577.742039	0.263102
577.954000	0.263516
578.165942	0.263665
578.377867	0.263981
578.589773	0.264149
578.801661	0.263974
579.013531	0.264514
579.225382	0.265239
579.437216	0.265399
579.649031	0.265288
579.860828	0.265275
580.072606	0.265752
580.284367	0.265649
580.496109	0.266091
580.707833	0.266483
580.919539	0.267033
581.131227	0.267067
581.342896	0.267390
581.554547	0.268432
581.766180	0.268263
581.977795	0.268284
582.189391	0.269076
582.400969	0.268612
582.612529	0.268973
582.824071	0.268965
583.035595	0.269114
583.247100	0.269395
583.458587	0.269164
583.670056	0.269515
583.881506	0.269700
584.092939	0.269360
584.304353	0.270141
584.515749	0.270087
584.727127	0.270277
584.938486	0.271067
585.149828	0.271318
585.361151	0.271370
585.572456	0.271482
585.783742	0.271553
585.995011	0.272309
586.206261	0.271991
586.417493	0.272795
586.628706	0.272955
586.839902	0.272690
587.051079	0.272713
587.262238	0.273305
587.473379	0.273931
587.684502	0.274343
587.895606	0.274320
588.106692	0.275138
588.317760	0.275219
588.528810	0.275164
588.739841	0.275758
588.950855	0.275974
589.161850	0.275923
589.372827	0.275904
589.583785	0.275822
589.794726	0.276462
590.005648	0.276341
590.216552	0.276433
590.427437	0.277003
590.638305	0.277023
590.849154	0.277501
591.059985	0.277521
591.270798	0.277581
591.481592	0.278110
591.692369	0.278339
591.903127	0.278537
592.113867	0.278933
592.324588	0.278708
592.535292	0.278654
592.745977	0.278737
592.956644	0.278925
593.167293	0.279695
593.377923	0.279702
593.588536	0.279271
593.799130	0.279438
594.009706	0.279782
594.220263	0.280420
594.430803	0.280567
594.641324	0.280903
594.851827	0.281099
595.062312	0.281019
595.272778	0.281505
595.483227	0.281980
595.693657	0.282438
595.904069	0.282314
596.114462	0.282348
596.324838	0.282953
596.535195	0.283152
596.745534	0.283235
596.955855	0.283532
597.166157	0.283542
597.376441	0.283565
597.586707	0.283965
597.796955	0.284215
598.007185	0.284214
598.217396	0.284261
598.427589	0.283992
598.637764	0.284650
598.847921	0.284814
599.058060	0.284832
599.268180	0.285524
599.478282	0.285557
599.688366	0.285915
599.898431	0.286403
600.108479	0.286259
600.318508	0.286740
600.528519	0.286975
600.738511	0.287272
600.948486	0.287877
601.158442	0.288063
601.368380	0.288077
601.578300	0.288144
601.788202	0.288366
601.998085	0.288900
602.207950	0.288877
602.417797	0.289092
602.627626	0.289110
602.837436	0.289242
603.047228	0.289454
603.257002	0.289789
603.466758	0.290217
603.676496	0.290436
603.886215	0.290360
604.095916	0.291035
604.305599	0.291024
604.515264	0.291228
604.724910	0.291346
604.934538	0.291762
605.144148	0.291939
605.353740	0.291955
605.563314	0.292131
605.772869	0.292249
605.982406	0.292203
606.191925	0.292654
606.401425	0.292878
606.610908	0.293009
606.820372	0.292908
607.029818	0.293280
607.239246	0.293451
607.448655	0.293461
607.658047	0.293990
607.867420	0.294589
608.076775	0.294630
608.286111	0.294664
608.495430	0.294662
608.704730	0.294559
608.914012	0.294570
609.123275	0.294605
609.332521	0.294850
609.541748	0.295244
609.750957	0.295036
609.960148	0.295020
610.169321	0.295092
610.378475	0.295558
610.587611	0.295712
610.796729	0.295852
611.005829	0.296293
611.214910	0.296577
611.423974	0.296247
611.633019	0.296486
611.842045	0.296756
612.051054	0.297087
612.260044	0.297208
612.469017	0.297337
612.677970	0.297744
612.886906	0.297905
613.095824	0.297871
613.304723	0.297997
613.513604	0.298513
613.722467	0.298783
613.931311	0.299090
614.140138	0.299550
614.348946	0.299929
614.557736	0.300187
614.766507	0.300089
614.975261	0.300376
615.183996	0.300741
615.392713	0.300604
615.601412	0.300891
615.810092	0.300751
616.018754	0.300938
616.227399	0.301013
616.436024	0.300734
616.644632	0.300999
616.853222	0.300936
617.061793	0.301316
617.270346	0.301458
617.478880	0.301477
617.687397	0.301685
617.895895	0.301461
618.104375	0.302091
618.312837	0.302639
618.521281	0.302786
618.729706	0.303241
618.938113	0.303366
619.146502	0.303758
619.354873	0.303848
619.563226	0.304442
619.771560	0.304969
619.979876	0.304702
620.188174	0.304829
620.396453	0.304973
620.604715	0.304964
620.812958	0.304922
621.021183	0.305251
621.229390	0.305440
621.437578	0.305565
621.645748	0.305348
621.853900	0.305521
622.062034	0.305483
622.270150	0.305852
622.478247	0.306032
622.686326	0.306217
622.894387	0.305914
623.102430	0.306100
623.310454	0.305981
623.518461	0.306324
623.726449	0.306566
623.934418	0.306583
624.142370	0.306528
624.350303	0.306879
624.558218	0.307315
624.766115	0.307673
624.973994	0.307952
625.181855	0.308115
625.389697	0.308264
625.597521	0.308373
625.805327	0.308745
626.013114	0.308820
626.220883	0.309020
626.428634	0.308782
626.636367	0.308776
626.844082	0.308969
627.051778	0.309246
627.259457	0.309440
627.467117	0.309824
627.674758	0.310190
627.882382	0.310651
628.089987	0.310966
628.297574	0.311061
628.505143	0.311533
628.712694	0.311556
628.920226	0.311774
629.127740	0.312079
629.335236	0.312106
629.542714	0.312076
629.750174	0.312406
629.957615	0.312415
630.165038	0.312701
630.372443	0.312720
630.579829	0.312933
630.787198	0.313315
630.994548	0.313312
631.201880	0.313464
631.409194	0.313840
631.616489	0.313978
631.823766	0.314248
632.031025	0.314647
632.238266	0.314979
632.445489	0.315386
632.652693	0.315363
632.859879	0.315206
633.067047	0.315573
633.274197	0.315788
633.481329	0.315611
633.688442	0.315752
633.895537	0.315852
634.102614	0.315798
634.309672	0.315731
634.516713	0.316025
634.723735	0.316402
634.930739	0.316573
635.137724	0.316602
635.344692	0.316904
635.551641	0.317201
635.758572	0.317326
635.965485	0.317732
636.172379	0.318073
636.379256	0.318050
636.586114	0.318570
636.792954	0.318774
636.999775	0.318862
637.206579	0.318967
637.413364	0.319199
637.620131	0.319593
637.826880	0.319860
638.033610	0.319916
638.240323	0.320103
638.447017	0.320297
638.653692	0.320223
638.860350	0.320680
639.066990	0.320985
639.273611	0.320985
639.480214	0.321321
639.686798	0.321195
639.893365	0.321430
640.099913	0.321723
640.306443	0.321779
640.512955	0.322193
640.719449	0.322214
640.925924	0.322018
641.132381	0.322232
641.338820	0.322226
641.545241	0.322741
641.751644	0.323182
641.958028	0.323361
642.164394	0.323580
642.370742	0.323538
642.577071	0.323638
642.783383	0.324356
642.989676	0.324764
643.195951	0.324825
643.402207	0.325022
643.608446	0.325055
643.814666	0.325370
644.020868	0.325544
644.227052	0.325908
644.433218	0.326420
644.639365	0.326542
644.845494	0.326423
645.051605	0.326532
645.257698	0.326800
645.463772	0.326944
645.669828	0.327117
645.875866	0.327361
646.081886	0.327717
646.287888	0.327883
646.493871	0.327945
646.699836	0.328281
646.905783	0.328795
647.111712	0.328705
647.317622	0.328770
647.523514	0.328934
647.729388	0.328753
647.935244	0.328605
648.141082	0.328702
648.346901	0.329202
648.552702	0.329526
648.758485	0.329260
648.964250	0.329535
649.169996	0.329988
649.375724	0.330334
649.581434	0.330954
649.787126	0.331346
649.992800	0.331581
650.198455	0.331709
650.404092	0.331707
650.609711	0.332096
650.815311	0.332126
651.020894	0.332110
651.226458	0.331981
651.432004	0.332211
651.637532	0.332328
651.843041	0.332280
652.048532	0.332327
652.254006	0.332419
652.459460	0.333211
652.664897	0.333516
652.870315	0.333888
653.075716	0.334400
653.281097	0.334654
653.486461	0.334970
653.691807	0.335561
653.897134	0.335893
654.102443	0.336501
654.307734	0.336192
654.513006	0.336394
654.718261	0.336621
654.923497	0.336983
655.128715	0.337153
655.333915	0.337203
655.539096	0.337088
655.744259	0.337243
655.949404	0.337027
656.154531	0.337369
656.359640	0.337577
656.564730	0.337778
656.769802	0.337552
656.974856	0.337844
657.179892	0.338418
657.384909	0.338716
657.589908	0.338838
657.794889	0.339179
657.999852	0.339692
658.204797	0.340020
658.409723	0.340334
658.614631	0.340817
658.819521	0.341161
659.024393	0.341376
659.229246	0.341707
659.434081	0.341954
659.638898	0.342383
659.843697	0.342392
660.048478	0.342671
660.253240	0.342766
660.457984	0.343065
660.662710	0.343088
660.867417	0.343234
661.072107	0.343421
661.276778	0.343578
661.481431	0.343680
661.686066	0.343979
661.890682	0.344233
662.095281	0.344682
662.299861	0.344937
662.504422	0.344821
662.708966	0.344858
662.913491	0.344981
663.117999	0.345283
663.322488	0.345558
663.526958	0.345584
663.731411	0.345786
663.935845	0.345841
664.140261	0.345856
664.344659	0.346168
664.549038	0.346340
664.753400	0.346744
664.957743	0.347028
665.162068	0.347066
665.366375	0.347387
665.570663	0.347445
665.774933	0.347722
665.979185	0.347883
666.183419	0.348350
666.387635	0.348739
666.591832	0.348802
666.796011	0.349101
667.000172	0.349575
667.204315	0.350111
667.408439	0.350519
667.612545	0.350545
667.816634	0.351152
668.020703	0.351436
668.224755	0.351568
668.428788	0.351789
668.632803	0.352038
668.836800	0.352393
669.040779	0.352325
669.244739	0.352423
669.448681	0.353196
669.652605	0.353203
669.856511	0.353464
670.060399	0.353766
670.264268	0.354124
670.468119	0.354373
670.671952	0.354335
670.875767	0.354586
671.079563	0.355026
671.283341	0.354932
671.487101	0.355241
671.690843	0.355376
671.894567	0.355364
672.098272	0.355455
672.301959	0.355585
672.505628	0.355907
672.709278	0.356457
672.912911	0.356667
673.116525	0.356926
673.320121	0.357088
673.523699	0.357363
673.727258	0.358020
673.930799	0.358351
674.134322	0.358846
674.337827	0.359232
674.541314	0.359423
674.744782	0.359612
674.948232	0.359850
675.151664	0.360069
675.355078	0.360338
675.558474	0.360583
675.761851	0.360964
675.965210	0.361004
676.168551	0.361191
676.371873	0.361140
676.575178	0.361337
676.778464	0.361434
676.981732	0.361403
677.184981	0.361546
677.388213	0.361566
677.591426	0.361800
677.794621	0.362188
677.997798	0.362164
678.200956	0.362240
678.404097	0.362587
678.607219	0.362861
678.810323	0.363387
679.013408	0.363722
679.216476	0.364054
679.419525	0.364056
679.622556	0.364421
679.825569	0.365127
680.028563	0.365805
680.231540	0.365776
680.434498	0.366098
680.637438	0.366614
680.840359	0.366928
681.043263	0.367176
681.246148	0.367372
681.449015	0.367581
681.651864	0.367508
681.854694	0.367469
682.057506	0.367963
682.260301	0.367960
682.463076	0.368011
682.665834	0.368113
682.868573	0.368484
683.071295	0.368993
683.273998	0.368845
683.476682	0.369312
683.679349	0.369724
683.881997	0.370071
684.084627	0.370723
684.287239	0.370716
684.489833	0.370889
684.692408	0.370909
684.894965	0.371063
685.097504	0.371541
685.300025	0.371642
685.502527	0.372035
685.705012	0.371918
685.907478	0.372003
686.109925	0.372190
686.312355	0.372622
686.514766	0.373065
686.717159	0.373499
686.919534	0.373828
687.121891	0.374015
687.324230	0.373939
687.526550	0.374177
687.728852	0.374261
687.931136	0.374636
688.133401	0.374902
688.335649	0.375155
688.537878	0.374967
688.740089	0.375071
688.942281	0.375376
689.144456	0.375512
689.346612	0.375731
689.548750	0.375937
689.750870	0.376195
689.952971	0.376259
690.155055	0.376235
690.357120	0.376464
690.559167	0.376575
690.761195	0.376404
690.963206	0.376625
691.165198	0.376785
691.367172	0.376996
691.569128	0.376942
691.771065	0.376813
691.972984	0.376900
692.174885	0.377326
692.376768	0.377160
692.578633	0.377781
692.780479	0.377963
692.982308	0.378381
693.184118	0.378530
693.385909	0.378915
