sample name	sample
index	1165
start time	 04-26-2021  10:32:51 AM
880	0.453288
Peak Time (s)	91.038
Peak Height 	0.4533
calc peak height	90,93
Baseline Time (s)	9.037
Baseline Value 	-0.006563
subtract baseline	10,4
Abs	0.332953
Peak Time (s)	92.038
Peak Height 	0.333
calc peak height	90,93
Baseline Time (s)	11.536
Baseline Value 	0.004857
subtract baseline	10,3
PK_550	0.175430
Peak Time (s)	90.037
Peak Height 	0.1754
calc peak height	90,93
Baseline Time (s)	11.536
Baseline Value 	0.001358
subtract baseline	10,2
PK_880	0.318402
Peak Time (s)	92.536
Peak Height 	0.3184
calc peak height	90,93
Baseline Time (s)	11.036
Baseline Value 	0.002776
subtract baseline	10,1


Time (s)	A880-A510	A880-A775	A880-A975	A880	I510	I775	I975	I880	
0.040000	-0.001289	-0.000508	-0.004168	0.003589	6117.102190	43820.302871	3790.836498	22661.706829
0.535500	-0.000540	-0.001226	-0.006118	0.004364	6116.907175	43679.545646	3784.401543	22626.260029
1.035000	-0.002489	-0.001524	0.000222	0.003647	6107.488392	43719.024110	3801.148888	22659.070052
1.536000	-0.006054	-0.001489	-0.002531	0.006412	6059.497765	43462.542830	3788.029173	22532.876612
2.036500	0.000289	-0.001281	-0.003815	-0.000417	6160.148958	44126.757965	3801.213956	22845.979038
2.539000	0.002273	-0.000607	-0.001616	0.000057	6171.882329	44145.807645	3805.350839	22824.094961
3.042000	0.000891	-0.000310	0.001314	-0.001469	6172.998614	44319.673963	3816.105090	22894.609368
3.536500	-0.000775	-0.000276	-0.000684	0.002289	6131.026826	43965.191168	3802.229001	22721.310750
4.037000	-0.000483	-0.000607	-0.001431	-0.000208	6152.544355	44170.969025	3806.428988	22836.299935
4.535000	-0.000155	-0.001246	0.001260	0.000189	6152.006297	44072.526277	3811.962200	22817.988476
5.035000	-0.001280	-0.001170	-0.000930	-0.000320	6147.246632	44128.150804	3807.906774	22841.505027
5.535500	-0.000072	-0.000849	-0.003696	-0.000317	6156.570205	44158.290675	3801.257163	22841.327253
6.035500	-0.000090	-0.000158	0.004711	0.000274	6151.856688	44167.849582	3820.127534	22814.053988
6.536000	-0.000144	-0.000698	-0.006226	-0.000090	6154.250330	44151.083262	3794.681865	22830.842947
7.035500	-0.001560	-0.001303	0.000485	-0.000397	6145.677766	44122.726266	3811.503435	22845.041457
7.536500	0.001876	0.000511	-0.001720	0.000313	6166.800521	44227.940449	3804.485227	22812.276643
8.037000	0.000128	-0.000615	-0.003890	-0.000127	6156.647035	44162.560322	3800.339187	22832.559802
8.537000	0.001852	0.000247	-0.003940	0.000500	6165.164261	44185.014451	3798.723313	22803.658063
9.037000	-0.000908	-0.000009	0.000620	0.000000	6147.647928	44208.220544	3810.872103	22826.704725
9.535000	0.000066	0.000138	0.003927	0.000462	6151.607867	44178.225675	3817.763412	22805.397144
10.035000	0.000446	0.000221	0.003690	0.000415	6154.911316	44190.549879	3817.301498	22807.542074
10.535500	-0.002780	-0.000695	-0.000608	-0.000343	6135.849486	44175.456918	3808.735702	22842.524101
11.035500	0.000000	-0.000844	-0.002963	-0.000462	6158.248758	44172.606384	3803.360273	22848.023800
11.536000	-0.001799	0.000000	0.000000	-0.000059	6141.217269	44214.640030	3809.516329	22829.409790
12.036000	-0.000080	-0.000182	0.005033	-0.000162	6155.310042	44207.192144	3821.976844	22834.187855
12.537000	0.001127	-0.000829	0.003597	-0.000932	6170.654282	44218.827701	3820.352776	22869.770078
13.035500	0.000489	-0.000019	-0.002264	-0.001389	6169.247870	44339.815709	3807.266714	22890.907797
13.537000	0.001112	-0.000026	-0.000909	-0.001772	6177.077232	44375.869985	3811.457836	22908.661625
14.037500	-0.002059	-0.000374	-0.001423	0.001652	6126.053519	44016.385920	3801.985271	22750.592529
14.535000	-0.001046	-0.000809	-0.004894	0.001135	6137.822761	44024.081184	3794.936783	22774.367805
15.035000	-0.000211	-0.000337	-0.003879	-0.000204	6154.617632	44196.405579	3800.551519	22836.129196
15.535500	-0.001877	-0.001273	-0.002142	-0.002253	6157.580657	44302.518597	3809.642782	22930.961205
16.036000	-0.002873	0.000256	-0.001179	-0.001426	6143.479287	44369.692731	3809.969981	22892.618780
16.539000	0.001904	0.000044	0.004382	-0.001409	6180.428805	44347.888448	3823.432836	22891.869566
17.036500	0.000076	-0.000974	-0.001453	-0.002165	6172.066326	44322.677391	3811.092388	22926.879478
17.536500	0.001104	0.000343	0.001460	0.000734	6157.535844	44171.776600	3811.126730	22792.851868
18.037000	-0.001125	-0.000137	0.003076	0.000397	6142.911683	44158.210419	3815.855645	22808.408578
18.534500	0.000200	-0.000234	-0.002704	0.000387	6153.224215	44149.925405	3801.948985	22808.845978
19.034500	-0.000718	0.000347	-0.001425	0.001303	6139.053970	44118.024669	3802.817212	22766.630885
19.535000	-0.000486	0.000298	0.001565	0.000759	6145.043509	44165.128816	3811.322674	22791.720445
20.034500	-0.001117	0.000090	0.001039	0.000533	6141.917288	44166.856044	3810.595616	22802.113245
20.535500	-0.002688	-0.000419	-0.002550	0.000481	6130.217318	44123.334876	3802.091807	22804.509048
21.036000	0.001164	-0.000407	-0.003359	0.000903	6156.692985	44084.306049	3799.148270	22785.059391
21.536000	-0.002613	-0.000626	-0.000386	0.000422	6131.244025	44109.266196	3807.428558	22807.226136
22.038000	-0.000370	-0.000009	0.001059	0.000599	6147.173903	44151.104759	3810.484122	22799.071642
22.536500	0.000175	-0.000596	-0.001007	0.000172	6154.694017	44135.890087	3806.535680	22818.780498
23.034000	-0.000804	-0.001367	0.003764	0.000629	6143.591296	44019.194504	3816.960992	22797.692507
23.535000	-0.001686	-0.000157	-0.001220	0.000624	6136.824315	44134.628664	3804.937983	22797.904513
24.035000	-0.001417	-0.000126	0.001301	0.000656	6138.652625	44134.538905	3810.931456	22796.447856
24.535500	-0.001158	-0.000384	0.001418	0.000333	6143.143705	44140.754904	3811.993305	22811.317646
25.036000	-0.001941	0.001001	0.001896	0.001390	6128.976227	44171.954286	3810.596442	22762.645263
25.536000	-0.000024	-0.000171	-0.000805	0.000321	6151.996613	44162.153129	3806.663629	22811.879913
26.038500	-0.000582	0.000001	0.002106	0.000567	6145.788292	44155.159512	3813.092266	22800.544269
26.536500	-0.001391	0.000041	0.001548	0.000173	6142.579362	44196.486439	3812.696470	22818.720306
27.036500	-0.000462	-0.000347	0.005713	-0.001392	6161.881218	44308.791030	3826.649642	22891.077933
27.537000	0.001266	0.000496	0.002289	-0.001640	6177.255152	44413.240614	3818.892429	22902.564970
28.037500	0.000698	0.000063	0.003132	-0.001280	6170.025361	44337.282684	3820.068852	22885.871367
28.535000	0.000011	-0.000223	0.002507	-0.001884	6169.377024	44367.671104	3820.017091	22913.847646
29.037000	-0.001671	-0.000747	-0.005035	0.002622	6121.589021	43889.071535	3791.072257	22706.026426
29.535000	0.000505	-0.000663	-0.001574	-0.002206	6175.732581	44356.446494	3810.901780	22928.809837
30.035000	0.003826	0.000205	0.007215	-0.001394	6195.345513	44361.788835	3830.342633	22891.167240
30.536500	0.000365	-0.000500	-0.000872	0.001323	6147.266099	44035.637603	3804.097314	22765.744469
31.035500	-0.003275	-0.000678	-0.003173	0.002427	6110.800883	43914.032524	3795.958661	22714.973272
31.536500	0.003423	0.000506	0.005110	-0.000855	6187.969325	44339.021978	3823.857190	22866.217044
32.037000	0.000025	-0.000569	-0.001316	-0.002068	6170.924101	44352.206344	3811.189990	22922.400710
32.537000	-0.000343	0.000124	-0.001272	-0.001530	6163.877320	44367.064050	3809.998160	22897.464712
33.037000	-0.001856	-0.000675	0.001257	0.003895	6110.430369	43775.673522	3803.033142	22647.713832
33.537000	-0.001930	-0.000976	0.002384	-0.000442	6143.171720	44158.132636	3816.211247	22847.120542
34.035500	-0.000730	0.000154	0.000155	0.001133	6140.279151	44115.832222	3807.020729	22774.489779
34.535000	-0.000942	-0.000329	0.004724	0.000841	6140.897399	44097.659661	3818.781762	22787.942321
35.036000	-0.000742	-0.000273	-0.004888	0.001783	6135.172788	44013.531633	3793.411747	22744.572670
35.539000	0.001727	-0.000529	-0.002166	0.000390	6165.044743	44121.517394	3803.230962	22808.718888
36.036500	0.000175	0.000032	0.002304	0.000997	6148.310841	44117.123930	3812.531029	22780.730610
36.536500	-0.000952	-0.000360	-0.001582	0.000437	6143.931671	44133.101078	3804.515661	22806.522672
37.036000	-0.000588	-0.000412	-0.001700	0.000744	6144.372543	44099.011410	3803.496709	22792.382490
37.537500	-0.001463	-0.000448	0.004105	0.000663	6138.251428	44103.298361	3817.709464	22796.133514
38.034500	-0.002009	-0.000470	-0.000044	0.000805	6132.950050	44087.685944	3807.329751	22789.576423
38.535000	-0.001732	0.000335	0.002290	0.001014	6133.468542	44144.410632	3812.456648	22779.951129
39.035500	-0.000395	-0.000109	0.004551	0.001160	6142.653030	44088.291039	3817.585801	22773.241584
39.535500	-0.001891	0.000282	-0.001758	0.001351	6129.662214	44107.336360	3801.906759	22764.458643
40.038000	-0.001290	-0.000296	0.001564	0.000886	6137.861102	44096.560104	3811.011845	22785.854453
40.536500	0.001392	-0.000769	-0.002133	0.000558	6161.143056	44082.716884	3802.907602	22800.975773
41.036500	-0.001167	0.000004	-0.003420	0.001628	6133.098522	44054.567274	3797.273105	22751.708700
41.537000	-0.003670	-0.000103	-0.000242	0.001064	6118.201528	44097.859119	3806.229360	22777.625836
42.037000	-0.001395	0.000475	0.004030	0.001480	6132.475234	44113.314449	3815.541063	22758.482195
42.534500	-0.002180	-0.000438	-0.002503	0.000638	6132.922233	44106.643411	3801.827713	22797.286415
43.038000	-0.000857	0.000370	0.000901	0.003023	6124.760796	43956.873432	3804.271707	22687.645747
43.535500	0.002748	0.000420	0.006627	-0.002694	6197.089582	44507.017436	3832.096079	22951.469247
44.035500	0.000516	0.000436	0.003276	-0.001719	6172.029615	44415.026162	3821.490968	22906.233065
44.535500	0.000579	-0.000106	0.001645	-0.001601	6171.596600	44351.843115	3817.231472	22900.754660
45.039000	-0.002172	0.000274	-0.000272	0.004860	6100.644827	43774.090692	3797.073029	22603.594065
45.536500	-0.002068	0.000148	-0.000458	-0.001279	6148.568160	44345.373934	3811.356860	22885.853350
46.036000	0.002774	-0.000272	-0.001224	-0.001722	6189.674560	44347.563727	3810.576388	22906.368068
46.537000	0.001029	0.000306	0.002861	-0.001158	6171.651048	44348.894584	3819.111595	22880.245778
47.037000	-0.002645	-0.000340	0.001710	0.003615	6106.536884	43833.667213	3804.791322	22660.526105
47.534000	0.000311	0.000461	0.001202	0.002001	6141.603545	44062.448556	3807.448388	22734.529802
48.035000	0.000484	-0.000668	0.004962	-0.001941	6173.509399	44330.596009	3826.153541	22916.519618
48.535000	0.001847	0.000434	0.000162	-0.001245	6178.702573	44369.447954	3812.773261	22884.254083
49.040000	-0.003899	-0.001028	-0.002906	0.003240	6099.829390	43804.092958	3794.657817	22677.676935
49.538500	0.001870	-0.000042	0.005623	-0.002790	6190.954634	44471.863625	3829.860131	22955.901984
50.036000	-0.000172	-0.000555	0.003096	0.001337	6143.010549	44029.079231	3813.625635	22765.093375
50.536500	0.020681	0.000230	0.024401	0.179123	5126.516038	30229.999849	3495.507615	16051.111473
51.036500	0.013828	-0.022014	0.004779	0.178468	5093.425321	28899.979754	3464.168467	16071.136329
51.537000	0.008930	-0.019130	0.001977	-0.034865	6511.543845	45736.735956	3902.090038	24502.506671
52.037000	0.003349	-0.028995	0.004686	-0.124963	7310.791467	54448.046817	4173.681304	29510.803628
52.534500	0.020998	-0.015904	0.025290	-0.047464	6728.964108	47329.937575	4000.362846	25141.950158
53.035000	0.024610	-0.009890	0.032719	0.009931	6270.301149	42361.872808	3865.792739	22373.470281
53.535500	0.035256	-0.009985	0.040072	0.048695	6052.184523	38976.109385	3788.788007	20700.291670
54.041000	0.043773	0.002718	0.052108	0.049825	6108.124723	39952.958664	3814.893946	20653.726288
54.536000	0.058093	0.016675	0.069075	0.074295	6031.500169	39064.464707	3796.862281	19674.410209
55.036500	0.073335	0.021957	0.081257	0.068395	6193.146145	40010.229558	3840.853756	19905.501773
55.536500	0.105366	0.043618	0.109036	0.072516	6418.953048	41543.635734	3901.247803	19743.778963
56.037000	0.132778	0.056749	0.133675	0.115242	6293.266049	38991.744032	3854.782209	18154.240802
56.537000	0.154760	0.072715	0.157912	0.149995	6191.777037	37459.676458	3828.641103	16971.810965
57.034500	0.172884	0.084253	0.180901	0.195024	5987.500016	34887.616238	3775.866629	15573.948940
57.535000	0.195630	0.095737	0.199425	0.220983	5963.942016	33835.883408	3758.658712	14831.549723
58.035000	0.214653	0.104590	0.222974	0.262312	5805.102391	31600.136536	3718.687134	13737.475626
58.535500	0.227084	0.111180	0.236195	0.297993	5647.987565	29734.346923	3670.473207	12873.100966
59.038500	0.241291	0.120977	0.253926	0.328980	5539.723616	28451.982419	3643.169724	12177.982778
59.536000	0.251044	0.124914	0.261075	0.357901	5421.048566	27018.168737	3600.089391	11572.441931
60.036500	0.260427	0.132871	0.277703	0.401375	5222.508508	25116.750152	3549.861073	10734.811593
60.537000	0.270102	0.135071	0.279926	0.409691	5230.129219	24804.793211	3538.885936	10583.920427
61.037000	0.269559	0.136242	0.282293	0.411849	5215.009491	24754.831115	3539.259423	10545.232017
61.537000	0.281295	0.143053	0.290552	0.430564	5176.366350	24161.351614	3520.773349	10217.663184
62.042500	0.283051	0.152968	0.294224	0.429453	5192.164110	24710.447679	3529.173548	10236.707352
62.535000	0.281122	0.153586	0.290746	0.434884	5151.817514	24469.023581	3513.599011	10144.026230
63.054500	0.279131	0.154278	0.288850	0.434247	5144.469439	24535.442601	3511.424379	10154.835374
63.544500	0.280942	0.157529	0.294615	0.425724	5201.135351	25132.614066	3536.484701	10301.019192
64.041500	0.281065	0.157931	0.299607	0.425045	5205.588880	25188.273933	3546.663581	10312.788539
64.536000	0.286631	0.161231	0.300302	0.428492	5217.402738	25180.744911	3541.707685	10253.240748
65.042000	0.286801	0.161173	0.292868	0.432999	5193.290524	24946.725341	3520.565906	10176.068174
65.537000	0.290026	0.163829	0.301515	0.430565	5224.796268	25207.811299	3540.166348	10217.643601
66.039500	0.289093	0.163802	0.299549	0.428263	5232.480616	25325.440745	3540.768605	10257.177580
66.537500	0.290406	0.167205	0.296249	0.428854	5236.543523	25471.754271	3533.823659	10247.010327
67.035000	0.288455	0.167771	0.300923	0.434012	5196.839928	25233.322907	3532.962936	10158.837417
67.535000	0.292188	0.166167	0.299837	0.424871	5269.220049	25625.953108	3547.392516	10315.811040
68.041000	0.292637	0.168277	0.300029	0.426577	5262.057751	25647.217061	3544.659727	10286.261515
68.535500	0.297628	0.170731	0.303480	0.428893	5277.320466	25654.447875	3546.708820	10246.332128
69.038500	0.291908	0.170378	0.306636	0.435455	5207.999568	25293.524609	3540.579271	10134.355606
69.536500	0.294129	0.170412	0.306470	0.430538	5248.050652	25551.369467	3549.142967	10218.108832
70.036000	0.297358	0.171171	0.313556	0.432854	5253.218480	25469.947483	3557.833321	10178.529340
70.537000	0.295643	0.171954	0.311129	0.435793	5226.978392	25357.721848	3548.063078	10128.625281
71.037000	0.292893	0.171662	0.308580	0.444681	5162.567706	24885.991146	3527.634534	9979.735648
71.537000	0.297460	0.171195	0.305869	0.440543	5210.579826	25073.411011	3530.155009	10048.674221
72.037500	0.298879	0.172248	0.311204	0.444085	5198.781038	24946.158845	3533.332515	9989.624954
72.538000	0.297063	0.170888	0.310553	0.445225	5182.453225	24819.073471	3530.158382	9970.723762
73.038000	0.299686	0.171858	0.316376	0.448087	5181.137280	24723.391296	3535.413006	9923.494227
73.535500	0.299701	0.171693	0.312835	0.450751	5166.606155	24581.079422	3524.443652	9879.798777
74.035500	0.300480	0.172336	0.314424	0.451894	5164.609658	24555.986340	3525.225931	9861.125415
74.536000	0.303965	0.172619	0.314978	0.454185	5171.151486	24455.679253	3522.180661	9823.877295
75.040000	0.302765	0.171123	0.316667	0.458475	5141.255963	24169.182194	3517.642199	9754.629223
75.537500	0.304363	0.171834	0.318004	0.456415	5161.133033	24305.902847	3523.574666	9787.792875
76.037000	0.302868	0.172566	0.320870	0.457859	5145.146385	24270.643476	3526.072298	9764.517298
76.535000	0.305501	0.172420	0.325773	0.459773	5149.044860	24169.094888	3531.348783	9733.804043
77.038000	0.306529	0.172611	0.316536	0.462523	5139.715457	24043.537450	3510.407010	9689.895350
77.535500	0.308873	0.172448	0.319967	0.461333	5158.906787	24093.872864	3518.412085	9708.868618
78.035500	0.307416	0.172060	0.325486	0.461748	5148.722420	24054.513987	3527.351281	9702.247089
78.536000	0.307571	0.172299	0.328561	0.461976	5148.324435	24055.039137	3532.384037	9698.608475
79.036500	0.306062	0.171597	0.319833	0.467049	5112.867497	23774.349456	3508.292178	9618.245464
79.536500	0.310520	0.172750	0.316936	0.462690	5160.486671	24042.211409	3510.809261	9687.248857
80.036500	0.310573	0.172283	0.322372	0.462746	5160.470515	24016.644904	3520.139986	9686.354620
80.537000	0.310598	0.173359	0.326329	0.463060	5158.893891	24053.895910	3526.526105	9681.368637
81.037500	0.308382	0.173780	0.323875	0.467724	5121.677963	23847.273399	3514.099622	9607.627751
81.537000	0.312997	0.173346	0.328460	0.462141	5177.055944	24098.292164	3531.913257	9695.992334
82.035000	0.317033	0.174729	0.330462	0.461506	5202.853381	24197.435003	3536.602133	9706.106644
82.538000	0.311435	0.173660	0.333218	0.461194	5173.677789	24160.171033	3542.091467	9711.083966
83.036000	0.313951	0.174738	0.333035	0.461988	5183.138767	24174.158762	3540.338468	9698.418428
83.536000	0.316786	0.175088	0.330014	0.459721	5211.406824	24303.292789	3538.988719	9734.636316
84.036000	0.314132	0.176199	0.332040	0.459376	5198.573473	24375.495602	3543.242121	9740.163900
84.536500	0.315932	0.175377	0.330765	0.457044	5221.586942	24450.648211	3545.145981	9777.647312
85.036500	0.312459	0.175935	0.333127	0.460258	5184.454020	24318.683738	3543.610874	9726.044446
85.537000	0.318333	0.176636	0.331686	0.456954	5235.567557	24518.015504	3546.971329	9779.099394
86.036500	0.318315	0.175703	0.324335	0.454658	5248.425465	24586.269986	3537.888553	9816.209021
86.535000	0.318773	0.177610	0.325705	0.455283	5247.482208	24650.663845	3539.221105	9806.087883
87.038000	0.313011	0.176313	0.328622	0.457802	5201.086980	24459.556814	3539.932533	9765.445645
87.535500	0.315741	0.175400	0.326638	0.452579	5245.627069	24675.498545	3545.755004	9849.976932
88.035500	0.317167	0.174824	0.333625	0.452086	5256.489072	24671.282310	3559.368497	9857.997423
88.536500	0.314668	0.176564	0.327210	0.452678	5239.006534	24729.170970	3546.608825	9848.351377
89.036500	0.314428	0.175900	0.336609	0.453026	5235.695427	24678.172472	3563.128810	9842.696909
89.537000	0.315701	0.176674	0.326367	0.453041	5242.786132	24716.384971	3544.432075	9842.446548
90.036500	0.312933	0.175430	0.327881	0.451056	5238.373562	24753.865337	3550.762438	9874.812342
90.537500	0.315748	0.175230	0.330868	0.451630	5251.031069	24714.738860	3555.155823	9865.439036
91.037500	0.315202	0.174934	0.330472	0.453288	5238.577669	24616.404914	3551.413171	9838.430184
91.535000	0.317073	0.174214	0.332068	0.451134	5261.367861	24688.523333	3558.259173	9873.534276
92.038000	0.315612	0.174732	0.332953	0.451317	5252.038062	24705.433501	3559.546195	9870.547450
92.536000	0.318402	0.174585	0.328639	0.451779	5265.260407	24674.706059	3550.824425	9863.001363
93.035500	0.315903	0.174443	0.329599	0.453643	5240.536022	24573.965302	3549.187137	9832.675939
93.536000	0.318359	0.174621	0.329069	0.452592	5260.391154	24635.622849	3550.129901	9849.754486
94.039500	0.318240	0.174482	0.332622	0.452074	5262.662609	24654.742970	3557.551050	9858.202723
94.537000	0.320134	0.175048	0.336682	0.453240	5266.805458	24624.533079	3562.869984	9839.213393
95.036500	0.318532	0.175724	0.337164	0.456228	5240.778074	24508.662684	3558.261049	9790.801842
95.534500	0.318824	0.173760	0.334997	0.453075	5260.288780	24568.180593	3560.070320	9841.893606
96.037500	0.316505	0.173719	0.337235	0.452592	5249.873725	24590.369198	3565.088271	9849.763781
