sample name	sample
index	177
start time	 02-18-2021  10:59:56 AM
880	0.489302
Peak Time (s)	91.035
Peak Height 	0.4893
calc peak height	90,93
Baseline Time (s)	10.536
Baseline Value 	-0.004981
subtract baseline	10,4
Abs	0.324245
Peak Time (s)	92.536
Peak Height 	0.3242
calc peak height	90,93
Baseline Time (s)	10.536
Baseline Value 	0.001966
subtract baseline	10,3
PK_550	0.159815
Peak Time (s)	90.035
Peak Height 	0.1598
calc peak height	90,93
Baseline Time (s)	11.036
Baseline Value 	4.2351E-4
subtract baseline	10,2
PK_880	0.309649
Peak Time (s)	90.538
Peak Height 	0.3096
calc peak height	90,93
Baseline Time (s)	11.537
Baseline Value 	0.002611
subtract baseline	10,1


Time (s)	A880-A510	A880-A775	A880-A975	A880	I510	I775	I975	I880	
0.035500	-0.001365	0.000077	-0.004158	0.003564	6639.464995	43327.923382	3828.818715	22793.140402
0.536000	-0.003423	-0.000815	-0.002933	0.004801	6610.233671	43129.734202	3828.789193	22736.167303
1.036000	-0.003013	-0.000294	-0.004031	0.004061	6620.403758	43246.954148	3827.888723	22770.215988
1.536500	-0.002185	-0.000618	-0.001223	0.006385	6607.173212	43001.052650	3829.102570	22663.409845
2.036500	0.000142	0.000488	0.005005	0.000368	6681.569149	43666.036083	3860.288980	22941.128489
2.537000	0.000194	0.000101	-0.000142	0.000626	6679.717468	43605.329519	3846.415663	22929.126768
3.037500	0.001326	0.000259	-0.000065	-0.001521	6709.340256	43822.560083	3852.105537	23029.121426
3.537500	-0.003367	-0.000107	-0.002908	0.005237	6606.874834	43155.006051	3827.756574	22716.124942
4.038000	-0.001819	-0.000160	-0.001667	0.000245	6665.061587	43616.677360	3843.501802	22946.852924
4.534500	-0.000078	-0.000608	-0.002034	-0.000094	6683.753842	43606.364109	3843.430434	22962.600638
5.036000	-0.000191	0.000444	0.000052	0.000636	6676.162332	43636.622651	3846.884876	22928.656580
5.536000	0.001910	-0.000101	0.000976	0.000206	6698.982268	43625.775424	3850.345102	22948.632103
6.035500	-0.000606	0.000139	0.001280	0.000209	6676.275231	43648.170391	3851.118895	22948.529255
6.536500	0.002563	0.000309	0.003861	0.000402	6703.121462	43645.999715	3857.252264	22939.554908
7.037000	0.001935	0.000082	-0.001466	0.000058	6700.547083	43656.936170	3844.487239	22955.522997
7.537000	-0.000810	0.000349	0.003136	-0.000034	6676.625290	43690.771759	3856.508905	22959.829254
8.040000	0.001627	0.000206	0.001976	0.000037	6697.952152	43670.575373	3853.341847	22956.505945
8.535000	0.000106	-0.000327	0.008128	-0.000384	6688.022881	43660.089269	3870.343216	22976.119062
9.035000	-0.000141	-0.000013	-0.003191	-0.000423	6686.149559	43693.357098	3841.326567	22977.936078
9.535500	0.002087	0.000208	0.003352	-0.000194	6704.205433	43692.571369	3857.476009	22967.261937
10.035500	-0.000361	0.000415	-0.001254	0.000284	6677.799877	43667.016748	3844.453207	22945.007627
10.536000	0.002093	-0.000055	0.000000	0.000000	6702.504795	43649.554989	3848.376931	22958.234562
11.036000	-0.001437	0.000000	-0.002499	0.001214	6659.801168	43540.644612	3838.930066	22901.850530
11.536500	0.000000	0.000637	0.000768	0.000327	6680.664035	43683.884179	3849.504519	22943.039631
12.039000	0.000718	-0.000181	0.000477	-0.000417	6693.835143	43676.822610	3850.663144	22977.616741
12.537000	0.000536	-0.000603	-0.002552	-0.000913	6696.681070	43683.898205	3844.197462	23000.762432
13.034500	0.000207	0.000311	0.001208	-0.000284	6688.031280	43710.677297	3852.196977	22971.450423
13.538000	0.001402	-0.000363	0.002109	-0.001447	6709.351768	43756.770127	3857.499678	23025.630929
14.035500	-0.000559	0.000069	-0.006180	0.001800	6662.420656	43492.187379	3828.170324	22874.692112
14.535000	-0.002279	0.000163	-0.001170	0.001372	6650.861104	43541.093535	3841.898701	22894.505320
15.036000	-0.000603	0.000798	0.002977	-0.000663	6684.147084	43792.407248	3857.717036	22989.089373
15.560500	-0.000060	-0.000029	-0.000381	-0.001264	6694.464705	43771.076919	3850.637219	23017.126082
16.037000	0.000179	0.000502	0.006534	-0.001095	6695.100493	43805.224137	3868.043181	23009.220682
16.538000	0.001610	-0.000270	0.000352	-0.001710	6713.619226	43790.382728	3853.656653	23037.908277
17.037000	0.001821	0.000799	0.004749	-0.001591	6714.460108	43880.191955	3864.697306	23032.384634
17.537000	0.000881	0.000547	0.004516	0.001356	6679.329563	43578.719672	3856.482981	22895.275263
18.034000	0.000345	0.000955	0.002235	0.001474	6673.455392	43605.949152	3850.323464	22889.810996
18.535000	-0.000027	0.000277	0.004720	0.000882	6675.424319	43597.805551	3858.228389	22917.243689
19.035000	0.000065	0.000352	0.001621	0.001273	6672.740106	43568.087558	3849.266883	22899.093910
19.536000	-0.000477	0.000922	-0.002016	0.001415	6666.603082	43608.336004	3839.643302	22892.541083
20.036000	0.001451	0.000692	-0.000006	0.001266	6685.273646	43600.751629	3845.130827	22899.451085
20.536500	0.000632	0.000122	-0.000693	0.000786	6682.214571	43592.223925	3844.604000	22921.698628
21.036000	-0.000451	0.000265	-0.001068	0.000718	6673.097378	43612.139992	3843.822615	22924.879717
21.537000	-0.001222	0.000774	0.001692	0.000923	6664.334690	43640.656622	3850.341573	22915.331463
22.037500	0.002742	0.002024	0.002160	0.001864	6691.521493	43669.776936	3849.134268	22871.734042
22.537000	0.000214	0.000423	-0.002386	0.000810	6678.240946	43618.228696	3840.239552	22920.577133
23.034500	0.000517	0.000948	0.000111	0.001193	6677.525660	43631.710189	3845.616187	22902.836121
23.535500	0.000616	0.000325	0.002465	0.000624	6683.533530	43626.524624	3853.091421	22929.223720
24.035500	0.001170	0.000119	0.002024	0.000847	6686.515083	43586.225182	3851.388841	22918.880434
24.538500	0.000555	0.000449	-0.000195	0.000919	6680.325834	43610.441183	3845.533320	22915.517990
25.036000	0.000331	-0.000016	0.000320	0.000302	6683.869260	43624.788314	3848.422840	22944.187177
25.536500	0.000013	0.000890	0.002622	0.001048	6674.289802	43639.846082	3852.405986	22909.537540
26.036500	-0.000362	0.000489	0.002531	0.000586	6675.074012	43645.570805	3853.357770	22930.993573
26.537000	0.000371	-0.000387	-0.000876	0.000031	6686.668595	43615.386915	3846.060750	22956.777997
27.037500	0.002788	0.000603	0.002738	-0.001627	6723.572114	43865.092750	3859.587760	23034.057536
27.534500	0.002069	0.001631	0.001959	0.000371	6698.933996	43773.462398	3852.442875	22940.991592
28.035000	0.001907	0.000874	0.009707	-0.000833	6708.368491	43815.695373	3875.640891	22997.038269
28.538000	0.001685	0.000487	0.000342	-0.001104	6708.799925	43804.618713	3852.078494	23009.630319
29.036000	0.000405	0.001436	0.002533	-0.000780	6694.293110	43863.724979	3856.875335	22994.549578
29.536000	-0.000267	0.000113	0.000525	-0.000104	6682.141793	43675.147055	3849.985213	22963.071314
30.036000	0.001071	0.000457	-0.000876	-0.001085	6703.080897	43800.046024	3848.911952	23008.781625
30.536500	-0.000014	-0.000112	0.001326	0.002230	6663.446178	43434.914598	3846.069460	22854.772900
31.037000	-0.000881	-0.000113	-0.001879	0.001958	6658.124690	43460.323612	3838.614813	22867.376505
31.537000	0.000282	0.000422	-0.001208	0.000160	6684.703522	43679.362833	3844.887545	22950.789513
32.037000	0.002940	0.000616	0.004470	-0.001088	6720.051811	43815.326523	3862.670161	23008.901735
32.537500	0.001950	0.001418	0.003161	-0.000587	6706.526000	43843.781043	3857.995624	22985.561788
33.035000	0.001615	0.000622	0.003588	-0.000290	6700.806626	43740.679234	3858.333651	22971.750536
33.535500	-0.001839	0.000506	0.002871	0.000683	6660.960093	43638.066979	3853.984144	22926.503890
34.035500	-0.000821	-0.000533	-0.000289	0.000849	6668.591228	43524.885545	3845.472383	22918.772567
34.536000	0.000820	0.000182	-0.000397	0.001197	6680.211602	43559.321449	3844.310832	22902.639483
35.036500	-0.000624	-0.000517	-0.001000	0.001225	6666.987825	43491.162952	3842.704650	22901.334013
35.536500	-0.001407	-0.000603	-0.001802	0.000867	6663.172603	43516.609851	3841.575633	22917.930129
36.037000	0.000346	0.000945	0.002765	0.002097	6667.864529	43546.472919	3850.085518	22860.920117
36.540000	0.000080	0.000982	-0.001795	0.001845	6667.749654	43573.587335	3839.115338	22872.624040
37.038000	0.000275	0.000726	0.001520	0.001888	6669.105224	43545.483007	3847.435372	22870.599945
37.535000	-0.000735	0.000397	-0.001592	0.001312	6665.217669	43568.708510	3840.981706	22897.311150
38.035500	0.000711	0.000749	0.001291	0.001998	6672.032478	43537.393496	3846.571121	22865.525342
38.535500	-0.002441	0.000927	0.002836	0.001842	6645.218807	43568.724916	3850.919267	22872.736992
39.036000	-0.000360	0.000202	-0.002121	0.001785	6664.333850	43506.000955	3838.440575	22875.380568
39.536000	0.000183	0.000508	0.000939	0.001776	6669.288629	43535.535750	3846.241064	22875.795803
40.036500	0.001603	0.000697	0.002872	0.001536	6684.211760	43575.896275	3851.795981	22886.932792
40.540000	0.000548	0.001102	0.004684	0.002201	6668.749632	43551.459100	3854.741034	22856.132124
41.040000	-0.001050	0.000359	0.003055	0.001402	6661.581750	43556.701612	3852.608403	22893.138459
41.537500	-0.001353	-0.000295	-0.000889	0.000809	6664.186168	43551.043521	3844.046738	22920.664218
42.035000	0.002062	0.001205	0.002002	0.002242	6681.977559	43557.184190	3847.761969	22854.202812
42.535500	0.001268	0.000574	0.004944	0.001880	6678.089509	43531.964618	3856.232194	22870.958295
43.035500	-0.001503	-0.000126	0.000590	0.001064	6660.558699	43542.867144	3847.165719	22908.814225
43.535500	0.003791	0.001269	0.007688	-0.002123	6737.234341	43975.036453	3873.732297	23057.217181
44.036000	0.001242	0.000192	0.000160	-0.001689	6710.099269	43832.051570	3853.114419	23036.967145
44.535500	0.000687	0.000014	-0.000571	-0.001384	6702.298959	43786.433298	3850.454719	23022.698399
45.039000	0.001604	0.000852	0.004850	0.001679	6682.939196	43577.041498	3856.510489	22880.313340
45.537000	0.001315	0.000741	0.001353	-0.001074	6705.181300	43825.765807	3854.596782	23008.239666
46.037000	0.001715	0.000137	0.006637	-0.001684	6714.349829	43826.427518	3869.846736	23036.733930
46.537500	0.001780	0.001128	0.005201	-0.000331	6702.667398	43792.192995	3862.605541	22973.651061
47.035000	-0.001648	0.001022	0.002336	0.002821	6643.561648	43485.763389	3847.137161	22827.441313
47.535500	0.001214	0.001538	0.003619	0.001573	6680.372674	43651.432566	3853.618782	22885.204388
48.035500	0.003952	0.001685	0.004475	-0.000314	6722.211652	43843.184389	3860.682521	22972.822821
48.536000	0.001902	0.000320	0.002915	-0.000855	6708.517161	43765.404363	3858.053101	22998.037998
49.036500	0.000263	0.000978	0.003104	0.000642	6680.195693	43686.391423	3854.686570	22928.408654
49.536500	0.002572	0.000873	0.005531	-0.001190	6717.635886	43849.262051	3865.685532	23013.655679
50.036500	0.003472	0.000356	0.008408	-0.004901	6759.754516	44152.326063	3882.912900	23187.477881
50.537000	-0.014137	-0.013451	0.011055	0.115803	5672.091676	33136.683945	3610.533570	18230.303612
51.034500	-0.044114	-0.026960	-0.009115	-0.007822	6370.008393	41893.150532	3845.076655	23325.328554
51.534500	-0.026854	-0.019493	-0.007821	-0.102042	7422.991639	52208.495370	4117.269061	28308.412595
52.035000	-0.003825	-0.016728	0.017545	-0.112495	7795.749802	53735.567370	4235.800239	28930.829096
52.535000	0.000045	-0.008835	0.021011	-0.059017	7253.445646	48659.617806	4072.937683	25898.485378
53.035500	0.010366	0.002829	0.028785	-0.015534	6923.980849	45419.425742	3967.612703	23693.820003
53.536500	0.038799	0.012420	0.043125	-0.052322	7596.795553	50223.406909	4121.168066	25544.532772
54.036500	0.055678	0.019855	0.068383	0.016733	7050.592577	43949.431203	3988.535627	22194.730079
54.537500	0.086437	0.034103	0.090776	0.020480	7325.166264	44956.696295	4043.370761	22027.762591
55.036500	0.110864	0.054332	0.109293	0.057141	7198.701526	43391.278823	3989.983201	20467.909346
55.537000	0.146235	0.070575	0.140837	0.067183	7464.547309	43975.086405	4053.500067	20063.097130
56.034500	0.163973	0.083984	0.170984	0.165753	6667.608297	36642.349462	3861.825584	16549.299553
56.534500	0.182772	0.094389	0.189861	0.217737	6381.018622	33552.069559	3779.377050	14993.489564
57.035000	0.198985	0.103609	0.210593	0.259322	6176.210756	31343.252970	3730.584000	13876.278742
57.538500	0.215889	0.113094	0.225222	0.291602	6057.795693	29883.458615	3691.074560	13079.866116
58.038000	0.229501	0.121094	0.236057	0.322183	5931.878253	28510.906878	3648.734574	12378.039649
58.536000	0.239751	0.127522	0.251785	0.351952	5793.002310	27165.347938	3619.780652	11740.749059
59.036500	0.249344	0.132924	0.265190	0.370448	5731.703368	26441.496919	3609.509953	11366.221811
59.536500	0.257704	0.142749	0.269985	0.395807	5618.085668	25610.618922	3569.230179	10877.975110
60.037000	0.267127	0.147757	0.273717	0.393203	5698.006508	26014.031879	3581.437117	10926.800781
60.537000	0.273938	0.152026	0.282734	0.396998	5718.396338	26039.413299	3591.635467	10855.743208
61.034500	0.277169	0.148738	0.289797	0.407360	5670.417767	25320.209402	3585.179546	10664.830399
61.537500	0.281233	0.157628	0.287719	0.411650	5668.908586	25560.045158	3572.856604	10587.111262
62.035000	0.284169	0.162695	0.287188	0.388757	5846.426533	27073.899411	3616.938917	11010.869548
62.535500	0.286792	0.162851	0.283809	0.385905	5885.427984	27242.660182	3615.872937	11065.236282
63.075000	0.282979	0.163346	0.287749	0.389322	5834.026642	27078.701167	3616.931325	11000.137804
63.536500	0.289562	0.164189	0.290234	0.386830	5898.688422	27265.940305	3627.054623	11047.563252
64.036500	0.291376	0.163569	0.296650	0.388824	5897.389770	27119.020420	3636.146557	11009.584684
64.537000	0.291840	0.163678	0.297621	0.391766	5879.606779	26960.925419	3632.083384	10953.884236
65.037000	0.294016	0.165498	0.299573	0.398460	5847.447213	26691.192829	3622.379036	10828.521053
65.537500	0.293874	0.164046	0.300523	0.398221	5848.131866	26624.551353	3624.802442	10832.966247
66.037000	0.295303	0.164777	0.300122	0.402709	5826.539137	26419.317249	3614.882388	10749.954695
66.535000	0.292417	0.162518	0.303352	0.404497	5793.844033	26200.148463	3617.797230	10717.122020
67.035000	0.291734	0.164208	0.299992	0.412794	5731.998732	25846.788038	3594.510941	10566.513912
67.536000	0.294011	0.163065	0.302407	0.413986	5739.405948	25723.195134	3596.925172	10545.110220
68.036000	0.295108	0.163570	0.305571	0.417746	5721.266377	25551.975624	3595.748146	10477.987586
68.536000	0.294228	0.162938	0.307497	0.421743	5688.324032	25310.669520	3591.669120	10407.250161
69.036500	0.295228	0.164198	0.299752	0.429291	5644.686981	24987.049574	3562.151412	10275.467716
69.536500	0.291814	0.163141	0.302014	0.428960	5624.361184	24949.962614	3567.082968	10281.190945
70.037500	0.296076	0.162844	0.302907	0.433065	5625.391350	24726.508597	3560.977847	10210.414567
70.537500	0.294236	0.163224	0.303125	0.436642	5590.017814	24565.668386	3554.640563	10149.287573
71.035000	0.292799	0.163007	0.308310	0.442340	5544.100415	24271.141819	3553.679019	10052.956107
71.535000	0.294248	0.163359	0.307177	0.441952	5555.857057	24307.827355	3552.282225	10059.483632
72.035500	0.299078	0.163998	0.306933	0.445053	5566.961113	24186.176444	3546.038033	10007.531351
72.536000	0.298814	0.163411	0.304175	0.446928	5553.226304	24065.251351	3537.469466	9976.297401
73.036500	0.293849	0.164182	0.311008	0.453507	5480.267906	23782.674717	3537.936717	9867.774738
73.536500	0.300162	0.164899	0.307244	0.452766	5524.622911	23853.277801	3532.393280	9879.924034
74.039500	0.297863	0.163966	0.308726	0.452422	5512.253999	23824.695912	3535.736229	9885.562195
74.537000	0.299164	0.163024	0.304890	0.454197	5509.268593	23693.585155	3525.503624	9856.492787
75.037500	0.293775	0.161852	0.307619	0.459302	5443.912624	23393.641887	3521.209873	9773.532943
75.534500	0.300570	0.163044	0.311864	0.456831	5501.542247	23568.164277	3533.406965	9813.571793
76.035000	0.299461	0.160938	0.307852	0.456362	5497.520350	23490.005238	3526.949925	9821.196540
76.535500	0.301407	0.163298	0.308982	0.459761	5488.413038	23440.513086	3522.840998	9766.124264
77.035500	0.294451	0.160610	0.304933	0.464428	5416.676314	23093.835491	3507.258801	9691.228285
77.535000	0.301920	0.163639	0.308839	0.462644	5473.630474	23320.024976	3517.395164	9719.759790
78.038500	0.302844	0.161709	0.318071	0.463099	5476.552292	23207.670086	3533.296298	9712.479797
78.536000	0.300422	0.162763	0.315006	0.464257	5454.346503	23202.773518	3525.606855	9693.960961
79.037000	0.298322	0.161282	0.310919	0.470521	5403.176442	22842.033762	3507.068193	9594.631808
79.537000	0.302423	0.162868	0.310709	0.467446	5447.018340	23058.327845	3512.154070	9643.204772
80.035000	0.302250	0.161528	0.314543	0.466577	5451.306698	23036.374056	3520.576871	9656.995509
80.534500	0.305426	0.162552	0.313787	0.469397	5453.504830	22952.835156	3514.164914	9612.346379
81.035500	0.299631	0.161329	0.314023	0.474783	5385.351800	22648.401231	3505.022784	9527.878774
81.535500	0.304257	0.162429	0.309496	0.471469	5433.571287	22851.184322	3502.884662	9579.726977
82.036000	0.305129	0.162435	0.312307	0.472358	5433.466145	22810.493673	3506.274570	9565.780546
82.536000	0.304568	0.162512	0.314888	0.473265	5424.485863	22772.253946	3509.239073	9551.580653
83.036500	0.303570	0.162219	0.313122	0.478180	5388.614882	22534.110096	3497.474667	9475.126047
83.536500	0.305509	0.162212	0.318791	0.476238	5412.102919	22622.286981	3510.892439	9505.236334
84.036500	0.305176	0.160358	0.312784	0.475067	5417.199104	22591.072474	3502.338589	9523.441279
84.537000	0.305681	0.162681	0.316016	0.478290	5400.700585	22550.152228	3502.354598	9473.431936
85.037500	0.303375	0.160524	0.313504	0.481839	5365.496470	22292.240591	3491.769094	9418.772337
85.534500	0.306425	0.160924	0.318629	0.478602	5403.314588	22456.233975	3506.412882	9468.603845
86.035500	0.305544	0.160014	0.315703	0.478674	5397.546399	22411.835029	3501.129339	9467.492906
86.535500	0.305904	0.159322	0.313502	0.478638	5399.938756	22382.201321	3497.337852	9468.044916
87.036000	0.304778	0.161503	0.321905	0.486487	5346.189870	22128.252499	3498.307434	9347.871366
87.536500	0.305405	0.159156	0.317743	0.480765	5384.098159	22279.040276	3501.038950	9435.261091
88.036500	0.306192	0.158470	0.314374	0.480922	5387.891394	22241.275802	3494.875301	9432.855725
88.536500	0.306277	0.160823	0.317716	0.483501	5372.906650	22231.126504	3496.203791	9393.325900
89.037000	0.305652	0.158215	0.314633	0.487299	5346.551738	21946.540036	3484.294307	9335.558098
89.537500	0.308805	0.158384	0.314707	0.483483	5388.201086	22123.107821	3491.004544	9393.605469
90.034500	0.308410	0.159815	0.322936	0.484448	5380.026112	22143.859734	3503.696394	9378.880702
90.537500	0.309649	0.159497	0.321705	0.485319	5382.233089	22090.952329	3500.002646	9365.616526
91.035000	0.307010	0.157847	0.319420	0.489302	5342.730685	21842.277861	3489.089719	9305.290460
91.535500	0.308198	0.157229	0.314798	0.485341	5373.397030	21989.470575	3487.949203	9365.277911
92.036000	0.308598	0.157753	0.321447	0.485781	5373.156015	21993.199197	3498.740498	9358.590385
92.536000	0.307396	0.158274	0.324245	0.487107	5358.063462	21957.638285	3501.321600	9338.475230
93.046000	0.305352	0.156897	0.311719	0.492047	5316.803353	21680.926672	3471.254825	9264.045949
93.537000	0.312457	0.158152	0.323649	0.487802	5384.191294	21921.606221	3499.056578	9327.947099
94.034500	0.308033	0.156684	0.331543	0.488460	5353.796993	21828.237490	3511.835805	9318.004429
94.537500	0.311968	0.157478	0.329671	0.489647	5370.187753	21810.990863	3506.407856	9300.096076
95.035000	0.302629	0.154487	0.316961	0.493782	5290.813470	21501.531425	3477.194281	9238.101890
95.535500	0.309289	0.156677	0.321908	0.490270	5350.507428	21748.741221	3491.722290	9290.713810
