sample name	sample
index	604
start time	 03-16-2021  05:21:09 PM


Wavelength (nm)	Absorbance
494.344910	NaN
494.563924	NaN
494.782919	NaN
495.001897	NaN
495.220856	0.206895
495.439797	0.197350
495.658719	0.165319
495.877624	0.114478
496.096510	0.248552
496.315378	0.104632
496.534227	0.057284
496.753059	0.223891
496.971872	0.185620
497.190667	0.146388
497.409444	0.134616
497.628203	0.133698
497.846943	0.134489
498.065665	0.134882
498.284369	0.134750
498.503055	0.137505
498.721723	0.136260
498.940372	0.137360
499.159003	0.136774
499.377616	0.137517
499.596210	0.137265
499.814787	0.136958
500.033345	0.136825
500.251885	0.136338
500.470406	0.136171
500.688910	0.138806
500.907395	0.139644
501.125862	0.140416
501.344311	0.139786
501.562742	0.141214
501.781154	0.141105
501.999548	0.140932
502.217924	0.140967
502.436282	0.140837
502.654621	0.139671
502.872942	0.138981
503.091245	0.138749
503.309530	0.138514
503.527797	0.137794
503.746045	0.138528
503.964275	0.138345
504.182487	0.139582
504.400681	0.139708
504.618856	0.138888
504.837013	0.137400
505.055152	0.137492
505.273273	0.138571
505.491376	0.139156
505.709460	0.138555
505.927526	0.138975
506.145574	0.139138
506.363604	0.139281
506.581615	0.139478
506.799608	0.141051
507.017583	0.142098
507.235540	0.141306
507.453478	0.139623
507.671399	0.141239
507.889301	0.140714
508.107185	0.140877
508.325050	0.141727
508.542898	0.141671
508.760727	0.142163
508.978538	0.141681
509.196330	0.143484
509.414105	0.144423
509.631861	0.143963
509.849599	0.144609
510.067319	0.144508
510.285021	0.143768
510.502704	0.144735
510.720369	0.143585
510.938016	0.143103
511.155645	0.142963
511.373255	0.143455
511.590848	0.143186
511.808422	0.144290
512.025977	0.143526
512.243515	0.143630
512.461034	0.143372
512.678536	0.144319
512.896018	0.144910
513.113483	0.145299
513.330930	0.145078
513.548358	0.145422
513.765768	0.145038
513.983160	0.146950
514.200533	0.147164
514.417889	0.148387
514.635226	0.148240
514.852545	0.148331
515.069845	0.147391
515.287128	0.148814
515.504392	0.148101
515.721638	0.148224
515.938866	0.147888
516.156075	0.148826
516.373267	0.148167
516.590440	0.149249
516.807594	0.148476
517.024731	0.148213
517.241850	0.148157
517.458950	0.149132
517.676032	0.149587
517.893095	0.148625
518.110141	0.148454
518.327168	0.149185
518.544177	0.148832
518.761168	0.150169
518.978141	0.151153
519.195095	0.151116
519.412031	0.152060
519.628949	0.152100
519.845849	0.154136
520.062731	0.153975
520.279594	0.154874
520.496439	0.155351
520.713266	0.155528
520.930074	0.155899
521.146865	0.155840
521.363637	0.155731
521.580391	0.155506
521.797127	0.154927
522.013844	0.154756
522.230543	0.154826
522.447224	0.154440
522.663887	0.154168
522.880532	0.154512
523.097158	0.155100
523.313766	0.155286
523.530356	0.155851
523.746928	0.156002
523.963481	0.157455
524.180017	0.157028
524.396534	0.157240
524.613032	0.158916
524.829513	0.159771
525.045975	0.160380
525.262420	0.159516
525.478845	0.160376
525.695253	0.160017
525.911643	0.159910
526.128014	0.159947
526.344367	0.160543
526.560702	0.159767
526.777018	0.159269
526.993316	0.159006
527.209597	0.159518
527.425858	0.159551
527.642102	0.160442
527.858328	0.160218
528.074535	0.160759
528.290724	0.162533
528.506894	0.163361
528.723047	0.163766
528.939181	0.163995
529.155297	0.164927
529.371395	0.165423
529.587475	0.165227
529.803536	0.165341
530.019579	0.165807
530.235604	0.165215
530.451611	0.164924
530.667600	0.164363
530.883570	0.164512
531.099522	0.164757
531.315456	0.164447
531.531372	0.164666
531.747269	0.165929
531.963148	0.165688
532.179009	0.165428
532.394852	0.165590
532.610676	0.166929
532.826482	0.167219
533.042271	0.167271
533.258040	0.167415
533.473792	0.168429
533.689525	0.168328
533.905240	0.169174
534.120937	0.169511
534.336616	0.170794
534.552277	0.170207
534.767919	0.170519
534.983543	0.171277
535.199149	0.172167
535.414736	0.172272
535.630306	0.172628
535.845857	0.172120
536.061390	0.171693
536.276904	0.171105
536.492401	0.172247
536.707879	0.173162
536.923339	0.173460
537.138781	0.173273
537.354204	0.173181
537.569610	0.173348
537.784997	0.174587
538.000366	0.175986
538.215716	0.176223
538.431049	0.176936
538.646363	0.176963
538.861659	0.177310
539.076937	0.178009
539.292196	0.178850
539.507438	0.179465
539.722661	0.179719
539.937866	0.179124
540.153052	0.180017
540.368221	0.179777
540.583371	0.180121
540.798503	0.179619
541.013617	0.180288
541.228712	0.180106
541.443789	0.179480
541.658848	0.179877
541.873889	0.181215
542.088912	0.181323
542.303916	0.181915
542.518902	0.182005
542.733870	0.183105
542.948820	0.183051
543.163752	0.183868
543.378665	0.184921
543.593560	0.185064
543.808437	0.185197
544.023295	0.185254
544.238136	0.184949
544.452958	0.185704
544.667762	0.185515
544.882548	0.185940
545.097315	0.186259
545.312064	0.186331
545.526795	0.186244
545.741508	0.186653
545.956203	0.186932
546.170879	0.187023
546.385537	0.187164
546.600177	0.187223
546.814799	0.187011
547.029402	0.186702
547.243988	0.187171
547.458555	0.187229
547.673103	0.186835
547.887634	0.186880
548.102146	0.187344
548.316640	0.187292
548.531116	0.187818
548.745574	0.188143
548.960013	0.188998
549.174435	0.188721
549.388838	0.189132
549.603222	0.189681
549.817589	0.190475
550.031937	0.190937
550.246267	0.191249
550.460579	0.191911
550.674873	0.192571
550.889148	0.192722
551.103405	0.193801
551.317644	0.193782
551.531865	0.193619
551.746068	0.193406
551.960252	0.193664
552.174418	0.194274
552.388566	0.194006
552.602696	0.193872
552.816807	0.194153
553.030900	0.193770
553.244975	0.194218
553.459032	0.195161
553.673070	0.195495
553.887091	0.195563
554.101093	0.195193
554.315077	0.195282
554.529042	0.195707
554.742990	0.195589
554.956919	0.196113
555.170830	0.196775
555.384722	0.196752
555.598597	0.196979
555.812453	0.196965
556.026291	0.197284
556.240111	0.198143
556.453913	0.197877
556.667696	0.198371
556.881461	0.198209
557.095208	0.198308
557.308937	0.198424
557.522647	0.198290
557.736339	0.198679
557.950013	0.198454
558.163669	0.198630
558.377307	0.198780
558.590926	0.198991
558.804527	0.199218
559.018110	0.199065
559.231675	0.199022
559.445221	0.199203
559.658749	0.199027
559.872259	0.199485
560.085751	0.199356
560.299225	0.199410
560.512680	0.199127
560.726117	0.199348
560.939536	0.199824
561.152937	0.199915
561.366319	0.200322
561.579683	0.200538
561.793029	0.201265
562.006357	0.201101
562.219667	0.201503
562.432958	0.201862
562.646231	0.201759
562.859486	0.201663
563.072723	0.202397
563.285941	0.202442
563.499141	0.202672
563.712323	0.202609
563.925487	0.202575
564.138632	0.202899
564.351760	0.203129
564.564869	0.203933
564.777960	0.204495
564.991032	0.204792
565.204087	0.205530
565.417123	0.206151
565.630141	0.205927
565.843140	0.206306
566.056122	0.206815
566.269085	0.206787
566.482030	0.206820
566.694957	0.205941
566.907866	0.205166
567.120756	0.204710
567.333628	0.204460
567.546482	0.204617
567.759318	0.205098
567.972135	0.204424
568.184935	0.204205
568.397716	0.204228
568.610478	0.204960
568.823223	0.205829
569.035949	0.206046
569.248657	0.206385
569.461347	0.206342
569.674019	0.206774
569.886672	0.207171
570.099308	0.207690
570.311925	0.207604
570.524523	0.208204
570.737104	0.208007
570.949666	0.208044
571.162210	0.207738
571.374736	0.208233
571.587244	0.207639
571.799733	0.207563
572.012205	0.207698
572.224658	0.207833
572.437092	0.207620
572.649509	0.207848
572.861907	0.208234
573.074287	0.208994
573.286649	0.209041
573.498993	0.209645
573.711318	0.210119
573.923625	0.210411
574.135914	0.210627
574.348185	0.211026
574.560438	0.210955
574.772672	0.211491
574.984888	0.211363
575.197086	0.211335
575.409266	0.211055
575.621427	0.210612
575.833570	0.210107
576.045695	0.210560
576.257802	0.210370
576.469890	0.211051
576.681961	0.210518
576.894013	0.211026
577.106046	0.211157
577.318062	0.211913
577.530059	0.212378
577.742039	0.212927
577.954000	0.212824
578.165942	0.212938
578.377867	0.212960
578.589773	0.213623
578.801661	0.214040
579.013531	0.214161
579.225382	0.213867
579.437216	0.213558
579.649031	0.213910
579.860828	0.213888
580.072606	0.214360
580.284367	0.213850
580.496109	0.213583
580.707833	0.212983
580.919539	0.213599
581.131227	0.213882
581.342896	0.214642
581.554547	0.214385
581.766180	0.214770
581.977795	0.214289
582.189391	0.214514
582.400969	0.215168
582.612529	0.215339
582.824071	0.215401
583.035595	0.215476
583.247100	0.215921
583.458587	0.216610
583.670056	0.216542
583.881506	0.216792
584.092939	0.217052
584.304353	0.216493
584.515749	0.216926
584.727127	0.217016
584.938486	0.217354
585.149828	0.217089
585.361151	0.217020
585.572456	0.217184
585.783742	0.217518
585.995011	0.217923
586.206261	0.218245
586.417493	0.218386
586.628706	0.218629
586.839902	0.218569
587.051079	0.219071
587.262238	0.219012
587.473379	0.219149
587.684502	0.219001
587.895606	0.218839
588.106692	0.218729
588.317760	0.218464
588.528810	0.218266
588.739841	0.218195
588.950855	0.217830
589.161850	0.218089
589.372827	0.218634
589.583785	0.219031
589.794726	0.219313
590.005648	0.219983
590.216552	0.220576
590.427437	0.221009
590.638305	0.220781
590.849154	0.220867
591.059985	0.220949
591.270798	0.220490
591.481592	0.220585
591.692369	0.220749
591.903127	0.220713
592.113867	0.220291
592.324588	0.220521
592.535292	0.221264
592.745977	0.221728
592.956644	0.221958
593.167293	0.222480
593.377923	0.222530
593.588536	0.222629
593.799130	0.222576
594.009706	0.223147
594.220263	0.222765
594.430803	0.222984
594.641324	0.223040
594.851827	0.223224
595.062312	0.223144
595.272778	0.223238
595.483227	0.222790
595.693657	0.223127
595.904069	0.223045
596.114462	0.223218
596.324838	0.223153
596.535195	0.223468
596.745534	0.223333
596.955855	0.223605
597.166157	0.223802
597.376441	0.224597
597.586707	0.224562
597.796955	0.224737
598.007185	0.224833
598.217396	0.225129
598.427589	0.225096
598.637764	0.225189
598.847921	0.225092
599.058060	0.225007
599.268180	0.225220
599.478282	0.225747
599.688366	0.225633
599.898431	0.225889
600.108479	0.225591
600.318508	0.225885
600.528519	0.226063
600.738511	0.226416
600.948486	0.227064
601.158442	0.227343
601.368380	0.227200
601.578300	0.228007
601.788202	0.228327
601.998085	0.228652
602.207950	0.228518
602.417797	0.228561
602.627626	0.228964
602.837436	0.229004
603.047228	0.229071
603.257002	0.229358
603.466758	0.228731
603.676496	0.228585
603.886215	0.228435
604.095916	0.228700
604.305599	0.229371
604.515264	0.229004
604.724910	0.229271
604.934538	0.229274
605.144148	0.229509
605.353740	0.230372
605.563314	0.230765
605.772869	0.231395
605.982406	0.231592
606.191925	0.231691
606.401425	0.232089
606.610908	0.231950
606.820372	0.231834
607.029818	0.231746
607.239246	0.231388
607.448655	0.231611
607.658047	0.231478
607.867420	0.231924
608.076775	0.232377
608.286111	0.232392
608.495430	0.232623
608.704730	0.233392
608.914012	0.233604
609.123275	0.233702
609.332521	0.233892
609.541748	0.234104
609.750957	0.233953
609.960148	0.233722
610.169321	0.233671
610.378475	0.233663
610.587611	0.233170
610.796729	0.233232
611.005829	0.233942
611.214910	0.234037
611.423974	0.234700
611.633019	0.234728
611.842045	0.235039
612.051054	0.235530
612.260044	0.235822
612.469017	0.236297
612.677970	0.236421
612.886906	0.236232
613.095824	0.236100
613.304723	0.235916
613.513604	0.236186
613.722467	0.235988
613.931311	0.236053
614.140138	0.236245
614.348946	0.236178
614.557736	0.236446
614.766507	0.236541
614.975261	0.236886
615.183996	0.236781
615.392713	0.237026
615.601412	0.237366
615.810092	0.237470
616.018754	0.237597
616.227399	0.237727
616.436024	0.237687
616.644632	0.237769
616.853222	0.237782
617.061793	0.238350
617.270346	0.238297
617.478880	0.238483
617.687397	0.238876
617.895895	0.239156
618.104375	0.239484
618.312837	0.239761
618.521281	0.240167
618.729706	0.240327
618.938113	0.240337
619.146502	0.240708
619.354873	0.240688
619.563226	0.240694
619.771560	0.240926
619.979876	0.240982
620.188174	0.241192
620.396453	0.240949
620.604715	0.241024
620.812958	0.241135
621.021183	0.241259
621.229390	0.241501
621.437578	0.241423
621.645748	0.241203
621.853900	0.241592
622.062034	0.241541
622.270150	0.242080
622.478247	0.242345
622.686326	0.242729
622.894387	0.242793
623.102430	0.242613
623.310454	0.242649
623.518461	0.242926
623.726449	0.242631
623.934418	0.242608
624.142370	0.242499
624.350303	0.242664
624.558218	0.242308
624.766115	0.242565
624.973994	0.242857
625.181855	0.242991
625.389697	0.243114
625.597521	0.243547
625.805327	0.243906
626.013114	0.244106
626.220883	0.244299
626.428634	0.244664
626.636367	0.244765
626.844082	0.244835
627.051778	0.245011
627.259457	0.244845
627.467117	0.244969
627.674758	0.245304
627.882382	0.245141
628.089987	0.245258
628.297574	0.245545
628.505143	0.245615
628.712694	0.246072
628.920226	0.246504
629.127740	0.246852
629.335236	0.247093
629.542714	0.247200
629.750174	0.247488
629.957615	0.247830
630.165038	0.247742
630.372443	0.247925
630.579829	0.247997
630.787198	0.248129
630.994548	0.248332
631.201880	0.248423
631.409194	0.248119
631.616489	0.248726
631.823766	0.248750
632.031025	0.249058
632.238266	0.249220
632.445489	0.249425
632.652693	0.249651
632.859879	0.250371
633.067047	0.250311
633.274197	0.250928
633.481329	0.250869
633.688442	0.250931
633.895537	0.251114
634.102614	0.251418
634.309672	0.251495
634.516713	0.251371
634.723735	0.250922
634.930739	0.251173
635.137724	0.250912
635.344692	0.250852
635.551641	0.250987
635.758572	0.251026
635.965485	0.251100
636.172379	0.250713
636.379256	0.251023
636.586114	0.251447
636.792954	0.251713
636.999775	0.252300
637.206579	0.252483
637.413364	0.252781
637.620131	0.253183
637.826880	0.253498
638.033610	0.253933
638.240323	0.254309
638.447017	0.254351
638.653692	0.254535
638.860350	0.254502
639.066990	0.254838
639.273611	0.254791
639.480214	0.254809
639.686798	0.254868
639.893365	0.255520
640.099913	0.255730
640.306443	0.255827
640.512955	0.255909
640.719449	0.256259
640.925924	0.256093
641.132381	0.256327
641.338820	0.256746
641.545241	0.256926
641.751644	0.256768
641.958028	0.256754
642.164394	0.256848
642.370742	0.257144
642.577071	0.257222
642.783383	0.257685
642.989676	0.257635
643.195951	0.257460
643.402207	0.257655
643.608446	0.257867
643.814666	0.258119
644.020868	0.258332
644.227052	0.258391
644.433218	0.258448
644.639365	0.258763
644.845494	0.259196
645.051605	0.259235
645.257698	0.259271
645.463772	0.259497
645.669828	0.259490
645.875866	0.259878
646.081886	0.259937
646.287888	0.260100
646.493871	0.260097
646.699836	0.260338
646.905783	0.260578
647.111712	0.260711
647.317622	0.260665
647.523514	0.260964
647.729388	0.260558
647.935244	0.260578
648.141082	0.260589
648.346901	0.260822
648.552702	0.261043
648.758485	0.261245
648.964250	0.261512
649.169996	0.261971
649.375724	0.262088
649.581434	0.262549
649.787126	0.263180
649.992800	0.263903
650.198455	0.264182
650.404092	0.263990
650.609711	0.264045
650.815311	0.264034
651.020894	0.264316
651.226458	0.264480
651.432004	0.264608
651.637532	0.264624
651.843041	0.264697
652.048532	0.264714
652.254006	0.264964
652.459460	0.265372
652.664897	0.265645
652.870315	0.265579
653.075716	0.265668
653.281097	0.265942
653.486461	0.265945
653.691807	0.265981
653.897134	0.266189
654.102443	0.266430
654.307734	0.266514
654.513006	0.266530
654.718261	0.266632
654.923497	0.266876
655.128715	0.267182
655.333915	0.267589
655.539096	0.267791
655.744259	0.267725
655.949404	0.267910
656.154531	0.268118
656.359640	0.268260
656.564730	0.268458
656.769802	0.268746
656.974856	0.268930
657.179892	0.268999
657.384909	0.269006
657.589908	0.269352
657.794889	0.269352
657.999852	0.269582
658.204797	0.269779
658.409723	0.270079
658.614631	0.270114
658.819521	0.270394
659.024393	0.270472
659.229246	0.271221
659.434081	0.271746
659.638898	0.272587
659.843697	0.272832
660.048478	0.273390
660.253240	0.273590
660.457984	0.274129
660.662710	0.274213
660.867417	0.274574
661.072107	0.274334
661.276778	0.274346
661.481431	0.274166
661.686066	0.274112
661.890682	0.273986
662.095281	0.274099
662.299861	0.274002
662.504422	0.274420
662.708966	0.274535
662.913491	0.274867
663.117999	0.275208
663.322488	0.275603
663.526958	0.276298
663.731411	0.276552
663.935845	0.276865
664.140261	0.277296
664.344659	0.277325
664.549038	0.277502
664.753400	0.277406
664.957743	0.277356
665.162068	0.277258
665.366375	0.277005
665.570663	0.277364
665.774933	0.277713
665.979185	0.277444
666.183419	0.277473
666.387635	0.277675
666.591832	0.277970
666.796011	0.278083
667.000172	0.278399
667.204315	0.278459
667.408439	0.278671
667.612545	0.278791
667.816634	0.279313
668.020703	0.279833
668.224755	0.279897
668.428788	0.280254
668.632803	0.280975
668.836800	0.281067
669.040779	0.281234
669.244739	0.281427
669.448681	0.281759
669.652605	0.282167
669.856511	0.282471
670.060399	0.282815
670.264268	0.282910
670.468119	0.282684
670.671952	0.283099
670.875767	0.283831
671.079563	0.283940
671.283341	0.284038
671.487101	0.283925
671.690843	0.283798
671.894567	0.284067
672.098272	0.284478
672.301959	0.284817
672.505628	0.284932
672.709278	0.285261
672.912911	0.285806
673.116525	0.286196
673.320121	0.286625
673.523699	0.287204
673.727258	0.287473
673.930799	0.287534
674.134322	0.288013
674.337827	0.288274
674.541314	0.288132
674.744782	0.288185
674.948232	0.288193
675.151664	0.288325
675.355078	0.288241
675.558474	0.288503
675.761851	0.289214
675.965210	0.289325
676.168551	0.289720
676.371873	0.290069
676.575178	0.290045
676.778464	0.290318
676.981732	0.290519
677.184981	0.290838
677.388213	0.291019
677.591426	0.290771
677.794621	0.290550
677.997798	0.290541
678.200956	0.290869
678.404097	0.291498
678.607219	0.291688
678.810323	0.291836
679.013408	0.291968
679.216476	0.292420
679.419525	0.292527
679.622556	0.292982
679.825569	0.293243
680.028563	0.293474
680.231540	0.293528
680.434498	0.293885
680.637438	0.294152
680.840359	0.294309
681.043263	0.294163
681.246148	0.294680
681.449015	0.294824
681.651864	0.295044
681.854694	0.295222
682.057506	0.295452
682.260301	0.295724
682.463076	0.296280
682.665834	0.296543
682.868573	0.297067
683.071295	0.297148
683.273998	0.297763
683.476682	0.298023
683.679349	0.298222
683.881997	0.298344
684.084627	0.298326
684.287239	0.298239
684.489833	0.298372
684.692408	0.298530
684.894965	0.298650
685.097504	0.298528
685.300025	0.298558
685.502527	0.298265
685.705012	0.298434
685.907478	0.298818
686.109925	0.299038
686.312355	0.299054
686.514766	0.299132
686.717159	0.299072
686.919534	0.299368
687.121891	0.299340
687.324230	0.300053
687.526550	0.299987
687.728852	0.299893
687.931136	0.299917
688.133401	0.300451
688.335649	0.300432
688.537878	0.300816
688.740089	0.300790
688.942281	0.301176
689.144456	0.301257
689.346612	0.301747
689.548750	0.301932
689.750870	0.302239
689.952971	0.302236
690.155055	0.302939
690.357120	0.303202
690.559167	0.303357
690.761195	0.303812
690.963206	0.304050
691.165198	0.304137
691.367172	0.304472
691.569128	0.304601
691.771065	0.304982
691.972984	0.304905
692.174885	0.305254
692.376768	0.305623
692.578633	0.305727
692.780479	0.305955
692.982308	0.306197
693.184118	0.306391
693.385909	0.306361
693.587683	0.306092
