sample name	sample
index	685
start time	 03-22-2021  12:09:25 PM


Wavelength (nm)	Absorbance
494.344910	-0.399076
494.563924	-0.399076
494.782919	-0.399076
495.001897	NaN
495.220856	0.078788
495.439797	0.229785
495.658719	0.135765
495.877624	0.161681
496.096510	0.357791
496.315378	0.229516
496.534227	0.218179
496.753059	0.146830
496.971872	0.062542
497.190667	0.043897
497.409444	0.042912
497.628203	0.044014
497.846943	0.043623
498.065665	0.043690
498.284369	0.043963
498.503055	0.044524
498.721723	0.045360
498.940372	0.045345
499.159003	0.045783
499.377616	0.045736
499.596210	0.046261
499.814787	0.046997
500.033345	0.046924
500.251885	0.046163
500.470406	0.045445
500.688910	0.044955
500.907395	0.045084
501.125862	0.045290
501.344311	0.045395
501.562742	0.045623
501.781154	0.045079
501.999548	0.045047
502.217924	0.045544
502.436282	0.045524
502.654621	0.045517
502.872942	0.045440
503.091245	0.044461
503.309530	0.045692
503.527797	0.045292
503.746045	0.045404
503.964275	0.045424
504.182487	0.045799
504.400681	0.046317
504.618856	0.046245
504.837013	0.046768
505.055152	0.046799
505.273273	0.046567
505.491376	0.046989
505.709460	0.047201
505.927526	0.047348
506.145574	0.047255
506.363604	0.046529
506.581615	0.046442
506.799608	0.046310
507.017583	0.046391
507.235540	0.045358
507.453478	0.045710
507.671399	0.046459
507.889301	0.046968
508.107185	0.047178
508.325050	0.047593
508.542898	0.047252
508.760727	0.047413
508.978538	0.048017
509.196330	0.048219
509.414105	0.047413
509.631861	0.046934
509.849599	0.045720
510.067319	0.045660
510.285021	0.045985
510.502704	0.046602
510.720369	0.046758
510.938016	0.046345
511.155645	0.046297
511.373255	0.046830
511.590848	0.046480
511.808422	0.047198
512.025977	0.047176
512.243515	0.047072
512.461034	0.046735
512.678536	0.045926
512.896018	0.046151
513.113483	0.046247
513.330930	0.045604
513.548358	0.045405
513.765768	0.045438
513.983160	0.045487
514.200533	0.045670
514.417889	0.046698
514.635226	0.047256
514.852545	0.048264
515.069845	0.048100
515.287128	0.048143
515.504392	0.048459
515.721638	0.048223
515.938866	0.048378
516.156075	0.048248
516.373267	0.047780
516.590440	0.047452
516.807594	0.045920
517.024731	0.046033
517.241850	0.046532
517.458950	0.046707
517.676032	0.047380
517.893095	0.047182
518.110141	0.048014
518.327168	0.048505
518.544177	0.048956
518.761168	0.049669
518.978141	0.050030
519.195095	0.050060
519.412031	0.049777
519.628949	0.049422
519.845849	0.049570
520.062731	0.049306
520.279594	0.048147
520.496439	0.048166
520.713266	0.048247
520.930074	0.048041
521.146865	0.047535
521.363637	0.047845
521.580391	0.048090
521.797127	0.048132
522.013844	0.048021
522.230543	0.048786
522.447224	0.048785
522.663887	0.048745
522.880532	0.049249
523.097158	0.049865
523.313766	0.050217
523.530356	0.050112
523.746928	0.050142
523.963481	0.050195
524.180017	0.050553
524.396534	0.050231
524.613032	0.050583
524.829513	0.050618
525.045975	0.050597
525.262420	0.050561
525.478845	0.050704
525.695253	0.051032
525.911643	0.050832
526.128014	0.050563
526.344367	0.051060
526.560702	0.050976
526.777018	0.050750
526.993316	0.050935
527.209597	0.050686
527.425858	0.050742
527.642102	0.050602
527.858328	0.050645
528.074535	0.050749
528.290724	0.050229
528.506894	0.050130
528.723047	0.050221
528.939181	0.049661
529.155297	0.049500
529.371395	0.049714
529.587475	0.049825
529.803536	0.050148
530.019579	0.050014
530.235604	0.050258
530.451611	0.050357
530.667600	0.050699
530.883570	0.050990
531.099522	0.051087
531.315456	0.051264
531.531372	0.051730
531.747269	0.051691
531.963148	0.051677
532.179009	0.051757
532.394852	0.051928
532.610676	0.051843
532.826482	0.052357
533.042271	0.052679
533.258040	0.052211
533.473792	0.051970
533.689525	0.052128
533.905240	0.052329
534.120937	0.052479
534.336616	0.052087
534.552277	0.052231
534.767919	0.052204
534.983543	0.052284
535.199149	0.052678
535.414736	0.052605
535.630306	0.052836
535.845857	0.052978
536.061390	0.053209
536.276904	0.053585
536.492401	0.053271
536.707879	0.053172
536.923339	0.053365
537.138781	0.053569
537.354204	0.053618
537.569610	0.053375
537.784997	0.053567
538.000366	0.053324
538.215716	0.053501
538.431049	0.053848
538.646363	0.053766
538.861659	0.053873
539.076937	0.053664
539.292196	0.053932
539.507438	0.054273
539.722661	0.054188
539.937866	0.054743
540.153052	0.054668
540.368221	0.054772
540.583371	0.054867
540.798503	0.054985
541.013617	0.054865
541.228712	0.054512
541.443789	0.054345
541.658848	0.054628
541.873889	0.054463
542.088912	0.054472
542.303916	0.054377
542.518902	0.054643
542.733870	0.054482
542.948820	0.055022
543.163752	0.055566
543.378665	0.055898
543.593560	0.055807
543.808437	0.056290
544.023295	0.056410
544.238136	0.056710
544.452958	0.056655
544.667762	0.056612
544.882548	0.056608
545.097315	0.056574
545.312064	0.056597
545.526795	0.056779
545.741508	0.056199
545.956203	0.056237
546.170879	0.056369
546.385537	0.056254
546.600177	0.056263
546.814799	0.056053
547.029402	0.055938
547.243988	0.055965
547.458555	0.055689
547.673103	0.056179
547.887634	0.056294
548.102146	0.055829
548.316640	0.055983
548.531116	0.056209
548.745574	0.055921
548.960013	0.056074
549.174435	0.056002
549.388838	0.055986
549.603222	0.055868
549.817589	0.055663
550.031937	0.055987
550.246267	0.055925
550.460579	0.055867
550.674873	0.056290
550.889148	0.056339
551.103405	0.056127
551.317644	0.056654
551.531865	0.056815
551.746068	0.056829
551.960252	0.057112
552.174418	0.057344
552.388566	0.057421
552.602696	0.057416
552.816807	0.057657
553.030900	0.057622
553.244975	0.057261
553.459032	0.057187
553.673070	0.057358
553.887091	0.057178
554.101093	0.057251
554.315077	0.057409
554.529042	0.057539
554.742990	0.057238
554.956919	0.057435
555.170830	0.057551
555.384722	0.057604
555.598597	0.057500
555.812453	0.057664
556.026291	0.057469
556.240111	0.057573
556.453913	0.057414
556.667696	0.057745
556.881461	0.057931
557.095208	0.057892
557.308937	0.057795
557.522647	0.058074
557.736339	0.057979
557.950013	0.058261
558.163669	0.058428
558.377307	0.058778
558.590926	0.058583
558.804527	0.058752
559.018110	0.059210
559.231675	0.059459
559.445221	0.059365
559.658749	0.059192
559.872259	0.059116
560.085751	0.059229
560.299225	0.059084
560.512680	0.059187
560.726117	0.059348
560.939536	0.059271
561.152937	0.059122
561.366319	0.059724
561.579683	0.060107
561.793029	0.060419
562.006357	0.060329
562.219667	0.060314
562.432958	0.060503
562.646231	0.060403
562.859486	0.060143
563.072723	0.060382
563.285941	0.060200
563.499141	0.060138
563.712323	0.060187
563.925487	0.060272
564.138632	0.060596
564.351760	0.060610
564.564869	0.060753
564.777960	0.060768
564.991032	0.060693
565.204087	0.060546
565.417123	0.061017
565.630141	0.060970
565.843140	0.060551
566.056122	0.060433
566.269085	0.060574
566.482030	0.060389
566.694957	0.060551
566.907866	0.060787
567.120756	0.060905
567.333628	0.060471
567.546482	0.060337
567.759318	0.060927
567.972135	0.060970
568.184935	0.060756
568.397716	0.061073
568.610478	0.061129
568.823223	0.060898
569.035949	0.060929
569.248657	0.060704
569.461347	0.060971
569.674019	0.060830
569.886672	0.060815
570.099308	0.060625
570.311925	0.060539
570.524523	0.060847
570.737104	0.060907
570.949666	0.061134
571.162210	0.061690
571.374736	0.061492
571.587244	0.061266
571.799733	0.061417
572.012205	0.061724
572.224658	0.061726
572.437092	0.061766
572.649509	0.062050
572.861907	0.061762
573.074287	0.061577
573.286649	0.061842
573.498993	0.062206
573.711318	0.062454
573.923625	0.062661
574.135914	0.062797
574.348185	0.062929
574.560438	0.062962
574.772672	0.063274
574.984888	0.063128
575.197086	0.063169
575.409266	0.063018
575.621427	0.062581
575.833570	0.062489
576.045695	0.062507
576.257802	0.062446
576.469890	0.062342
576.681961	0.062293
576.894013	0.062579
577.106046	0.062183
577.318062	0.062489
577.530059	0.062702
577.742039	0.062429
577.954000	0.061909
578.165942	0.061655
578.377867	0.061509
578.589773	0.061610
578.801661	0.061460
579.013531	0.061783
579.225382	0.061524
579.437216	0.061802
579.649031	0.062187
579.860828	0.062693
580.072606	0.062678
580.284367	0.063113
580.496109	0.062994
580.707833	0.062939
580.919539	0.063237
581.131227	0.063253
581.342896	0.063245
581.554547	0.063239
581.766180	0.063088
581.977795	0.063468
582.189391	0.063292
582.400969	0.063174
582.612529	0.063458
582.824071	0.063240
583.035595	0.063413
583.247100	0.063256
583.458587	0.063313
583.670056	0.063661
583.881506	0.063559
584.092939	0.063842
584.304353	0.063762
584.515749	0.063795
584.727127	0.063781
584.938486	0.063852
585.149828	0.064097
585.361151	0.064313
585.572456	0.064303
585.783742	0.064409
585.995011	0.064271
586.206261	0.064786
586.417493	0.064850
586.628706	0.064865
586.839902	0.065074
587.051079	0.064825
587.262238	0.064761
587.473379	0.064599
587.684502	0.064417
587.895606	0.064396
588.106692	0.063731
588.317760	0.063694
588.528810	0.063720
588.739841	0.063686
588.950855	0.063775
589.161850	0.063889
589.372827	0.064117
589.583785	0.064436
589.794726	0.064724
590.005648	0.065449
590.216552	0.065449
590.427437	0.065715
590.638305	0.065849
590.849154	0.066016
591.059985	0.066097
591.270798	0.066170
591.481592	0.066214
591.692369	0.066218
591.903127	0.065942
592.113867	0.066072
592.324588	0.066362
592.535292	0.065947
592.745977	0.065915
592.956644	0.065732
593.167293	0.065763
593.377923	0.065780
593.588536	0.065704
593.799130	0.065798
594.009706	0.065899
594.220263	0.065434
594.430803	0.065824
594.641324	0.065727
594.851827	0.066037
595.062312	0.065988
595.272778	0.065743
595.483227	0.065800
595.693657	0.065775
595.904069	0.065634
596.114462	0.065738
596.324838	0.065723
596.535195	0.066160
596.745534	0.066141
596.955855	0.066197
597.166157	0.066434
597.376441	0.066451
597.586707	0.066569
597.796955	0.066853
598.007185	0.067300
598.217396	0.067405
598.427589	0.067345
598.637764	0.067422
598.847921	0.067454
599.058060	0.067422
599.268180	0.067411
599.478282	0.067494
599.688366	0.067424
599.898431	0.067336
600.108479	0.067063
600.318508	0.066998
600.528519	0.066836
600.738511	0.066861
600.948486	0.067270
601.158442	0.067469
601.368380	0.067604
601.578300	0.067669
601.788202	0.067552
601.998085	0.067975
602.207950	0.068100
602.417797	0.068112
602.627626	0.068229
602.837436	0.067922
603.047228	0.067841
603.257002	0.067771
603.466758	0.067883
603.676496	0.068156
603.886215	0.067939
604.095916	0.067825
604.305599	0.067970
604.515264	0.068173
604.724910	0.068342
604.934538	0.068324
605.144148	0.068510
605.353740	0.068515
605.563314	0.068535
605.772869	0.068834
605.982406	0.068931
606.191925	0.069025
606.401425	0.068821
606.610908	0.068980
606.820372	0.068989
607.029818	0.068992
607.239246	0.069141
607.448655	0.069036
607.658047	0.068967
607.867420	0.069094
608.076775	0.069098
608.286111	0.069221
608.495430	0.069054
608.704730	0.069129
608.914012	0.069052
609.123275	0.068895
609.332521	0.068902
609.541748	0.068818
609.750957	0.068921
609.960148	0.068976
610.169321	0.069015
610.378475	0.068964
610.587611	0.068921
610.796729	0.068961
611.005829	0.069279
611.214910	0.069285
611.423974	0.069509
611.633019	0.069305
611.842045	0.069229
612.051054	0.069259
612.260044	0.069527
612.469017	0.069776
612.677970	0.070243
612.886906	0.070234
613.095824	0.070131
613.304723	0.069789
613.513604	0.070231
613.722467	0.070373
613.931311	0.070197
614.140138	0.070065
614.348946	0.069937
614.557736	0.069371
614.766507	0.069139
614.975261	0.069213
615.183996	0.069538
615.392713	0.069138
615.601412	0.069044
615.810092	0.069154
616.018754	0.069121
616.227399	0.069168
616.436024	0.069431
616.644632	0.069471
616.853222	0.069684
617.061793	0.069655
617.270346	0.069840
617.478880	0.069856
617.687397	0.069944
617.895895	0.070033
618.104375	0.070301
618.312837	0.070527
618.521281	0.070676
618.729706	0.070639
618.938113	0.070889
619.146502	0.070962
619.354873	0.071277
619.563226	0.071554
619.771560	0.071839
619.979876	0.071814
620.188174	0.071780
620.396453	0.071805
620.604715	0.071871
620.812958	0.071688
621.021183	0.071782
621.229390	0.071415
621.437578	0.071616
621.645748	0.071500
621.853900	0.071523
622.062034	0.071522
622.270150	0.071547
622.478247	0.071374
622.686326	0.071626
622.894387	0.071596
623.102430	0.071739
623.310454	0.071434
623.518461	0.071442
623.726449	0.071532
623.934418	0.071383
624.142370	0.071572
624.350303	0.071985
624.558218	0.071798
624.766115	0.071652
624.973994	0.071824
625.181855	0.071845
625.389697	0.071809
625.597521	0.071805
625.805327	0.072002
626.013114	0.071750
626.220883	0.071563
626.428634	0.071455
626.636367	0.071616
626.844082	0.071558
627.051778	0.071752
627.259457	0.071940
627.467117	0.071789
627.674758	0.071763
627.882382	0.071909
628.089987	0.071958
628.297574	0.072202
628.505143	0.072338
628.712694	0.072376
628.920226	0.072189
629.127740	0.072087
629.335236	0.072263
629.542714	0.072280
629.750174	0.072468
629.957615	0.072363
630.165038	0.072362
630.372443	0.072185
630.579829	0.072280
630.787198	0.072359
630.994548	0.072365
631.201880	0.072168
631.409194	0.072070
631.616489	0.072016
631.823766	0.072221
632.031025	0.072374
632.238266	0.072644
632.445489	0.072701
632.652693	0.072756
632.859879	0.072915
633.067047	0.073161
633.274197	0.073363
633.481329	0.073404
633.688442	0.073480
633.895537	0.073384
634.102614	0.073238
634.309672	0.072987
634.516713	0.072904
634.723735	0.072819
634.930739	0.072868
635.137724	0.072828
635.344692	0.072668
635.551641	0.072522
635.758572	0.072462
635.965485	0.072400
636.172379	0.072603
636.379256	0.072596
636.586114	0.072675
636.792954	0.072520
636.999775	0.072593
637.206579	0.072796
637.413364	0.072900
637.620131	0.072892
637.826880	0.073055
638.033610	0.073132
638.240323	0.073202
638.447017	0.073133
638.653692	0.073084
638.860350	0.073231
639.066990	0.073207
639.273611	0.073327
639.480214	0.073476
639.686798	0.073679
639.893365	0.073755
640.099913	0.073863
640.306443	0.073897
640.512955	0.074026
640.719449	0.074009
640.925924	0.074166
641.132381	0.074265
641.338820	0.074317
641.545241	0.074226
641.751644	0.074213
641.958028	0.074257
642.164394	0.074572
642.370742	0.074671
642.577071	0.074739
642.783383	0.074734
642.989676	0.074725
643.195951	0.074833
643.402207	0.074791
643.608446	0.074827
643.814666	0.074975
644.020868	0.074887
644.227052	0.074915
644.433218	0.074925
644.639365	0.074922
644.845494	0.074890
645.051605	0.074897
645.257698	0.074919
645.463772	0.074927
645.669828	0.074862
645.875866	0.074688
646.081886	0.074884
646.287888	0.075072
646.493871	0.075319
646.699836	0.075606
646.905783	0.075698
647.111712	0.075776
647.317622	0.075821
647.523514	0.075924
647.729388	0.076242
647.935244	0.076220
648.141082	0.075898
648.346901	0.075724
648.552702	0.075693
648.758485	0.075569
648.964250	0.075793
649.169996	0.075818
649.375724	0.075755
649.581434	0.075533
649.787126	0.075401
649.992800	0.075277
650.198455	0.075120
650.404092	0.074865
650.609711	0.074701
650.815311	0.074555
651.020894	0.074582
651.226458	0.074716
651.432004	0.074965
651.637532	0.075022
651.843041	0.075401
652.048532	0.075633
652.254006	0.075878
652.459460	0.076118
652.664897	0.076039
652.870315	0.076283
653.075716	0.076274
653.281097	0.076113
653.486461	0.076335
653.691807	0.076396
653.897134	0.076262
654.102443	0.076203
654.307734	0.076259
654.513006	0.076483
654.718261	0.076289
654.923497	0.076423
655.128715	0.076507
655.333915	0.076557
655.539096	0.076456
655.744259	0.076597
655.949404	0.076674
656.154531	0.076842
656.359640	0.076792
656.564730	0.076756
656.769802	0.076736
656.974856	0.076943
657.179892	0.076972
657.384909	0.077108
657.589908	0.077231
657.794889	0.077290
657.999852	0.077190
658.204797	0.077365
658.409723	0.077704
658.614631	0.077603
658.819521	0.077474
659.024393	0.077260
659.229246	0.077227
659.434081	0.077167
659.638898	0.077101
659.843697	0.077048
660.048478	0.076903
660.253240	0.076652
660.457984	0.076894
660.662710	0.076997
660.867417	0.077094
661.072107	0.077092
661.276778	0.076970
661.481431	0.076904
661.686066	0.076942
661.890682	0.077050
662.095281	0.077185
662.299861	0.077130
662.504422	0.077013
662.708966	0.077263
662.913491	0.077307
663.117999	0.077573
663.322488	0.077626
663.526958	0.077891
663.731411	0.078172
663.935845	0.078294
664.140261	0.078428
664.344659	0.078668
664.549038	0.078655
664.753400	0.078919
664.957743	0.078934
665.162068	0.079158
665.366375	0.079180
665.570663	0.079197
665.774933	0.079358
665.979185	0.079245
666.183419	0.079241
666.387635	0.079263
666.591832	0.079111
666.796011	0.079291
667.000172	0.079376
667.204315	0.079331
667.408439	0.079242
667.612545	0.079168
667.816634	0.079311
668.020703	0.079459
668.224755	0.079367
668.428788	0.079345
668.632803	0.079375
668.836800	0.079463
669.040779	0.079697
669.244739	0.079794
669.448681	0.079722
669.652605	0.079761
669.856511	0.079778
670.060399	0.079937
670.264268	0.080135
670.468119	0.080085
670.671952	0.079995
670.875767	0.079993
671.079563	0.080005
671.283341	0.080220
671.487101	0.080352
671.690843	0.080464
671.894567	0.080681
672.098272	0.080768
672.301959	0.081001
672.505628	0.081142
672.709278	0.081192
672.912911	0.081507
673.116525	0.081671
673.320121	0.081561
673.523699	0.081493
673.727258	0.081423
673.930799	0.081370
674.134322	0.081287
674.337827	0.081377
674.541314	0.081384
674.744782	0.081223
674.948232	0.081000
675.151664	0.080986
675.355078	0.081065
675.558474	0.080993
675.761851	0.080922
675.965210	0.081085
676.168551	0.081045
676.371873	0.080986
676.575178	0.080897
676.778464	0.081031
676.981732	0.081110
677.184981	0.081203
677.388213	0.081312
677.591426	0.081592
677.794621	0.081481
677.997798	0.081338
678.200956	0.081480
678.404097	0.081596
678.607219	0.081685
678.810323	0.081642
679.013408	0.081596
679.216476	0.081552
679.419525	0.081532
679.622556	0.081645
679.825569	0.081832
680.028563	0.081893
680.231540	0.082014
680.434498	0.081956
680.637438	0.082121
680.840359	0.082059
681.043263	0.082242
681.246148	0.082306
681.449015	0.082395
681.651864	0.082410
681.854694	0.082413
682.057506	0.082341
682.260301	0.082410
682.463076	0.082523
682.665834	0.082747
682.868573	0.082876
683.071295	0.082862
683.273998	0.082804
683.476682	0.082963
683.679349	0.083082
683.881997	0.083285
684.084627	0.083347
684.287239	0.083458
684.489833	0.083366
684.692408	0.083194
684.894965	0.083295
685.097504	0.083283
685.300025	0.083288
685.502527	0.083367
685.705012	0.083232
685.907478	0.083256
686.109925	0.083144
686.312355	0.083165
686.514766	0.083085
686.717159	0.083169
686.919534	0.083203
687.121891	0.083084
687.324230	0.082963
687.526550	0.082921
687.728852	0.082868
687.931136	0.082868
688.133401	0.082901
688.335649	0.083000
688.537878	0.082909
688.740089	0.082933
688.942281	0.082908
689.144456	0.083035
689.346612	0.083213
689.548750	0.083220
689.750870	0.083331
689.952971	0.083319
690.155055	0.083472
690.357120	0.083350
690.559167	0.083459
690.761195	0.083573
690.963206	0.083470
691.165198	0.083412
691.367172	0.083439
691.569128	0.083402
691.771065	0.083563
691.972984	0.083580
692.174885	0.083865
692.376768	0.083934
692.578633	0.084001
692.780479	0.084133
692.982308	0.084018
693.184118	0.084141
693.385909	0.084045
