sample name	sample
index	1435
start time	 05-10-2021  12:46:08 PM


Wavelength (nm)	Absorbance
494.344910	-0.022919
494.563924	-0.022919
494.782919	-0.022919
495.001897	0.042205
495.220856	-0.028700
495.439797	-0.031402
495.658719	-0.043106
495.877624	-0.034723
496.096510	-0.041097
496.315378	-0.033551
496.534227	-0.021393
496.753059	-0.013125
496.971872	-0.004831
497.190667	0.080256
497.409444	0.117090
497.628203	0.131174
497.846943	0.137759
498.065665	0.141477
498.284369	0.143231
498.503055	0.146357
498.721723	0.146553
498.940372	0.148801
499.159003	0.148193
499.377616	0.147567
499.596210	0.148569
499.814787	0.148321
500.033345	0.149633
500.251885	0.150349
500.470406	0.149206
500.688910	0.151272
500.907395	0.149243
501.125862	0.149143
501.344311	0.150132
501.562742	0.149996
501.781154	0.150030
501.999548	0.148554
502.217924	0.148386
502.436282	0.148149
502.654621	0.148420
502.872942	0.149965
503.091245	0.149659
503.309530	0.149520
503.527797	0.149154
503.746045	0.148677
503.964275	0.149689
504.182487	0.149261
504.400681	0.150663
504.618856	0.149726
504.837013	0.150182
505.055152	0.152186
505.273273	0.152265
505.491376	0.153480
505.709460	0.154479
505.927526	0.155066
506.145574	0.155419
506.363604	0.154534
506.581615	0.154709
506.799608	0.154946
507.017583	0.153815
507.235540	0.154115
507.453478	0.153825
507.671399	0.154324
507.889301	0.154050
508.107185	0.154304
508.325050	0.154854
508.542898	0.155231
508.760727	0.154309
508.978538	0.154959
509.196330	0.155130
509.414105	0.155090
509.631861	0.155042
509.849599	0.155390
510.067319	0.156007
510.285021	0.156148
510.502704	0.157336
510.720369	0.157589
510.938016	0.157810
511.155645	0.157069
511.373255	0.157222
511.590848	0.156733
511.808422	0.156366
512.025977	0.155964
512.243515	0.156169
512.461034	0.155630
512.678536	0.155620
512.896018	0.154932
513.113483	0.156710
513.330930	0.157592
513.548358	0.159013
513.765768	0.159695
513.983160	0.160003
514.200533	0.160286
514.417889	0.160431
514.635226	0.161266
514.852545	0.161488
515.069845	0.160517
515.287128	0.159998
515.504392	0.159935
515.721638	0.160300
515.938866	0.161440
516.156075	0.160973
516.373267	0.161336
516.590440	0.161524
516.807594	0.161970
517.024731	0.162575
517.241850	0.163213
517.458950	0.163493
517.676032	0.163303
517.893095	0.162719
518.110141	0.163617
518.327168	0.164727
518.544177	0.163758
518.761168	0.163975
518.978141	0.164804
519.195095	0.164804
519.412031	0.164889
519.628949	0.165915
519.845849	0.166166
520.062731	0.165816
520.279594	0.163961
520.496439	0.164992
520.713266	0.165126
520.930074	0.164865
521.146865	0.165337
521.363637	0.165540
521.580391	0.165295
521.797127	0.165551
522.013844	0.166334
522.230543	0.167333
522.447224	0.168109
522.663887	0.168786
522.880532	0.169316
523.097158	0.169273
523.313766	0.168323
523.530356	0.168765
523.746928	0.169647
523.963481	0.169874
524.180017	0.170137
524.396534	0.170491
524.613032	0.170990
524.829513	0.171199
525.045975	0.171876
525.262420	0.173034
525.478845	0.173139
525.695253	0.172887
525.911643	0.172612
526.128014	0.172612
526.344367	0.172600
526.560702	0.173097
526.777018	0.173397
526.993316	0.173065
527.209597	0.173329
527.425858	0.173338
527.642102	0.173873
527.858328	0.174780
528.074535	0.175640
528.290724	0.175364
528.506894	0.174963
528.723047	0.174574
528.939181	0.175462
529.155297	0.175486
529.371395	0.176496
529.587475	0.176451
529.803536	0.177155
530.019579	0.177462
530.235604	0.177521
530.451611	0.177961
530.667600	0.178358
530.883570	0.178446
531.099522	0.179234
531.315456	0.178842
531.531372	0.178626
531.747269	0.178345
531.963148	0.177748
532.179009	0.178243
532.394852	0.178699
532.610676	0.179538
532.826482	0.179965
533.042271	0.180042
533.258040	0.180491
533.473792	0.181111
533.689525	0.181413
533.905240	0.182476
534.120937	0.183257
534.336616	0.183237
534.552277	0.182830
534.767919	0.182916
534.983543	0.182959
535.199149	0.183215
535.414736	0.184131
535.630306	0.184386
535.845857	0.184296
536.061390	0.183805
536.276904	0.184103
536.492401	0.184311
536.707879	0.184329
536.923339	0.184942
537.138781	0.185265
537.354204	0.184426
537.569610	0.184534
537.784997	0.184693
538.000366	0.185718
538.215716	0.185942
538.431049	0.186347
538.646363	0.187088
538.861659	0.187319
539.076937	0.187544
539.292196	0.187750
539.507438	0.188043
539.722661	0.188771
539.937866	0.189259
540.153052	0.189195
540.368221	0.189278
540.583371	0.188920
540.798503	0.188810
541.013617	0.188918
541.228712	0.189565
541.443789	0.190137
541.658848	0.190495
541.873889	0.190041
542.088912	0.190637
542.303916	0.191547
542.518902	0.192071
542.733870	0.192508
542.948820	0.193028
543.163752	0.193975
543.378665	0.194328
543.593560	0.194131
543.808437	0.194631
544.023295	0.195259
544.238136	0.195529
544.452958	0.195598
544.667762	0.195938
544.882548	0.195062
545.097315	0.194917
545.312064	0.195103
545.526795	0.195455
545.741508	0.195085
545.956203	0.195502
546.170879	0.195576
546.385537	0.196341
546.600177	0.196280
546.814799	0.197665
547.029402	0.198066
547.243988	0.197656
547.458555	0.197548
547.673103	0.198517
547.887634	0.198502
548.102146	0.198256
548.316640	0.198094
548.531116	0.198638
548.745574	0.198575
548.960013	0.198765
549.174435	0.199245
549.388838	0.200502
549.603222	0.200214
549.817589	0.200314
550.031937	0.200544
550.246267	0.200974
550.460579	0.200619
550.674873	0.200729
550.889148	0.200728
551.103405	0.201119
551.317644	0.200564
551.531865	0.201072
551.746068	0.201592
551.960252	0.202492
552.174418	0.202886
552.388566	0.203617
552.602696	0.204021
552.816807	0.203448
553.030900	0.203568
553.244975	0.203950
553.459032	0.204205
553.673070	0.203994
553.887091	0.203978
554.101093	0.203838
554.315077	0.203940
554.529042	0.204108
554.742990	0.204852
554.956919	0.204976
555.170830	0.205101
555.384722	0.205222
555.598597	0.205718
555.812453	0.205695
556.026291	0.206374
556.240111	0.205966
556.453913	0.206171
556.667696	0.205957
556.881461	0.206327
557.095208	0.206922
557.308937	0.206706
557.522647	0.206599
557.736339	0.206778
557.950013	0.206542
558.163669	0.206758
558.377307	0.206674
558.590926	0.207200
558.804527	0.206955
559.018110	0.206379
559.231675	0.206715
559.445221	0.206620
559.658749	0.206304
559.872259	0.206131
560.085751	0.206500
560.299225	0.206401
560.512680	0.206277
560.726117	0.206592
560.939536	0.206818
561.152937	0.206851
561.366319	0.207359
561.579683	0.207921
561.793029	0.208327
562.006357	0.208843
562.219667	0.209470
562.432958	0.209621
562.646231	0.209751
562.859486	0.210055
563.072723	0.210698
563.285941	0.210627
563.499141	0.210639
563.712323	0.210773
563.925487	0.210744
564.138632	0.210849
564.351760	0.211627
564.564869	0.211657
564.777960	0.211837
564.991032	0.211405
565.204087	0.211738
565.417123	0.212083
565.630141	0.212204
565.843140	0.212427
566.056122	0.212367
566.269085	0.212098
566.482030	0.212529
566.694957	0.212488
566.907866	0.213193
567.120756	0.213190
567.333628	0.213061
567.546482	0.213049
567.759318	0.212727
567.972135	0.212954
568.184935	0.212860
568.397716	0.212802
568.610478	0.212643
568.823223	0.212356
569.035949	0.212614
569.248657	0.212472
569.461347	0.212583
569.674019	0.213022
569.886672	0.212957
570.099308	0.213584
570.311925	0.213802
570.524523	0.214279
570.737104	0.214036
570.949666	0.214038
571.162210	0.214393
571.374736	0.214941
571.587244	0.214992
571.799733	0.215164
572.012205	0.215282
572.224658	0.215471
572.437092	0.215384
572.649509	0.216174
572.861907	0.216245
573.074287	0.216553
573.286649	0.216739
573.498993	0.216888
573.711318	0.217257
573.923625	0.217307
574.135914	0.216942
574.348185	0.217476
574.560438	0.217464
574.772672	0.218088
574.984888	0.218077
575.197086	0.217733
575.409266	0.218184
575.621427	0.218056
575.833570	0.217659
576.045695	0.218299
576.257802	0.218420
576.469890	0.218286
576.681961	0.218021
576.894013	0.218365
577.106046	0.218745
577.318062	0.218589
577.530059	0.219087
577.742039	0.219883
577.954000	0.219943
578.165942	0.219631
578.377867	0.219954
578.589773	0.220118
578.801661	0.220145
579.013531	0.220120
579.225382	0.220435
579.437216	0.220367
579.649031	0.220273
579.860828	0.220371
580.072606	0.220762
580.284367	0.220901
580.496109	0.221157
580.707833	0.221645
580.919539	0.221916
581.131227	0.222085
581.342896	0.221991
581.554547	0.222556
581.766180	0.222849
581.977795	0.223082
582.189391	0.222943
582.400969	0.223186
582.612529	0.223321
582.824071	0.223811
583.035595	0.223737
583.247100	0.224310
583.458587	0.224024
583.670056	0.223940
583.881506	0.224271
584.092939	0.224809
584.304353	0.224900
584.515749	0.224922
584.727127	0.224556
584.938486	0.224884
585.149828	0.225182
585.361151	0.225536
585.572456	0.226000
585.783742	0.226281
585.995011	0.226698
586.206261	0.226661
586.417493	0.227133
586.628706	0.227487
586.839902	0.227715
587.051079	0.227811
587.262238	0.228140
587.473379	0.228137
587.684502	0.228019
587.895606	0.228158
588.106692	0.228305
588.317760	0.228005
588.528810	0.228273
588.739841	0.228960
588.950855	0.228975
589.161850	0.228958
589.372827	0.229077
589.583785	0.229356
589.794726	0.229306
590.005648	0.229987
590.216552	0.230478
590.427437	0.230853
590.638305	0.230476
590.849154	0.230577
591.059985	0.230917
591.270798	0.231090
591.481592	0.231159
591.692369	0.231425
591.903127	0.231380
592.113867	0.231255
592.324588	0.231054
592.535292	0.230919
592.745977	0.231088
592.956644	0.231200
593.167293	0.231369
593.377923	0.231172
593.588536	0.231013
593.799130	0.230723
594.009706	0.231089
594.220263	0.230625
594.430803	0.230600
594.641324	0.230800
594.851827	0.230669
595.062312	0.230445
595.272778	0.230986
595.483227	0.231299
595.693657	0.231381
595.904069	0.231218
596.114462	0.231603
596.324838	0.231845
596.535195	0.231771
596.745534	0.232089
596.955855	0.232221
597.166157	0.232248
597.376441	0.232249
597.586707	0.232599
597.796955	0.232937
598.007185	0.233285
598.217396	0.233687
598.427589	0.233925
598.637764	0.233986
598.847921	0.234072
599.058060	0.234468
599.268180	0.234665
599.478282	0.235068
599.688366	0.234863
599.898431	0.235256
600.108479	0.235193
600.318508	0.235299
600.528519	0.235322
600.738511	0.235814
600.948486	0.235681
601.158442	0.235724
601.368380	0.235420
601.578300	0.235718
601.788202	0.235762
601.998085	0.236024
602.207950	0.235941
602.417797	0.235987
602.627626	0.235888
602.837436	0.236074
603.047228	0.236304
603.257002	0.236612
603.466758	0.236857
603.676496	0.236517
603.886215	0.236602
604.095916	0.236759
604.305599	0.237064
604.515264	0.237447
604.724910	0.237390
604.934538	0.237407
605.144148	0.237444
605.353740	0.237420
605.563314	0.237839
605.772869	0.237929
605.982406	0.238384
606.191925	0.238522
606.401425	0.238549
606.610908	0.238708
606.820372	0.238919
607.029818	0.239056
607.239246	0.239480
607.448655	0.240402
607.658047	0.240869
607.867420	0.241104
608.076775	0.241346
608.286111	0.241414
608.495430	0.241740
608.704730	0.241988
608.914012	0.242038
609.123275	0.242211
609.332521	0.241615
609.541748	0.241533
609.750957	0.241576
609.960148	0.241230
610.169321	0.240951
610.378475	0.240848
610.587611	0.240940
610.796729	0.241186
611.005829	0.241044
611.214910	0.241421
611.423974	0.241630
611.633019	0.241629
611.842045	0.242141
612.051054	0.242788
612.260044	0.243168
612.469017	0.243089
612.677970	0.243208
612.886906	0.243449
613.095824	0.243310
613.304723	0.243216
613.513604	0.243165
613.722467	0.243145
613.931311	0.243119
614.140138	0.242973
614.348946	0.243595
614.557736	0.243704
614.766507	0.243867
614.975261	0.244218
615.183996	0.244535
615.392713	0.244768
615.601412	0.245132
615.810092	0.245690
616.018754	0.246062
616.227399	0.245933
616.436024	0.245985
616.644632	0.246197
616.853222	0.246100
617.061793	0.246274
617.270346	0.246285
617.478880	0.246475
617.687397	0.246351
617.895895	0.246415
618.104375	0.246670
618.312837	0.246906
618.521281	0.246851
618.729706	0.247398
618.938113	0.247218
619.146502	0.247551
619.354873	0.247561
619.563226	0.247847
619.771560	0.248033
619.979876	0.248180
620.188174	0.248195
620.396453	0.248558
620.604715	0.248289
620.812958	0.248779
621.021183	0.248824
621.229390	0.248796
621.437578	0.248573
621.645748	0.248689
621.853900	0.248471
622.062034	0.248620
622.270150	0.248641
622.478247	0.248559
622.686326	0.248489
622.894387	0.248585
623.102430	0.248834
623.310454	0.249234
623.518461	0.249434
623.726449	0.249549
623.934418	0.249592
624.142370	0.249367
624.350303	0.249852
624.558218	0.250287
624.766115	0.250475
624.973994	0.250325
625.181855	0.250274
625.389697	0.250123
625.597521	0.250321
625.805327	0.250444
626.013114	0.250671
626.220883	0.250482
626.428634	0.250003
626.636367	0.249952
626.844082	0.250303
627.051778	0.250495
627.259457	0.250829
627.467117	0.250849
627.674758	0.250850
627.882382	0.250823
628.089987	0.250924
628.297574	0.251318
628.505143	0.251428
628.712694	0.251523
628.920226	0.251679
629.127740	0.251732
629.335236	0.252246
629.542714	0.252554
629.750174	0.253035
629.957615	0.253152
630.165038	0.253359
630.372443	0.253649
630.579829	0.253817
630.787198	0.253900
630.994548	0.253668
631.201880	0.253593
631.409194	0.253594
631.616489	0.253216
631.823766	0.253267
632.031025	0.253248
632.238266	0.253394
632.445489	0.253517
632.652693	0.253722
632.859879	0.254002
633.067047	0.253831
633.274197	0.254325
633.481329	0.254718
633.688442	0.255301
633.895537	0.255689
634.102614	0.255848
634.309672	0.255546
634.516713	0.255691
634.723735	0.256007
634.930739	0.256373
635.137724	0.256049
635.344692	0.256377
635.551641	0.256507
635.758572	0.256755
635.965485	0.256873
636.172379	0.257405
636.379256	0.257574
636.586114	0.257611
636.792954	0.257890
636.999775	0.258378
637.206579	0.258251
637.413364	0.258414
637.620131	0.258199
637.826880	0.258339
638.033610	0.258768
638.240323	0.258808
638.447017	0.259058
638.653692	0.259197
638.860350	0.259405
639.066990	0.259925
639.273611	0.260028
639.480214	0.260455
639.686798	0.260899
639.893365	0.260784
640.099913	0.261018
640.306443	0.261171
640.512955	0.261194
640.719449	0.261513
640.925924	0.261670
641.132381	0.261594
641.338820	0.261275
641.545241	0.261197
641.751644	0.261300
641.958028	0.261561
642.164394	0.261733
642.370742	0.261922
642.577071	0.261676
642.783383	0.261663
642.989676	0.261973
643.195951	0.262396
643.402207	0.262368
643.608446	0.262592
643.814666	0.262526
644.020868	0.262578
644.227052	0.263014
644.433218	0.263199
644.639365	0.263286
644.845494	0.263609
645.051605	0.264016
645.257698	0.264122
645.463772	0.264308
645.669828	0.264225
645.875866	0.264504
646.081886	0.264513
646.287888	0.264615
646.493871	0.264713
646.699836	0.264776
646.905783	0.264385
647.111712	0.264602
647.317622	0.264578
647.523514	0.264941
647.729388	0.264776
647.935244	0.264790
648.141082	0.265064
648.346901	0.265110
648.552702	0.264873
648.758485	0.265273
648.964250	0.265222
649.169996	0.265440
649.375724	0.265375
649.581434	0.265521
649.787126	0.265473
649.992800	0.265690
650.198455	0.265982
650.404092	0.266352
650.609711	0.266324
650.815311	0.266622
651.020894	0.266583
651.226458	0.267029
651.432004	0.267273
651.637532	0.267680
651.843041	0.267647
652.048532	0.267605
652.254006	0.267325
652.459460	0.267558
652.664897	0.267391
652.870315	0.267629
653.075716	0.267651
653.281097	0.267928
653.486461	0.268111
653.691807	0.268199
653.897134	0.268715
654.102443	0.269316
654.307734	0.269603
654.513006	0.270258
654.718261	0.270605
654.923497	0.270811
655.128715	0.270870
655.333915	0.271064
655.539096	0.271498
655.744259	0.271597
655.949404	0.271707
656.154531	0.271685
656.359640	0.271787
656.564730	0.271595
656.769802	0.271501
656.974856	0.271608
657.179892	0.271535
657.384909	0.271512
657.589908	0.271471
657.794889	0.271541
657.999852	0.271851
658.204797	0.271971
658.409723	0.272373
658.614631	0.272931
658.819521	0.273037
659.024393	0.273119
659.229246	0.273410
659.434081	0.273552
659.638898	0.274043
659.843697	0.274175
660.048478	0.274256
660.253240	0.274278
660.457984	0.274449
660.662710	0.274675
660.867417	0.275178
661.072107	0.275210
661.276778	0.275458
661.481431	0.275384
661.686066	0.275527
661.890682	0.275730
662.095281	0.276027
662.299861	0.276084
662.504422	0.276287
662.708966	0.276127
662.913491	0.276175
663.117999	0.276142
663.322488	0.276150
663.526958	0.276334
663.731411	0.276264
663.935845	0.276267
664.140261	0.276300
664.344659	0.276299
664.549038	0.276699
664.753400	0.277015
664.957743	0.277374
665.162068	0.277603
665.366375	0.277697
665.570663	0.278000
665.774933	0.278190
665.979185	0.278399
666.183419	0.278858
666.387635	0.278780
666.591832	0.278832
666.796011	0.279091
667.000172	0.279207
667.204315	0.279333
667.408439	0.279427
667.612545	0.279619
667.816634	0.279727
668.020703	0.279725
668.224755	0.279903
668.428788	0.279753
668.632803	0.279756
668.836800	0.279826
669.040779	0.280074
669.244739	0.280288
669.448681	0.280335
669.652605	0.280644
669.856511	0.280876
670.060399	0.281037
670.264268	0.281553
670.468119	0.281763
670.671952	0.282191
670.875767	0.282351
671.079563	0.282635
671.283341	0.282997
671.487101	0.283104
671.690843	0.283238
671.894567	0.283583
672.098272	0.283794
672.301959	0.284024
672.505628	0.284136
672.709278	0.284329
672.912911	0.284404
673.116525	0.284546
673.320121	0.284750
673.523699	0.284743
673.727258	0.284660
673.930799	0.285016
674.134322	0.285128
674.337827	0.285294
674.541314	0.285328
674.744782	0.285709
674.948232	0.285940
675.151664	0.285899
675.355078	0.286327
675.558474	0.286655
675.761851	0.286656
675.965210	0.286950
676.168551	0.287081
676.371873	0.287251
676.575178	0.287230
676.778464	0.287208
676.981732	0.287261
677.184981	0.287353
677.388213	0.287668
677.591426	0.287839
677.794621	0.287820
677.997798	0.288054
678.200956	0.288475
678.404097	0.288839
678.607219	0.289262
678.810323	0.289856
679.013408	0.289899
679.216476	0.290069
679.419525	0.290377
679.622556	0.290740
679.825569	0.290705
680.028563	0.290739
680.231540	0.290912
680.434498	0.290977
680.637438	0.291015
680.840359	0.291272
681.043263	0.291217
681.246148	0.291350
681.449015	0.291432
681.651864	0.291757
681.854694	0.291967
682.057506	0.291915
682.260301	0.291809
682.463076	0.291993
682.665834	0.291995
682.868573	0.292288
683.071295	0.292160
683.273998	0.292264
683.476682	0.292380
683.679349	0.292455
683.881997	0.292736
684.084627	0.293041
684.287239	0.292953
684.489833	0.293520
684.692408	0.293568
684.894965	0.294095
685.097504	0.294178
685.300025	0.294384
685.502527	0.294239
685.705012	0.294331
685.907478	0.294460
686.109925	0.294791
686.312355	0.294615
686.514766	0.294671
686.717159	0.294498
686.919534	0.294712
687.121891	0.294886
687.324230	0.295449
687.526550	0.295303
687.728852	0.295327
687.931136	0.295293
688.133401	0.295373
688.335649	0.295701
688.537878	0.295669
688.740089	0.295671
688.942281	0.295821
689.144456	0.295735
689.346612	0.296027
689.548750	0.296196
689.750870	0.296542
689.952971	0.296778
690.155055	0.297016
690.357120	0.297340
690.559167	0.297754
690.761195	0.297790
690.963206	0.297890
691.165198	0.298096
691.367172	0.298437
691.569128	0.298412
691.771065	0.298426
691.972984	0.298424
692.174885	0.298728
692.376768	0.298839
692.578633	0.298934
692.780479	0.299373
692.982308	0.299652
693.184118	0.299839
693.385909	0.300222
