sample name	sample
index	285
start time	 02-25-2021  12:19:49 PM


Wavelength (nm)	Absorbance
494.344910	-0.036299
494.563924	-0.036299
494.782919	-0.036299
495.001897	0.134744
495.220856	-0.001689
495.439797	-0.016041
495.658719	-0.027863
495.877624	-0.006956
496.096510	-0.044779
496.315378	-0.012585
496.534227	-0.080993
496.753059	-0.039380
496.971872	-0.029800
497.190667	0.088789
497.409444	0.104085
497.628203	0.108313
497.846943	0.109570
498.065665	0.111725
498.284369	0.112781
498.503055	0.113651
498.721723	0.113263
498.940372	0.114123
499.159003	0.114062
499.377616	0.114614
499.596210	0.114470
499.814787	0.114340
500.033345	0.114268
500.251885	0.113441
500.470406	0.113207
500.688910	0.113371
500.907395	0.113670
501.125862	0.113107
501.344311	0.113023
501.562742	0.112938
501.781154	0.113571
501.999548	0.113403
502.217924	0.114129
502.436282	0.114119
502.654621	0.114602
502.872942	0.114700
503.091245	0.115581
503.309530	0.116012
503.527797	0.116020
503.746045	0.115990
503.964275	0.116510
504.182487	0.116426
504.400681	0.117168
504.618856	0.116951
504.837013	0.116025
505.055152	0.117453
505.273273	0.118212
505.491376	0.119251
505.709460	0.118547
505.927526	0.118498
506.145574	0.118245
506.363604	0.118297
506.581615	0.117896
506.799608	0.118444
507.017583	0.118133
507.235540	0.116869
507.453478	0.116432
507.671399	0.117185
507.889301	0.116984
508.107185	0.117477
508.325050	0.116838
508.542898	0.117379
508.760727	0.116574
508.978538	0.116468
509.196330	0.117224
509.414105	0.117492
509.631861	0.117307
509.849599	0.117294
510.067319	0.117099
510.285021	0.118060
510.502704	0.118249
510.720369	0.119950
510.938016	0.119644
511.155645	0.119228
511.373255	0.119218
511.590848	0.119284
511.808422	0.120595
512.025977	0.120681
512.243515	0.121225
512.461034	0.120949
512.678536	0.120917
512.896018	0.120909
513.113483	0.121013
513.330930	0.121344
513.548358	0.122107
513.765768	0.122163
513.983160	0.123057
514.200533	0.122573
514.417889	0.123243
514.635226	0.123800
514.852545	0.124267
515.069845	0.125528
515.287128	0.126368
515.504392	0.126637
515.721638	0.126765
515.938866	0.126971
516.156075	0.127278
516.373267	0.128107
516.590440	0.127460
516.807594	0.127722
517.024731	0.126878
517.241850	0.126830
517.458950	0.126530
517.676032	0.126560
517.893095	0.126445
518.110141	0.126246
518.327168	0.125642
518.544177	0.126014
518.761168	0.126332
518.978141	0.127348
519.195095	0.127544
519.412031	0.127699
519.628949	0.127965
519.845849	0.128277
520.062731	0.129127
520.279594	0.129736
520.496439	0.130231
520.713266	0.131055
520.930074	0.130731
521.146865	0.130873
521.363637	0.131291
521.580391	0.131531
521.797127	0.132407
522.013844	0.132108
522.230543	0.131503
522.447224	0.131442
522.663887	0.131289
522.880532	0.132209
523.097158	0.132117
523.313766	0.132862
523.530356	0.133134
523.746928	0.132902
523.963481	0.132786
524.180017	0.133373
524.396534	0.133812
524.613032	0.134320
524.829513	0.134030
525.045975	0.134605
525.262420	0.134158
525.478845	0.134945
525.695253	0.135185
525.911643	0.135482
526.128014	0.136334
526.344367	0.136862
526.560702	0.136725
526.777018	0.136872
526.993316	0.137405
527.209597	0.137938
527.425858	0.137711
527.642102	0.138315
527.858328	0.139003
528.074535	0.138357
528.290724	0.138480
528.506894	0.139078
528.723047	0.139422
528.939181	0.139506
529.155297	0.140193
529.371395	0.140464
529.587475	0.140930
529.803536	0.141679
530.019579	0.142869
530.235604	0.142513
530.451611	0.142308
530.667600	0.142781
530.883570	0.142704
531.099522	0.142869
531.315456	0.143076
531.531372	0.143452
531.747269	0.143400
531.963148	0.143221
532.179009	0.144465
532.394852	0.145021
532.610676	0.145646
532.826482	0.146470
533.042271	0.146841
533.258040	0.147205
533.473792	0.147242
533.689525	0.147010
533.905240	0.147906
534.120937	0.147302
534.336616	0.147618
534.552277	0.147082
534.767919	0.146866
534.983543	0.146663
535.199149	0.147215
535.414736	0.146975
535.630306	0.147922
535.845857	0.147542
536.061390	0.148616
536.276904	0.149033
536.492401	0.149675
536.707879	0.150429
536.923339	0.150888
537.138781	0.150631
537.354204	0.151788
537.569610	0.151894
537.784997	0.152631
538.000366	0.152865
538.215716	0.152756
538.431049	0.153150
538.646363	0.153056
538.861659	0.153615
539.076937	0.153986
539.292196	0.153859
539.507438	0.154420
539.722661	0.154408
539.937866	0.154780
540.153052	0.155731
540.368221	0.156229
540.583371	0.156355
540.798503	0.156609
541.013617	0.156876
541.228712	0.157026
541.443789	0.156811
541.658848	0.157529
541.873889	0.157405
542.088912	0.157399
542.303916	0.157670
542.518902	0.158238
542.733870	0.158641
542.948820	0.159040
543.163752	0.159644
543.378665	0.160028
543.593560	0.160276
543.808437	0.160841
544.023295	0.161270
544.238136	0.161830
544.452958	0.162124
544.667762	0.162036
544.882548	0.162302
545.097315	0.162432
545.312064	0.162940
545.526795	0.163094
545.741508	0.163477
545.956203	0.164068
546.170879	0.164036
546.385537	0.164731
546.600177	0.165388
546.814799	0.165925
547.029402	0.166278
547.243988	0.166269
547.458555	0.166544
547.673103	0.166774
547.887634	0.166455
548.102146	0.166625
548.316640	0.166703
548.531116	0.166657
548.745574	0.166872
548.960013	0.167099
549.174435	0.167678
549.388838	0.167386
549.603222	0.167527
549.817589	0.167813
550.031937	0.168381
550.246267	0.168824
550.460579	0.168638
550.674873	0.168872
550.889148	0.168858
551.103405	0.169245
551.317644	0.169832
551.531865	0.169822
551.746068	0.169774
551.960252	0.170415
552.174418	0.170081
552.388566	0.171144
552.602696	0.171593
552.816807	0.172044
553.030900	0.171871
553.244975	0.172455
553.459032	0.172887
553.673070	0.173513
553.887091	0.173058
554.101093	0.173439
554.315077	0.173531
554.529042	0.173484
554.742990	0.173888
554.956919	0.174573
555.170830	0.174487
555.384722	0.174362
555.598597	0.173866
555.812453	0.174134
556.026291	0.174534
556.240111	0.174549
556.453913	0.174359
556.667696	0.173940
556.881461	0.173752
557.095208	0.173928
557.308937	0.174531
557.522647	0.175501
557.736339	0.175312
557.950013	0.175568
558.163669	0.176039
558.377307	0.176621
558.590926	0.177474
558.804527	0.177478
559.018110	0.177852
559.231675	0.177731
559.445221	0.177590
559.658749	0.178140
559.872259	0.177916
560.085751	0.177723
560.299225	0.177966
560.512680	0.178009
560.726117	0.178517
560.939536	0.178805
561.152937	0.178972
561.366319	0.179327
561.579683	0.179398
561.793029	0.179606
562.006357	0.179828
562.219667	0.180182
562.432958	0.180342
562.646231	0.180619
562.859486	0.180761
563.072723	0.180809
563.285941	0.181054
563.499141	0.181477
563.712323	0.181904
563.925487	0.182063
564.138632	0.182214
564.351760	0.182306
564.564869	0.182418
564.777960	0.182049
564.991032	0.182640
565.204087	0.182948
565.417123	0.183365
565.630141	0.183751
565.843140	0.183951
566.056122	0.183902
566.269085	0.183815
566.482030	0.184135
566.694957	0.184613
566.907866	0.184866
567.120756	0.184875
567.333628	0.184806
567.546482	0.184677
567.759318	0.185172
567.972135	0.185688
568.184935	0.186315
568.397716	0.186373
568.610478	0.186671
568.823223	0.186596
569.035949	0.186583
569.248657	0.186586
569.461347	0.186744
569.674019	0.186653
569.886672	0.186464
570.099308	0.186438
570.311925	0.186537
570.524523	0.186724
570.737104	0.186745
570.949666	0.187410
571.162210	0.187698
571.374736	0.188154
571.587244	0.188332
571.799733	0.188410
572.012205	0.188884
572.224658	0.189040
572.437092	0.188535
572.649509	0.188785
572.861907	0.188670
573.074287	0.188576
573.286649	0.188744
573.498993	0.188837
573.711318	0.189336
573.923625	0.189003
574.135914	0.189300
574.348185	0.189786
574.560438	0.189973
574.772672	0.189928
574.984888	0.190406
575.197086	0.190364
575.409266	0.190681
575.621427	0.190689
575.833570	0.191075
576.045695	0.191214
576.257802	0.191906
576.469890	0.191973
576.681961	0.192304
576.894013	0.192777
577.106046	0.192788
577.318062	0.193344
577.530059	0.193697
577.742039	0.193958
577.954000	0.194004
578.165942	0.194131
578.377867	0.194403
578.589773	0.194542
578.801661	0.194140
579.013531	0.194551
579.225382	0.194483
579.437216	0.194595
579.649031	0.194695
579.860828	0.194894
580.072606	0.195068
580.284367	0.195357
580.496109	0.195770
580.707833	0.196249
580.919539	0.196466
581.131227	0.196686
581.342896	0.196729
581.554547	0.196636
581.766180	0.196935
581.977795	0.196968
582.189391	0.197417
582.400969	0.197316
582.612529	0.197766
582.824071	0.198221
583.035595	0.198389
583.247100	0.198782
583.458587	0.199307
583.670056	0.199547
583.881506	0.199955
584.092939	0.200035
584.304353	0.200234
584.515749	0.200171
584.727127	0.200055
584.938486	0.200241
585.149828	0.200150
585.361151	0.200441
585.572456	0.200400
585.783742	0.200134
585.995011	0.200222
586.206261	0.200697
586.417493	0.200939
586.628706	0.201428
586.839902	0.201631
587.051079	0.202137
587.262238	0.202355
587.473379	0.202793
587.684502	0.203371
587.895606	0.203278
588.106692	0.203662
588.317760	0.203635
588.528810	0.203565
588.739841	0.203712
588.950855	0.203693
589.161850	0.203834
589.372827	0.203905
589.583785	0.204269
589.794726	0.204574
590.005648	0.204371
590.216552	0.204776
590.427437	0.205069
590.638305	0.205043
590.849154	0.205322
591.059985	0.205371
591.270798	0.205470
591.481592	0.205512
591.692369	0.205793
591.903127	0.206307
592.113867	0.206328
592.324588	0.206390
592.535292	0.206439
592.745977	0.206670
592.956644	0.206742
593.167293	0.206780
593.377923	0.206713
593.588536	0.206994
593.799130	0.207393
594.009706	0.207877
594.220263	0.208061
594.430803	0.208491
594.641324	0.208232
594.851827	0.208803
595.062312	0.209192
595.272778	0.209334
595.483227	0.209641
595.693657	0.209376
595.904069	0.209514
596.114462	0.209668
596.324838	0.209765
596.535195	0.210422
596.745534	0.210318
596.955855	0.210388
597.166157	0.210497
597.376441	0.210732
597.586707	0.211104
597.796955	0.211025
598.007185	0.211210
598.217396	0.211703
598.427589	0.211664
598.637764	0.211883
598.847921	0.212228
599.058060	0.212751
599.268180	0.212807
599.478282	0.212963
599.688366	0.213007
599.898431	0.213037
600.108479	0.212814
600.318508	0.213070
600.528519	0.213226
600.738511	0.213369
600.948486	0.213407
601.158442	0.213396
601.368380	0.213569
601.578300	0.213904
601.788202	0.214234
601.998085	0.214517
602.207950	0.214516
602.417797	0.214833
602.627626	0.214699
602.837436	0.214784
603.047228	0.215435
603.257002	0.215346
603.466758	0.215618
603.676496	0.215724
603.886215	0.216061
604.095916	0.216681
604.305599	0.216639
604.515264	0.217092
604.724910	0.217422
604.934538	0.217367
605.144148	0.217330
605.353740	0.217301
605.563314	0.217211
605.772869	0.217305
605.982406	0.216747
606.191925	0.217056
606.401425	0.217061
606.610908	0.217099
606.820372	0.217303
607.029818	0.217594
607.239246	0.217422
607.448655	0.217908
607.658047	0.217786
607.867420	0.218147
608.076775	0.218289
608.286111	0.218690
608.495430	0.218864
608.704730	0.218401
608.914012	0.218679
609.123275	0.219353
609.332521	0.219259
609.541748	0.219595
609.750957	0.220091
609.960148	0.220419
610.169321	0.220685
610.378475	0.221040
610.587611	0.221923
610.796729	0.222166
611.005829	0.222181
611.214910	0.222702
611.423974	0.222782
611.633019	0.222531
611.842045	0.222653
612.051054	0.222782
612.260044	0.222905
612.469017	0.222964
612.677970	0.222996
612.886906	0.222917
613.095824	0.222892
613.304723	0.223038
613.513604	0.223362
613.722467	0.223486
613.931311	0.223677
614.140138	0.223753
614.348946	0.223794
614.557736	0.223927
614.766507	0.224354
614.975261	0.224538
615.183996	0.224777
615.392713	0.225128
615.601412	0.225507
615.810092	0.225474
616.018754	0.225604
616.227399	0.225851
616.436024	0.226020
616.644632	0.226504
616.853222	0.226827
617.061793	0.227126
617.270346	0.227440
617.478880	0.227403
617.687397	0.227491
617.895895	0.227738
618.104375	0.227671
618.312837	0.227672
618.521281	0.227502
618.729706	0.227864
618.938113	0.228098
619.146502	0.227915
619.354873	0.227860
619.563226	0.228286
619.771560	0.228424
619.979876	0.228666
620.188174	0.229384
620.396453	0.229661
620.604715	0.229330
620.812958	0.229182
621.021183	0.229459
621.229390	0.229578
621.437578	0.229580
621.645748	0.229847
621.853900	0.230044
622.062034	0.229895
622.270150	0.229682
622.478247	0.230123
622.686326	0.230743
622.894387	0.230909
623.102430	0.231289
623.310454	0.231387
623.518461	0.231453
623.726449	0.231831
623.934418	0.232144
624.142370	0.232676
624.350303	0.232903
624.558218	0.232882
624.766115	0.233325
624.973994	0.233635
625.181855	0.233972
625.389697	0.234331
625.597521	0.234400
625.805327	0.234528
626.013114	0.234706
626.220883	0.234711
626.428634	0.235010
626.636367	0.234827
626.844082	0.235097
627.051778	0.235227
627.259457	0.235140
627.467117	0.235500
627.674758	0.235646
627.882382	0.235676
628.089987	0.235899
628.297574	0.235978
628.505143	0.236124
628.712694	0.235743
628.920226	0.236001
629.127740	0.236150
629.335236	0.235885
629.542714	0.235988
629.750174	0.236228
629.957615	0.236569
630.165038	0.236755
630.372443	0.236986
630.579829	0.237459
630.787198	0.237353
630.994548	0.237616
631.201880	0.237929
631.409194	0.238276
631.616489	0.238405
631.823766	0.238342
632.031025	0.238523
632.238266	0.238897
632.445489	0.238991
632.652693	0.239211
632.859879	0.239550
633.067047	0.239817
633.274197	0.240096
633.481329	0.240301
633.688442	0.240353
633.895537	0.240423
634.102614	0.240541
634.309672	0.240776
634.516713	0.240949
634.723735	0.240833
634.930739	0.240838
635.137724	0.240619
635.344692	0.240602
635.551641	0.241157
635.758572	0.241109
635.965485	0.241125
636.172379	0.240911
636.379256	0.241198
636.586114	0.241547
636.792954	0.242040
636.999775	0.242235
637.206579	0.242384
637.413364	0.242288
637.620131	0.242594
637.826880	0.242893
638.033610	0.243349
638.240323	0.243670
638.447017	0.244100
638.653692	0.244176
638.860350	0.244321
639.066990	0.245004
639.273611	0.245174
639.480214	0.245518
639.686798	0.245724
639.893365	0.245929
640.099913	0.245863
640.306443	0.245784
640.512955	0.245907
640.719449	0.246303
640.925924	0.246352
641.132381	0.246567
641.338820	0.246784
641.545241	0.247077
641.751644	0.247516
641.958028	0.248004
642.164394	0.248442
642.370742	0.248770
642.577071	0.248994
642.783383	0.249177
642.989676	0.249491
643.195951	0.249451
643.402207	0.249655
643.608446	0.249564
643.814666	0.249598
644.020868	0.249440
644.227052	0.249519
644.433218	0.249830
644.639365	0.249961
644.845494	0.250118
645.051605	0.250395
645.257698	0.250431
645.463772	0.250665
645.669828	0.250887
645.875866	0.251114
646.081886	0.251125
646.287888	0.250959
646.493871	0.251240
646.699836	0.251460
646.905783	0.251835
647.111712	0.252117
647.317622	0.252368
647.523514	0.252465
647.729388	0.252706
647.935244	0.252948
648.141082	0.253173
648.346901	0.253281
648.552702	0.253484
648.758485	0.253597
648.964250	0.253804
649.169996	0.254042
649.375724	0.254380
649.581434	0.254672
649.787126	0.254898
649.992800	0.255426
650.198455	0.255595
650.404092	0.255706
650.609711	0.255729
650.815311	0.255912
651.020894	0.256149
651.226458	0.256476
651.432004	0.256569
651.637532	0.256812
651.843041	0.256760
652.048532	0.256844
652.254006	0.257161
652.459460	0.257687
652.664897	0.257802
652.870315	0.258042
653.075716	0.257980
653.281097	0.258272
653.486461	0.258546
653.691807	0.258831
653.897134	0.259228
654.102443	0.259176
654.307734	0.259104
654.513006	0.259434
654.718261	0.259543
654.923497	0.259847
655.128715	0.259903
655.333915	0.260045
655.539096	0.260410
655.744259	0.260575
655.949404	0.260828
656.154531	0.261269
656.359640	0.261581
656.564730	0.261778
656.769802	0.261989
656.974856	0.262179
657.179892	0.262279
657.384909	0.262150
657.589908	0.262467
657.794889	0.262667
657.999852	0.262795
658.204797	0.262894
658.409723	0.263230
658.614631	0.263663
658.819521	0.263842
659.024393	0.264225
659.229246	0.264888
659.434081	0.264989
659.638898	0.265429
659.843697	0.265566
660.048478	0.265725
660.253240	0.265847
660.457984	0.265810
660.662710	0.266161
660.867417	0.266508
661.072107	0.266339
661.276778	0.266638
661.481431	0.266981
661.686066	0.267312
661.890682	0.267586
662.095281	0.267854
662.299861	0.268222
662.504422	0.268324
662.708966	0.268570
662.913491	0.268981
663.117999	0.269147
663.322488	0.269278
663.526958	0.269627
663.731411	0.269888
663.935845	0.270272
664.140261	0.270307
664.344659	0.270769
664.549038	0.270953
664.753400	0.271111
664.957743	0.271050
665.162068	0.271392
665.366375	0.271365
665.570663	0.271565
665.774933	0.271638
665.979185	0.271813
666.183419	0.271613
666.387635	0.271507
666.591832	0.271585
666.796011	0.272026
667.000172	0.271991
667.204315	0.272048
667.408439	0.272498
667.612545	0.272646
667.816634	0.272938
668.020703	0.273484
668.224755	0.273850
668.428788	0.274216
668.632803	0.274408
668.836800	0.274897
669.040779	0.275413
669.244739	0.275140
669.448681	0.275396
669.652605	0.275594
669.856511	0.275828
670.060399	0.276176
670.264268	0.276675
670.468119	0.276774
670.671952	0.276746
670.875767	0.277073
671.079563	0.277463
671.283341	0.277672
671.487101	0.277758
671.690843	0.277866
671.894567	0.278105
672.098272	0.277878
672.301959	0.278199
672.505628	0.278334
672.709278	0.278432
672.912911	0.278542
673.116525	0.278677
673.320121	0.279318
673.523699	0.279532
673.727258	0.279730
673.930799	0.280215
674.134322	0.280806
674.337827	0.281132
674.541314	0.281323
674.744782	0.281688
674.948232	0.282030
675.151664	0.282016
675.355078	0.282559
675.558474	0.282801
675.761851	0.282985
675.965210	0.283125
676.168551	0.283493
676.371873	0.283788
676.575178	0.284034
676.778464	0.284466
676.981732	0.284810
677.184981	0.284866
677.388213	0.285183
677.591426	0.285556
677.794621	0.285901
677.997798	0.286276
678.200956	0.286700
678.404097	0.287027
678.607219	0.287242
678.810323	0.287707
679.013408	0.288334
679.216476	0.288500
679.419525	0.288762
679.622556	0.288861
679.825569	0.289102
680.028563	0.289010
680.231540	0.289408
680.434498	0.289648
680.637438	0.289746
680.840359	0.289736
681.043263	0.290092
681.246148	0.290322
681.449015	0.290599
681.651864	0.290762
681.854694	0.291258
682.057506	0.291300
682.260301	0.291456
682.463076	0.291501
682.665834	0.291607
682.868573	0.292030
683.071295	0.292047
683.273998	0.291893
683.476682	0.291796
683.679349	0.291693
683.881997	0.291826
684.084627	0.291976
684.287239	0.292157
684.489833	0.292250
684.692408	0.292102
684.894965	0.292190
685.097504	0.292864
685.300025	0.293281
685.502527	0.293425
685.705012	0.293309
685.907478	0.293455
686.109925	0.293438
686.312355	0.293886
686.514766	0.294222
686.717159	0.294517
686.919534	0.294696
687.121891	0.294854
687.324230	0.295305
687.526550	0.295492
687.728852	0.295485
687.931136	0.295999
688.133401	0.296092
688.335649	0.296143
688.537878	0.296274
688.740089	0.296108
688.942281	0.296179
689.144456	0.296310
689.346612	0.296663
689.548750	0.296838
689.750870	0.296935
689.952971	0.297057
690.155055	0.297220
690.357120	0.297435
690.559167	0.297469
690.761195	0.297665
690.963206	0.297776
691.165198	0.298054
691.367172	0.298664
691.569128	0.298848
691.771065	0.299152
691.972984	0.299189
692.174885	0.299464
692.376768	0.299858
692.578633	0.300197
692.780479	0.300490
692.982308	0.300737
693.184118	0.300603
693.385909	0.300537
