sample name	sample
index	1231
start time	 04-29-2021  11:10:10 AM


Wavelength (nm)	Absorbance
494.344910	0.197019
494.563924	0.197019
494.782919	0.197019
495.001897	-0.021676
495.220856	0.139636
495.439797	0.136201
495.658719	0.101810
495.877624	0.052200
496.096510	0.090803
496.315378	0.060250
496.534227	0.012852
496.753059	0.019795
496.971872	0.003422
497.190667	0.107137
497.409444	0.130281
497.628203	0.138694
497.846943	0.141728
498.065665	0.141888
498.284369	0.145131
498.503055	0.146062
498.721723	0.144038
498.940372	0.143341
499.159003	0.143335
499.377616	0.142675
499.596210	0.141587
499.814787	0.141560
500.033345	0.141473
500.251885	0.140778
500.470406	0.139915
500.688910	0.141596
500.907395	0.143061
501.125862	0.143143
501.344311	0.142527
501.562742	0.143642
501.781154	0.143108
501.999548	0.142529
502.217924	0.142176
502.436282	0.142841
502.654621	0.142900
502.872942	0.142567
503.091245	0.142678
503.309530	0.142716
503.527797	0.142948
503.746045	0.142811
503.964275	0.143199
504.182487	0.143264
504.400681	0.142932
504.618856	0.141576
504.837013	0.141841
505.055152	0.141738
505.273273	0.142609
505.491376	0.141046
505.709460	0.141413
505.927526	0.142223
506.145574	0.142714
506.363604	0.143110
506.581615	0.142369
506.799608	0.142104
507.017583	0.142325
507.235540	0.141756
507.453478	0.141934
507.671399	0.141722
507.889301	0.141885
508.107185	0.140924
508.325050	0.141013
508.542898	0.142077
508.760727	0.141923
508.978538	0.142890
509.196330	0.142821
509.414105	0.144477
509.631861	0.145931
509.849599	0.145967
510.067319	0.146048
510.285021	0.146251
510.502704	0.146069
510.720369	0.145938
510.938016	0.145697
511.155645	0.146327
511.373255	0.145325
511.590848	0.144253
511.808422	0.144467
512.025977	0.145326
512.243515	0.145805
512.461034	0.146944
512.678536	0.147446
512.896018	0.148042
513.113483	0.148709
513.330930	0.148145
513.548358	0.149259
513.765768	0.148589
513.983160	0.149837
514.200533	0.149366
514.417889	0.150543
514.635226	0.150743
514.852545	0.151027
515.069845	0.150723
515.287128	0.152306
515.504392	0.151324
515.721638	0.152407
515.938866	0.152488
516.156075	0.153456
516.373267	0.151872
516.590440	0.152133
516.807594	0.152016
517.024731	0.152000
517.241850	0.151734
517.458950	0.153244
517.676032	0.152926
517.893095	0.153311
518.110141	0.153739
518.327168	0.154735
518.544177	0.155651
518.761168	0.156247
518.978141	0.156684
519.195095	0.157907
519.412031	0.157258
519.628949	0.156992
519.845849	0.156620
520.062731	0.155927
520.279594	0.156686
520.496439	0.156372
520.713266	0.156397
520.930074	0.156940
521.146865	0.156318
521.363637	0.156478
521.580391	0.156903
521.797127	0.157081
522.013844	0.157718
522.230543	0.157069
522.447224	0.156926
522.663887	0.157137
522.880532	0.157116
523.097158	0.156899
523.313766	0.157236
523.530356	0.157476
523.746928	0.156992
523.963481	0.157086
524.180017	0.157536
524.396534	0.158188
524.613032	0.157934
524.829513	0.158301
525.045975	0.159080
525.262420	0.159421
525.478845	0.160202
525.695253	0.160813
525.911643	0.161847
526.128014	0.161756
526.344367	0.161118
526.560702	0.161816
526.777018	0.162070
526.993316	0.162480
527.209597	0.162307
527.425858	0.162543
527.642102	0.163292
527.858328	0.162654
528.074535	0.163107
528.290724	0.164004
528.506894	0.164240
528.723047	0.164298
528.939181	0.164469
529.155297	0.165322
529.371395	0.165863
529.587475	0.166115
529.803536	0.166505
530.019579	0.166238
530.235604	0.166416
530.451611	0.166733
530.667600	0.166890
530.883570	0.166232
531.099522	0.167064
531.315456	0.167095
531.531372	0.167216
531.747269	0.167332
531.963148	0.167942
532.179009	0.168320
532.394852	0.168137
532.610676	0.168609
532.826482	0.169319
533.042271	0.168686
533.258040	0.167950
533.473792	0.168109
533.689525	0.168969
533.905240	0.169628
534.120937	0.169712
534.336616	0.170795
534.552277	0.171137
534.767919	0.171928
534.983543	0.172538
535.199149	0.174344
535.414736	0.175234
535.630306	0.175503
535.845857	0.176273
536.061390	0.177001
536.276904	0.176875
536.492401	0.177322
536.707879	0.177138
536.923339	0.176769
537.138781	0.177051
537.354204	0.176516
537.569610	0.176690
537.784997	0.176219
538.000366	0.176220
538.215716	0.176037
538.431049	0.176077
538.646363	0.176395
538.861659	0.177651
539.076937	0.177146
539.292196	0.177858
539.507438	0.177442
539.722661	0.177742
539.937866	0.178246
540.153052	0.179105
540.368221	0.179243
540.583371	0.179959
540.798503	0.180150
541.013617	0.180675
541.228712	0.181090
541.443789	0.182125
541.658848	0.182149
541.873889	0.182504
542.088912	0.182273
542.303916	0.182632
542.518902	0.182650
542.733870	0.182574
542.948820	0.182826
543.163752	0.182683
543.378665	0.182594
543.593560	0.183013
543.808437	0.183132
544.023295	0.183631
544.238136	0.184030
544.452958	0.184240
544.667762	0.184635
544.882548	0.184364
545.097315	0.184638
545.312064	0.184966
545.526795	0.185669
545.741508	0.185561
545.956203	0.186108
546.170879	0.186312
546.385537	0.186715
546.600177	0.186902
546.814799	0.187188
547.029402	0.186902
547.243988	0.186883
547.458555	0.186911
547.673103	0.187534
547.887634	0.187526
548.102146	0.187867
548.316640	0.187484
548.531116	0.187941
548.745574	0.188126
548.960013	0.188932
549.174435	0.189948
549.388838	0.190293
549.603222	0.190036
549.817589	0.190086
550.031937	0.190039
550.246267	0.190509
550.460579	0.190699
550.674873	0.191158
550.889148	0.191371
551.103405	0.191168
551.317644	0.190824
551.531865	0.190803
551.746068	0.191088
551.960252	0.191698
552.174418	0.191980
552.388566	0.192254
552.602696	0.192117
552.816807	0.192595
553.030900	0.192666
553.244975	0.193191
553.459032	0.194083
553.673070	0.194657
553.887091	0.194286
554.101093	0.194571
554.315077	0.194446
554.529042	0.194690
554.742990	0.194141
554.956919	0.194008
555.170830	0.194204
555.384722	0.194228
555.598597	0.193461
555.812453	0.193366
556.026291	0.193281
556.240111	0.193063
556.453913	0.193490
556.667696	0.193730
556.881461	0.193893
557.095208	0.194080
557.308937	0.194056
557.522647	0.194683
557.736339	0.194532
557.950013	0.194959
558.163669	0.195525
558.377307	0.195672
558.590926	0.196056
558.804527	0.196924
559.018110	0.196762
559.231675	0.197192
559.445221	0.197538
559.658749	0.198626
559.872259	0.198823
560.085751	0.199063
560.299225	0.199004
560.512680	0.199044
560.726117	0.198634
560.939536	0.199189
561.152937	0.199146
561.366319	0.199161
561.579683	0.199286
561.793029	0.199178
562.006357	0.199381
562.219667	0.199917
562.432958	0.200050
562.646231	0.200173
562.859486	0.200022
563.072723	0.200267
563.285941	0.200517
563.499141	0.200388
563.712323	0.200803
563.925487	0.200672
564.138632	0.200634
564.351760	0.200882
564.564869	0.200957
564.777960	0.201513
564.991032	0.201212
565.204087	0.201214
565.417123	0.201560
565.630141	0.201608
565.843140	0.201681
566.056122	0.201811
566.269085	0.201761
566.482030	0.202075
566.694957	0.202008
566.907866	0.202738
567.120756	0.203021
567.333628	0.203253
567.546482	0.203305
567.759318	0.203761
567.972135	0.204388
568.184935	0.204517
568.397716	0.204824
568.610478	0.205138
568.823223	0.205336
569.035949	0.205490
569.248657	0.205307
569.461347	0.205448
569.674019	0.205476
569.886672	0.204956
570.099308	0.205472
570.311925	0.205493
570.524523	0.205582
570.737104	0.205661
570.949666	0.205778
571.162210	0.206442
571.374736	0.206798
571.587244	0.206670
571.799733	0.207232
572.012205	0.207282
572.224658	0.207638
572.437092	0.207796
572.649509	0.208046
572.861907	0.208270
573.074287	0.207913
573.286649	0.208248
573.498993	0.208405
573.711318	0.208386
573.923625	0.208696
574.135914	0.208517
574.348185	0.208470
574.560438	0.208320
574.772672	0.208021
574.984888	0.208587
575.197086	0.208590
575.409266	0.208873
575.621427	0.209003
575.833570	0.209083
576.045695	0.209084
576.257802	0.209092
576.469890	0.209474
576.681961	0.210063
576.894013	0.210167
577.106046	0.210413
577.318062	0.210600
577.530059	0.210752
577.742039	0.210590
577.954000	0.210523
578.165942	0.210511
578.377867	0.210196
578.589773	0.209958
578.801661	0.210208
579.013531	0.209827
579.225382	0.209898
579.437216	0.210104
579.649031	0.210357
579.860828	0.210983
580.072606	0.211646
580.284367	0.211884
580.496109	0.212472
580.707833	0.212373
580.919539	0.213042
581.131227	0.213253
581.342896	0.213233
581.554547	0.213382
581.766180	0.213524
581.977795	0.213361
582.189391	0.213301
582.400969	0.212938
582.612529	0.212929
582.824071	0.212645
583.035595	0.212642
583.247100	0.212820
583.458587	0.213104
583.670056	0.213158
583.881506	0.213489
584.092939	0.213831
584.304353	0.214063
584.515749	0.214583
584.727127	0.214606
584.938486	0.215103
585.149828	0.215079
585.361151	0.215171
585.572456	0.215408
585.783742	0.215446
585.995011	0.215756
586.206261	0.215962
586.417493	0.216134
586.628706	0.216722
586.839902	0.216715
587.051079	0.216867
587.262238	0.217272
587.473379	0.217546
587.684502	0.217633
587.895606	0.217695
588.106692	0.217916
588.317760	0.217889
588.528810	0.217913
588.739841	0.218164
588.950855	0.218591
589.161850	0.218604
589.372827	0.218717
589.583785	0.218987
589.794726	0.218978
590.005648	0.219418
590.216552	0.219511
590.427437	0.219462
590.638305	0.219526
590.849154	0.219661
591.059985	0.220125
591.270798	0.219735
591.481592	0.219810
591.692369	0.220271
591.903127	0.220276
592.113867	0.220677
592.324588	0.221027
592.535292	0.221115
592.745977	0.221235
592.956644	0.220979
593.167293	0.221552
593.377923	0.221574
593.588536	0.221551
593.799130	0.221552
594.009706	0.221640
594.220263	0.222051
594.430803	0.222323
594.641324	0.222206
594.851827	0.222289
595.062312	0.222750
595.272778	0.223063
595.483227	0.223181
595.693657	0.223383
595.904069	0.223474
596.114462	0.223288
596.324838	0.223391
596.535195	0.223815
596.745534	0.224088
596.955855	0.223833
597.166157	0.224078
597.376441	0.224343
597.586707	0.224497
597.796955	0.224224
598.007185	0.224506
598.217396	0.224936
598.427589	0.224955
598.637764	0.225165
598.847921	0.225200
599.058060	0.225638
599.268180	0.225808
599.478282	0.225828
599.688366	0.226155
599.898431	0.226040
600.108479	0.226176
600.318508	0.226747
600.528519	0.226762
600.738511	0.227039
600.948486	0.227035
601.158442	0.227188
601.368380	0.227721
601.578300	0.228098
601.788202	0.228403
601.998085	0.228651
602.207950	0.228353
602.417797	0.228647
602.627626	0.228949
602.837436	0.228821
603.047228	0.228933
603.257002	0.228931
603.466758	0.228852
603.676496	0.229238
603.886215	0.228988
604.095916	0.229409
604.305599	0.229334
604.515264	0.229219
604.724910	0.229202
604.934538	0.229364
605.144148	0.229558
605.353740	0.229688
605.563314	0.229746
605.772869	0.229766
605.982406	0.229641
606.191925	0.229749
606.401425	0.230054
606.610908	0.230472
606.820372	0.230716
607.029818	0.230752
607.239246	0.230884
607.448655	0.230894
607.658047	0.231164
607.867420	0.231518
608.076775	0.231690
608.286111	0.231799
608.495430	0.231995
608.704730	0.232408
608.914012	0.232241
609.123275	0.232331
609.332521	0.232460
609.541748	0.232504
609.750957	0.232456
609.960148	0.232571
610.169321	0.232984
610.378475	0.232938
610.587611	0.232683
610.796729	0.232913
611.005829	0.233356
611.214910	0.233651
611.423974	0.234005
611.633019	0.234376
611.842045	0.234494
612.051054	0.234559
612.260044	0.234722
612.469017	0.234762
612.677970	0.234954
612.886906	0.234820
613.095824	0.234955
613.304723	0.234764
613.513604	0.234521
613.722467	0.234828
613.931311	0.234701
614.140138	0.234650
614.348946	0.234533
614.557736	0.234842
614.766507	0.234694
614.975261	0.234360
615.183996	0.234359
615.392713	0.234842
615.601412	0.234747
615.810092	0.234719
616.018754	0.234797
616.227399	0.235461
616.436024	0.235163
616.644632	0.235266
616.853222	0.235708
617.061793	0.235975
617.270346	0.235806
617.478880	0.235836
617.687397	0.235982
617.895895	0.236489
618.104375	0.235949
618.312837	0.236606
618.521281	0.237030
618.729706	0.236846
618.938113	0.236724
619.146502	0.237026
619.354873	0.237172
619.563226	0.237482
619.771560	0.237378
619.979876	0.237905
620.188174	0.237922
620.396453	0.238062
620.604715	0.238526
620.812958	0.238979
621.021183	0.238815
621.229390	0.238932
621.437578	0.238820
621.645748	0.238897
621.853900	0.238996
622.062034	0.238872
622.270150	0.239058
622.478247	0.239306
622.686326	0.239586
622.894387	0.239646
623.102430	0.239774
623.310454	0.240273
623.518461	0.240649
623.726449	0.240695
623.934418	0.240893
624.142370	0.241204
624.350303	0.241027
624.558218	0.240954
624.766115	0.241255
624.973994	0.241704
625.181855	0.241805
625.389697	0.241442
625.597521	0.241502
625.805327	0.241671
626.013114	0.241486
626.220883	0.241532
626.428634	0.241616
626.636367	0.242113
626.844082	0.242379
627.051778	0.242319
627.259457	0.242690
627.467117	0.242972
627.674758	0.243125
627.882382	0.243561
628.089987	0.243789
628.297574	0.244001
628.505143	0.244131
628.712694	0.244037
628.920226	0.244100
629.127740	0.243948
629.335236	0.244141
629.542714	0.244049
629.750174	0.244003
629.957615	0.244070
630.165038	0.244309
630.372443	0.244076
630.579829	0.244251
630.787198	0.244259
630.994548	0.244464
631.201880	0.244546
631.409194	0.244773
631.616489	0.244756
631.823766	0.245070
632.031025	0.245183
632.238266	0.245162
632.445489	0.245350
632.652693	0.245794
632.859879	0.246073
633.067047	0.246071
633.274197	0.246108
633.481329	0.246278
633.688442	0.246363
633.895537	0.246330
634.102614	0.246863
634.309672	0.246879
634.516713	0.246956
634.723735	0.247285
634.930739	0.247806
635.137724	0.247996
635.344692	0.248090
635.551641	0.248079
635.758572	0.248258
635.965485	0.248315
636.172379	0.248426
636.379256	0.248494
636.586114	0.248194
636.792954	0.248197
636.999775	0.248487
637.206579	0.248740
637.413364	0.248656
637.620131	0.248998
637.826880	0.249181
638.033610	0.249104
638.240323	0.249617
638.447017	0.250054
638.653692	0.250290
638.860350	0.250582
639.066990	0.250812
639.273611	0.251306
639.480214	0.251193
639.686798	0.251024
639.893365	0.251318
640.099913	0.250808
640.306443	0.251117
640.512955	0.250875
640.719449	0.250969
640.925924	0.250967
641.132381	0.251224
641.338820	0.251521
641.545241	0.251679
641.751644	0.251707
641.958028	0.252322
642.164394	0.252560
642.370742	0.253090
642.577071	0.253011
642.783383	0.253456
642.989676	0.253372
643.195951	0.253492
643.402207	0.254041
643.608446	0.254296
643.814666	0.254331
644.020868	0.254452
644.227052	0.254455
644.433218	0.254907
644.639365	0.254711
644.845494	0.254958
645.051605	0.255048
645.257698	0.254966
645.463772	0.255471
645.669828	0.255496
645.875866	0.255366
646.081886	0.255537
646.287888	0.255639
646.493871	0.255807
646.699836	0.256049
646.905783	0.256202
647.111712	0.256272
647.317622	0.256211
647.523514	0.256410
647.729388	0.256666
647.935244	0.256782
648.141082	0.256894
648.346901	0.256753
648.552702	0.257016
648.758485	0.257145
648.964250	0.257561
649.169996	0.257507
649.375724	0.257589
649.581434	0.257700
649.787126	0.257854
649.992800	0.258194
650.198455	0.258679
650.404092	0.258700
650.609711	0.259037
650.815311	0.258822
651.020894	0.259015
651.226458	0.259038
651.432004	0.259139
651.637532	0.259289
651.843041	0.259178
652.048532	0.259210
652.254006	0.259271
652.459460	0.259081
652.664897	0.259298
652.870315	0.259468
653.075716	0.259860
653.281097	0.260044
653.486461	0.260232
653.691807	0.260446
653.897134	0.260735
654.102443	0.261045
654.307734	0.261510
654.513006	0.261754
654.718261	0.262031
654.923497	0.262341
655.128715	0.262653
655.333915	0.263023
655.539096	0.263256
655.744259	0.263358
655.949404	0.263458
656.154531	0.263719
656.359640	0.263898
656.564730	0.264312
656.769802	0.264666
656.974856	0.264985
657.179892	0.265111
657.384909	0.265376
657.589908	0.265716
657.794889	0.266263
657.999852	0.266410
658.204797	0.266755
658.409723	0.266869
658.614631	0.266966
658.819521	0.267100
659.024393	0.267247
659.229246	0.267426
659.434081	0.267692
659.638898	0.267842
659.843697	0.267997
660.048478	0.268394
660.253240	0.268577
660.457984	0.268777
660.662710	0.268997
660.867417	0.269220
661.072107	0.269356
661.276778	0.269466
661.481431	0.269418
661.686066	0.269722
661.890682	0.269709
662.095281	0.269714
662.299861	0.269675
662.504422	0.269761
662.708966	0.269771
662.913491	0.269787
663.117999	0.269954
663.322488	0.270078
663.526958	0.269839
663.731411	0.269958
663.935845	0.270194
664.140261	0.270283
664.344659	0.270336
664.549038	0.270604
664.753400	0.270847
664.957743	0.271106
665.162068	0.271441
665.366375	0.271931
665.570663	0.272405
665.774933	0.272467
665.979185	0.272686
666.183419	0.273112
666.387635	0.273226
666.591832	0.273469
666.796011	0.273809
667.000172	0.273849
667.204315	0.274138
667.408439	0.274214
667.612545	0.274553
667.816634	0.275085
668.020703	0.275118
668.224755	0.275508
668.428788	0.275626
668.632803	0.275669
668.836800	0.275877
669.040779	0.276017
669.244739	0.276091
669.448681	0.276355
669.652605	0.276601
669.856511	0.276968
670.060399	0.276987
670.264268	0.277619
670.468119	0.277846
670.671952	0.278137
670.875767	0.278295
671.079563	0.278609
671.283341	0.278719
671.487101	0.278728
671.690843	0.278996
671.894567	0.279242
672.098272	0.279176
672.301959	0.279338
672.505628	0.279548
672.709278	0.279946
672.912911	0.280063
673.116525	0.280554
673.320121	0.280630
673.523699	0.280635
673.727258	0.280798
673.930799	0.280825
674.134322	0.280968
674.337827	0.281003
674.541314	0.281115
674.744782	0.281152
674.948232	0.280993
675.151664	0.281129
675.355078	0.281293
675.558474	0.281662
675.761851	0.281818
675.965210	0.281864
676.168551	0.282126
676.371873	0.282246
676.575178	0.282350
676.778464	0.282486
676.981732	0.282652
677.184981	0.282896
677.388213	0.282893
677.591426	0.283243
677.794621	0.283709
677.997798	0.283829
678.200956	0.283734
678.404097	0.284141
678.607219	0.284466
678.810323	0.284740
679.013408	0.284856
679.216476	0.285211
679.419525	0.285194
679.622556	0.285131
679.825569	0.285330
680.028563	0.285602
680.231540	0.285679
680.434498	0.285914
680.637438	0.286222
680.840359	0.286463
681.043263	0.286366
681.246148	0.286485
681.449015	0.286727
681.651864	0.287041
681.854694	0.287451
682.057506	0.287719
682.260301	0.288071
682.463076	0.288098
682.665834	0.288221
682.868573	0.288685
683.071295	0.289107
683.273998	0.289578
683.476682	0.289897
683.679349	0.290019
683.881997	0.290208
684.084627	0.290287
684.287239	0.290466
684.489833	0.290689
684.692408	0.290655
684.894965	0.290916
685.097504	0.291130
685.300025	0.291354
685.502527	0.291664
685.705012	0.291860
685.907478	0.291986
686.109925	0.292039
686.312355	0.292337
686.514766	0.292539
686.717159	0.292575
686.919534	0.292342
687.121891	0.292250
687.324230	0.292300
687.526550	0.292569
687.728852	0.292517
687.931136	0.292931
688.133401	0.293209
688.335649	0.293411
688.537878	0.293442
688.740089	0.293789
688.942281	0.294060
689.144456	0.294073
689.346612	0.294018
689.548750	0.294384
689.750870	0.294724
689.952971	0.294969
690.155055	0.295095
690.357120	0.295496
690.559167	0.295580
690.761195	0.295959
690.963206	0.296338
691.165198	0.296511
691.367172	0.296409
691.569128	0.296483
691.771065	0.296397
691.972984	0.296508
692.174885	0.296504
692.376768	0.296805
692.578633	0.296606
692.780479	0.296479
692.982308	0.296508
693.184118	0.296851
693.385909	0.296740
