sample name	sample
index	900
start time	 04-08-2021  03:30:46 PM
880	0.500758
Peak Time (s)	122.536
Peak Height 	0.5008
calc peak height	120,123
Baseline Time (s)	8.536
Baseline Value 	-0.00416
subtract baseline	10,4
Abs	0.347680
Peak Time (s)	120.037
Peak Height 	0.3477
calc peak height	120,123
Baseline Time (s)	10.037
Baseline Value 	0.004053
subtract baseline	10,3
PK_550	0.200573
Peak Time (s)	120.037
Peak Height 	0.2006
calc peak height	120,123
Baseline Time (s)	10.537
Baseline Value 	2.5187E-4
subtract baseline	10,2
PK_880	0.339012
Peak Time (s)	120.037
Peak Height 	0.339
calc peak height	120,123
Baseline Time (s)	10.537
Baseline Value 	0.002212
subtract baseline	10,1


Time (s)	A880-A510	A880-A775	A880-A975	A880	I510	I775	I975	I880	
0.039500	-0.000977	-0.001030	-0.003833	0.000951	6882.280313	42353.166648	3941.311044	22769.286435
0.537500	-0.001100	0.000410	-0.005476	0.003385	6859.084922	42263.035428	3931.671453	22658.376181
1.037500	-0.000245	0.000446	-0.004941	0.003317	6867.449427	42272.491081	3933.093121	22661.484201
1.540000	-0.003275	0.000398	-0.005252	0.006937	6807.631306	41941.917728	3923.871275	22497.676684
2.035000	-0.001236	0.000318	-0.002369	0.000813	6881.179493	42488.159121	3945.121845	22775.579814
2.535500	-0.000117	-0.000525	-0.002741	-0.000033	6899.088970	42488.291544	3946.250036	22814.248037
3.038500	0.001442	0.000470	0.000090	-0.002187	6933.154269	42775.928352	3958.216102	22913.132627
3.536000	-0.000737	0.000311	-0.001559	0.002755	6868.076964	42311.137562	3942.426014	22687.039052
4.036500	0.000892	0.000254	0.000827	0.000041	6907.636928	42552.502351	3954.622056	22810.862794
4.539500	-0.000352	0.000317	-0.000771	-0.000314	6899.513882	42590.758760	3951.637188	22827.154436
5.037000	0.000072	0.000600	0.000681	0.000070	6899.877479	42581.451259	3954.202746	22809.559944
5.537500	-0.000861	-0.000309	-0.000569	0.000381	6888.519019	42470.366653	3950.453329	22795.305128
6.035000	0.001511	0.000448	-0.003039	-0.000021	6913.875585	42575.882359	3945.512237	22813.721208
6.535500	0.000371	0.000574	-0.002617	-0.000288	6905.884015	42611.802106	3947.157184	22825.949225
7.035500	0.000295	0.000504	-0.002128	-0.000446	6906.625636	42619.776351	3948.700709	22833.164031
7.535500	0.000104	0.000329	-0.003462	-0.000458	6904.991847	42604.892370	3945.545442	22833.740916
8.035500	0.000236	0.000057	0.000337	-0.000493	6906.525386	42583.348355	3954.729350	22835.357963
8.536000	-0.000377	-0.000082	-0.001171	0.000000	6896.414144	42525.724503	3949.926122	22812.754116
9.039500	0.000810	0.001057	0.002581	0.000834	6899.634834	42553.486294	3956.935982	22774.608360
9.536500	-0.000134	-0.000040	0.000066	-0.000793	6905.875665	42601.763038	3954.797120	22849.072385
10.037000	-0.000613	0.000833	0.000000	-0.000235	6896.405646	42630.642421	3953.299281	22823.535703
10.537500	0.000000	0.000000	0.001747	0.000123	6898.732092	42521.949739	3956.641025	22807.120285
11.034500	0.000437	-0.000164	-0.006175	-0.000813	6911.293154	42592.327948	3939.936800	22850.007560
11.535000	0.001651	0.001064	-0.001397	0.000375	6911.529623	42596.006399	3948.487637	22795.594137
12.035000	-0.000547	0.000279	-0.003722	-0.000329	6897.859045	42588.538993	3944.616880	22827.812570
12.535500	-0.000383	0.000415	0.004559	0.000170	6894.808271	42555.531578	3963.327369	22804.982757
13.036000	0.001527	0.000766	0.000431	-0.000856	6921.692299	42681.188590	3955.829963	22851.984278
13.539500	-0.000078	0.000492	0.001644	-0.000153	6900.542566	42591.963767	3957.055601	22819.741786
14.039500	-0.001739	0.000090	-0.005457	0.001482	6870.538542	42406.585196	3936.204889	22745.041147
14.537000	-0.001817	0.000762	-0.003178	0.002178	6863.522147	42404.392876	3939.952946	22713.297842
15.033500	0.000622	0.000372	-0.000295	-0.000536	6910.448516	42615.957879	3953.311296	22837.286129
15.538000	0.000277	0.000363	-0.004037	-0.000447	6906.477065	42607.075460	3944.149629	22833.236283
16.038000	0.002791	0.000396	-0.001631	-0.000630	6931.233318	42626.708499	3950.332970	22841.600383
16.535000	-0.000757	0.000253	0.002053	0.000845	6885.248575	42479.272162	3955.637703	22774.109111
17.035000	-0.000094	0.000267	0.001361	-0.001287	6910.767349	42674.963985	3959.111683	22871.757657
17.535500	0.000534	0.000569	0.001228	0.000300	6901.988702	42557.668947	3954.963233	22799.013161
18.036000	0.001057	0.000409	-0.000210	0.000885	6901.429003	42489.783260	3950.106815	22772.259903
18.536500	-0.000480	0.000135	0.003279	0.000357	6892.214524	42512.954929	3959.773896	22796.428066
19.037000	-0.000467	0.000549	-0.001501	0.000745	6888.790766	42515.316549	3947.353955	22778.658505
19.537000	-0.000178	0.000167	-0.000998	0.000321	6895.301960	42519.145770	3949.570297	22798.065384
20.037500	-0.000227	0.000317	-0.003548	0.000929	6889.309011	42477.466546	3942.037344	22770.259874
20.537000	-0.001847	0.000200	-0.002196	0.000410	6879.292683	42514.035186	3946.495039	22794.007449
21.035000	-0.001614	0.000404	-0.004106	0.000786	6877.988151	42498.379703	3941.051392	22776.790920
21.535500	-0.001037	0.000531	-0.000152	0.000414	6886.625786	42543.803570	3951.377002	22793.820916
22.036000	-0.000240	-0.000132	-0.004157	0.000370	6894.284986	42487.429862	3941.920601	22795.828741
22.536000	-0.001064	0.000464	-0.002183	0.001054	6880.552499	42479.425056	3944.989988	22764.542328
23.039000	-0.001303	0.000097	-0.006409	0.000884	6879.921801	42461.515198	3935.368438	22772.329872
23.536500	-0.001598	-0.000862	-0.001824	-0.000213	6887.221306	42474.086523	3948.873294	22822.527100
24.037000	-0.000338	0.000449	-0.004684	0.000814	6889.344684	42499.933730	3939.613198	22775.508974
24.537000	-0.000067	0.000473	-0.001510	0.000829	6891.675132	42500.776625	3947.133068	22774.837665
25.037500	-0.001998	-0.000277	-0.003091	0.000201	6879.816709	42489.646113	3944.858733	22803.556964
25.535000	-0.000060	-0.000418	-0.004137	0.000205	6897.430328	42476.397221	3942.357865	22803.360386
26.035000	0.000007	0.000036	0.003116	0.000386	6896.394875	42501.294983	3959.310329	22795.083851
26.535500	-0.000778	0.001254	-0.003691	0.001330	6880.635061	42526.209883	3940.745675	22751.941885
27.036000	-0.002870	-0.000173	-0.003648	0.000295	6871.044584	42490.502028	3943.308599	22799.237325
27.539000	0.001579	0.000546	0.002953	-0.001948	6932.212692	42760.924216	3964.567053	22902.113945
28.036000	0.001288	0.000918	-0.002267	-0.000892	6919.832762	42698.428698	3949.437837	22853.652009
28.536500	0.003311	0.000847	0.003289	-0.000448	6934.343827	42651.271066	3961.744322	22833.255147
29.036500	0.000492	0.000921	0.003808	0.000214	6902.396174	42597.632845	3961.401200	22802.968072
29.537000	0.000647	-0.000116	-0.002547	-0.000631	6911.552795	42580.102128	3948.144428	22841.669541
30.035000	0.000547	0.000968	0.001102	-0.000259	6907.232718	42645.128840	3956.007128	22824.628832
30.535000	-0.000441	0.000658	-0.000387	0.000980	6886.900349	42503.888159	3949.457822	22767.954433
31.035500	-0.002010	0.000602	-0.000287	0.002301	6860.661002	42378.705082	3946.537265	22707.681426
31.535500	0.000803	0.000491	0.001844	-0.000051	6907.668796	42582.590659	3957.294373	22815.100222
32.035000	-0.000294	0.000484	0.004667	-0.000464	6901.407016	42619.628218	3965.128291	22834.000274
32.536000	-0.000359	0.000195	-0.004702	0.000279	6894.037351	42525.560934	3940.843793	22800.005854
33.036000	-0.000163	0.000121	0.000697	-0.000302	6901.124697	42571.741509	3955.135818	22826.583416
33.537000	0.003578	0.001154	0.004985	-0.001266	6944.365393	42754.256272	3967.853730	22870.802205
34.037500	0.000004	0.000358	0.000500	0.002035	6881.340861	42380.659509	3949.053900	22719.791769
34.537500	-0.001158	0.001435	0.000427	0.002396	6867.523540	42445.735825	3948.016634	22703.378215
35.035000	0.000459	0.001301	0.000672	0.002573	6880.588815	42417.485194	3948.179889	22695.306743
35.535500	-0.000174	0.001355	-0.007478	0.002269	6877.597429	42450.003732	3929.588415	22709.138442
36.035500	0.000184	0.000984	0.000058	0.002411	6879.560081	42403.343382	3947.098657	22702.666205
36.535500	-0.001759	0.000285	0.000093	0.001680	6868.559487	42406.283783	3948.929634	22736.004086
37.036000	-0.000825	0.000184	0.001910	0.001274	6880.723650	42433.986467	3954.263528	22754.526590
37.536500	-0.001195	0.000817	0.004004	0.002361	6867.500021	42392.802144	3956.686555	22704.961749
38.036500	0.001154	0.000944	0.002146	0.002281	6889.572210	42411.522890	3952.407900	22708.589953
38.537000	-0.000006	0.000850	-0.003156	0.002666	6875.510466	42368.025031	3938.845120	22691.054965
39.037000	0.000973	0.000955	-0.005957	0.002566	6885.324862	42386.620733	3932.467710	22695.617083
39.534500	-0.001732	0.000824	0.001319	0.002380	6862.460557	42391.648590	3950.187961	22704.087935
40.035000	-0.001750	0.000643	-0.003269	0.002414	6861.996118	42372.200763	3939.177208	22702.549494
40.535500	-0.000073	0.001306	-0.001127	0.002752	6874.134737	42401.648564	3943.460441	22687.177240
41.035500	0.000944	0.001745	0.002876	0.003246	6878.877750	42396.673790	3951.845079	22664.698047
41.539000	-0.000438	0.000588	0.000830	0.002328	6874.663111	42374.893147	3949.141743	22706.444122
42.036500	0.001862	0.000768	0.001266	0.002248	6896.332324	42398.529852	3950.378122	22710.100271
42.536500	-0.000196	0.001111	-0.001726	0.002449	6875.763832	42411.441425	3942.755847	22700.957866
43.036500	0.000888	0.000825	0.002911	0.002456	6885.552091	42384.811602	3953.825351	22700.613141
43.537500	-0.000318	0.001051	-0.003353	0.001899	6879.653611	42455.977976	3940.200136	22726.016714
44.036500	0.002170	0.001149	0.002623	-0.002571	6943.414181	42873.535437	3965.280444	22930.813661
44.535000	-0.000142	0.000368	-0.000679	0.003404	6867.590686	42257.545172	3942.976355	22657.540631
45.038000	-0.000008	0.001293	0.000827	0.002970	6872.733760	42380.712134	3947.600387	22677.239772
45.535500	0.001862	0.001141	-0.001094	0.000949	6908.204878	42550.588885	3947.838109	22769.342053
46.038500	0.000859	0.000445	0.005960	0.000251	6905.412658	42550.789314	3966.532969	22801.256639
46.536000	0.000918	0.000657	0.001500	0.001338	6896.018531	42471.149984	3953.121807	22751.572766
47.035500	0.001786	0.000876	-0.001783	0.000649	6910.259677	42553.854998	3946.910149	22783.052412
47.536500	0.001126	0.001085	0.001450	0.003014	6882.647072	42357.823950	3948.985614	22675.265039
48.036500	0.000592	0.001089	-0.003689	0.001482	6891.731310	42497.401711	3940.391123	22745.030859
48.537000	-0.000421	0.000342	0.000318	0.003174	6867.140328	42275.984740	3945.897963	22667.969978
49.038000	-0.000681	0.000982	-0.000368	0.003415	6862.611203	42312.149446	3943.688094	22657.021532
49.535000	0.004536	0.001883	0.008995	-0.000088	6942.336731	42713.148323	3974.775318	22816.794064
50.038000	0.002337	0.001444	0.001059	-0.000977	6930.257698	42754.344292	3957.634121	22857.541221
50.538500	-0.002603	0.000438	-0.002305	0.011111	6776.503685	41572.707050	3921.011276	22310.517756
51.035500	-0.066832	-0.018766	0.014156	0.329765	4523.909855	20701.948264	3414.098241	12235.042267
51.536000	-0.090712	-0.023010	-0.018990	0.183581	5041.789634	27556.610130	3563.995988	15958.634117
52.036500	-0.085504	-0.028128	-0.022716	-0.107371	7104.768055	50452.669823	4177.176990	28389.312547
52.536500	-0.077135	-0.102220	-0.008156	-0.301190	9578.944809	65524.999202	4957.530842	42709.899183
53.036500	-0.048325	-0.114004	0.008966	-0.313044	10231.402341	65535.000000	5098.803614	43810.590058
53.534500	-0.018003	-0.082657	0.019152	-0.280594	10195.725931	65376.430825	4989.421916	40867.436430
54.034500	-0.007326	-0.041172	0.021559	-0.221130	9423.882163	62845.508200	4733.400073	36012.918764
54.535000	-0.001068	-0.023812	0.021021	-0.186387	9011.719080	60496.343685	4591.118507	33469.437263
55.035500	0.014647	-0.015122	0.028077	-0.174909	9071.336998	60128.227747	4574.086704	32672.906299
55.535500	0.035582	-0.002954	0.040742	-0.156085	9101.252877	59258.810918	4550.651654	31411.266955
56.036000	0.050102	0.006946	0.049201	-0.134139	8996.658494	57719.146738	4500.485324	30007.854601
56.536000	0.071844	0.021097	0.066297	-0.088367	8670.198916	53874.522879	4398.851079	27299.295460
57.039500	0.069635	0.027698	0.076490	-0.020657	7816.876609	47192.775341	4214.156953	23781.316792
57.536500	0.090927	0.039476	0.095805	-0.011820	7959.002640	47493.314292	4246.007230	23361.333985
58.037000	0.110837	0.049695	0.109350	0.000535	8047.216391	47274.786068	4249.670389	22788.267219
58.537500	0.123435	0.060429	0.125675	0.080449	7312.718101	40750.784860	4067.188163	19450.728377
59.035000	0.130180	0.066975	0.141476	0.110086	7087.773029	38794.475164	4030.900332	18360.943140
59.535500	0.142124	0.073584	0.156285	0.130127	7010.999756	37703.433336	4017.475348	17665.038618
60.035500	0.147836	0.081322	0.177652	0.174269	6665.537835	34910.614981	3960.888040	16240.977659
60.536000	0.157551	0.088763	0.185284	0.208155	6463.408451	33023.707755	3899.235822	15241.889011
61.039000	0.165820	0.093421	0.194168	0.239016	6284.392093	31264.001626	3850.416401	14397.390517
61.536000	0.168073	0.097402	0.208495	0.267177	6090.243113	29731.780682	3820.930023	13677.435085
62.039000	0.174409	0.103129	0.206696	0.328264	5716.128293	26528.850904	3698.117041	12267.244662
62.537000	0.181828	0.107615	0.212300	0.345139	5656.161403	25866.289991	3677.923946	11911.409304
63.037500	0.185009	0.109443	0.215719	0.350655	5641.552361	25672.675624	3674.224500	11798.060567
63.534000	0.195588	0.113825	0.223706	0.352736	5695.095411	25793.270357	3684.688441	11755.671426
64.037500	0.198273	0.117121	0.225316	0.354888	5698.484534	25853.443311	3683.722990	11712.042064
64.538500	0.203600	0.120708	0.227503	0.358252	5711.020397	25865.241705	3681.627988	11644.285568
65.038500	0.208240	0.122905	0.223890	0.366323	5689.157009	25557.688281	3661.143172	11483.850783
65.535000	0.213788	0.126550	0.236403	0.363545	5742.527426	25894.200775	3688.064974	11538.737580
66.036000	0.220267	0.128948	0.243935	0.364558	5778.124388	25967.420491	3699.834045	11518.670191
66.536000	0.226529	0.133484	0.245234	0.365584	5812.656498	26154.065740	3700.330594	11498.417986
67.036500	0.223605	0.134970	0.245011	0.365246	5795.547191	26251.609965	3700.539155	11505.074320
67.537500	0.230630	0.136574	0.253094	0.365039	5843.634758	26348.895735	3715.777920	11509.170367
68.037000	0.236215	0.138582	0.251956	0.364931	5882.061292	26463.082590	3713.867605	11511.303626
68.535000	0.239101	0.141776	0.257980	0.367179	5886.396834	26514.303985	3720.889498	11467.003283
69.040500	0.238303	0.142717	0.255928	0.372850	5842.709337	26259.274962	3706.592894	11356.242381
69.535500	0.245592	0.146022	0.259324	0.368565	5921.329203	26669.874567	3720.810831	11439.795777
70.035500	0.252991	0.148973	0.269303	0.370778	5957.241242	26710.171701	3735.441175	11396.538269
70.536000	0.255094	0.150459	0.266309	0.372005	5963.350548	26724.348578	3727.456534	11372.654553
71.036500	0.257207	0.151226	0.268486	0.377025	5943.128212	26492.859141	3722.123777	11275.645009
71.537000	0.267036	0.154763	0.271687	0.374034	6033.344043	26849.113769	3733.784797	11333.306145
72.037000	0.269338	0.157590	0.274118	0.375376	6040.216067	26930.954482	3735.855907	11307.393156
72.537000	0.269535	0.156354	0.281029	0.375819	6038.445861	26838.420809	3748.246688	11298.840964
73.038000	0.272480	0.160179	0.279417	0.383056	6007.901853	26651.668204	3731.338256	11160.553311
73.534500	0.276315	0.161076	0.284243	0.376838	6079.939425	27042.848492	3752.496492	11279.241448
74.035500	0.280805	0.163308	0.285696	0.379269	6094.897982	27031.808911	3750.600155	11232.625650
74.536000	0.282732	0.164189	0.284310	0.378650	6113.491815	27115.057642	3749.116052	11244.462528
75.036000	0.282523	0.164682	0.277836	0.384310	6070.788782	26829.510851	3725.994603	11136.825136
75.536000	0.286989	0.167352	0.290954	0.380722	6129.541459	27175.791763	3757.999201	11204.899282
76.036500	0.289620	0.169514	0.293977	0.381616	6142.362953	27246.578392	3762.165983	11187.891306
76.537000	0.292281	0.171945	0.292725	0.383436	6148.581253	27280.742639	3756.159651	11153.357211
77.037000	0.291987	0.172294	0.297376	0.389198	6104.032617	26979.613956	3753.995312	11044.965037
77.534500	0.295766	0.173869	0.294267	0.384520	6166.415333	27327.831918	3757.052150	11132.854675
78.035000	0.296640	0.175186	0.297743	0.386375	6159.118940	27297.662970	3760.219295	11097.891780
78.535000	0.298614	0.175782	0.301017	0.387612	6164.596805	27261.760746	3764.215902	11074.652269
79.035500	0.299602	0.175420	0.300691	0.387979	6169.227069	27221.062828	3762.856152	11067.788412
79.535500	0.302756	0.177064	0.299581	0.390330	6175.218832	27181.582076	3756.084375	11023.850300
80.036000	0.303007	0.176411	0.301725	0.391572	6167.820509	27076.163087	3757.842624	11000.726994
80.536500	0.304453	0.178119	0.306448	0.395739	6147.614528	26940.056006	3758.930397	10923.668335
81.036500	0.304737	0.179828	0.308903	0.396764	6142.123816	26977.820315	3761.730062	10904.816895
81.536500	0.306605	0.179608	0.304688	0.397237	6152.454036	26939.519393	3752.583198	10896.136047
82.037000	0.310445	0.182007	0.306251	0.401186	6151.643737	26854.129669	3747.967876	10824.034556
82.537500	0.311468	0.183970	0.307588	0.405181	6129.689289	26742.727904	3742.855559	10751.766480
83.038000	0.313069	0.183665	0.314524	0.405746	6137.326107	26695.124736	3755.163628	10741.594207
83.535000	0.311939	0.183605	0.319179	0.407118	6118.912170	26617.013433	3761.576119	10716.946950
84.035000	0.314453	0.183693	0.310962	0.408358	6128.277739	26554.322669	3743.231594	10694.746004
84.535500	0.314141	0.185326	0.312229	0.411690	6101.561947	26462.240995	3739.278864	10635.402489
85.035500	0.317125	0.185363	0.317904	0.412398	6118.227022	26426.021246	3748.820853	10622.866599
85.536000	0.319100	0.187561	0.315015	0.415497	6109.986137	26377.405534	3737.331505	10568.156072
86.036500	0.318338	0.187434	0.321437	0.417140	6092.437441	26282.192259	3746.487457	10539.328907
86.536500	0.321063	0.187743	0.321864	0.419909	6092.115002	26150.490287	3741.986574	10490.952909
87.037000	0.316499	0.187468	0.307141	0.425042	6022.336729	25863.653931	3704.800906	10402.132305
87.540000	0.325572	0.189957	0.321767	0.422736	6104.377636	26117.818580	3736.404974	10441.905121
88.034500	0.321950	0.188422	0.316281	0.423287	6074.044157	26006.923344	3724.994896	10432.388724
88.535000	0.320934	0.188917	0.321851	0.424358	6058.972948	25976.362712	3733.481336	10413.901079
89.036000	0.320702	0.189679	0.321453	0.431999	6002.795687	25614.783210	3718.376236	10283.381655
89.536000	0.326364	0.191801	0.327596	0.429221	6063.065994	25871.770725	3735.157768	10330.576867
90.036500	0.324944	0.189996	0.323786	0.429313	6052.181065	25771.963062	3727.774042	10329.003170
90.536000	0.325544	0.190219	0.323897	0.430244	6049.797700	25734.782351	3726.232101	10313.154229
91.036500	0.322930	0.191547	0.323558	0.437059	5982.837785	25448.975732	3712.895234	10198.211067
91.537000	0.328723	0.193213	0.330348	0.435095	6037.818374	25637.653980	3729.244838	10231.151700
92.040000	0.325456	0.192039	0.328660	0.434644	6017.747080	25599.984209	3726.915058	10238.744530
92.534500	0.328441	0.192921	0.327935	0.437249	6020.448684	25510.381032	3720.673035	10195.031062
93.035000	0.323481	0.191798	0.323666	0.442511	5948.596986	25181.402686	3703.075037	10107.546792
93.535500	0.331794	0.194869	0.331484	0.441374	6014.960047	25397.689591	3719.599171	10126.360357
94.035500	0.328855	0.193356	0.332683	0.441989	5989.833923	25288.024137	3720.688733	10116.169793
94.536000	0.329369	0.194061	0.330735	0.444452	5976.139283	25197.825478	3712.494256	10075.529992
95.036500	0.328065	0.194054	0.328213	0.449976	5928.651437	24916.577230	3697.762712	9985.228732
95.536000	0.332476	0.194699	0.333096	0.446414	5984.178928	25130.195976	3713.233261	10043.326756
96.037000	0.331379	0.193939	0.336128	0.448538	5961.622784	24983.534181	3714.915700	10008.633836
96.540000	0.333815	0.195279	0.333299	0.450297	5966.347714	24962.313459	3706.454650	9980.011696
97.034500	0.332982	0.197375	0.331779	0.458407	5904.494755	24659.833027	3688.985566	9849.586787
97.535000	0.333940	0.195869	0.333152	0.454109	5940.691634	24799.746349	3699.225693	9918.405968
