sample name	sample
index	1503
start time	 05-18-2021  02:35:09 PM
880	0.329084
Peak Time (s)	90.035
Peak Height 	0.3291
calc peak height	90,93
Baseline Time (s)	11.536
Baseline Value 	-0.004996
subtract baseline	10,4
Abs	0.240628
Peak Time (s)	91.535
Peak Height 	0.2406
calc peak height	90,93
Baseline Time (s)	11.536
Baseline Value 	0.002691
subtract baseline	10,3
PK_550	0.147191
Peak Time (s)	90.035
Peak Height 	0.1472
calc peak height	90,93
Baseline Time (s)	8.537
Baseline Value 	3.6265E-4
subtract baseline	10,2
PK_880	0.239400
Peak Time (s)	91.035
Peak Height 	0.2394
calc peak height	90,93
Baseline Time (s)	8.537
Baseline Value 	0.001125
subtract baseline	10,1


Time (s)	A880-A510	A880-A775	A880-A975	A880	I510	I775	I975	I880	
0.035000	-0.000896	-0.000228	-0.008948	0.002279	6589.559346	44135.893492	3970.536496	22859.873555
0.535500	-0.000971	-0.000221	-0.004454	0.004073	6574.044450	43967.059901	3976.906383	22777.911873
1.035500	-0.000917	-0.000376	-0.003980	0.005280	6564.499181	43838.775416	3975.173679	22722.934563
1.536500	0.001630	0.000501	-0.002040	0.002286	6610.581951	44204.272176	3986.889698	22859.544174
2.036500	-0.000994	-0.000142	-0.001860	0.001241	6597.392167	44242.504396	3989.820462	22907.471094
2.536500	-0.000587	-0.000580	-0.001886	0.000842	6604.118633	44238.809668	3990.714253	22925.807284
3.037000	-0.001920	-0.000116	0.000503	-0.000682	6605.719072	44428.044725	4000.137897	22995.961684
3.540000	0.001104	0.000541	0.000379	0.001494	6612.813138	44283.380917	3994.589658	22895.872938
4.038000	0.000749	0.000506	-0.004617	0.003957	6589.286809	44046.569060	3976.794287	22783.178180
4.535000	-0.002540	-0.001033	-0.005310	-0.000215	6596.642887	44296.193887	3985.055640	22974.412495
5.035500	-0.000533	-0.000410	-0.002410	0.000217	6609.799568	44314.342700	3990.956175	22954.547488
5.535500	0.001991	0.000496	0.001988	0.000984	6624.531587	44327.606552	3999.699875	22919.276086
6.036000	0.002214	-0.000007	0.002193	0.000796	6627.991216	44297.605238	4000.651659	22927.924566
6.536000	-0.001023	0.000311	-0.001892	0.000300	6605.008035	44375.069643	3991.998865	22950.703788
7.036500	0.001655	0.000772	0.004672	0.000696	6624.128365	44381.254551	4006.909742	22932.502960
7.537000	0.000015	-0.000264	0.000168	0.000106	6615.313008	44338.758945	3997.425230	22959.635984
8.037500	0.002654	0.000650	-0.003657	0.000876	6631.017583	44352.509313	3986.395181	22924.224469
8.536500	0.000000	0.000000	0.000542	0.000321	6613.394527	44343.499123	3997.809614	22949.769087
9.035000	0.000875	0.000255	-0.003967	0.000237	6621.435752	44375.748017	3987.182865	22953.610839
9.535500	-0.001169	-0.000833	-0.000499	-0.000707	6612.212084	44362.038117	3997.776564	22997.108749
10.035500	-0.000219	0.000316	-0.000335	0.000452	6610.466779	44361.135803	3995.378858	22943.740001
10.536000	0.001349	-0.000142	0.002313	-0.000165	6628.797562	44376.254088	4003.271147	22972.129736
11.036000	0.000139	-0.000259	0.004165	-0.000340	6620.099056	44381.734474	4008.199398	22980.187583
11.536000	-0.001123	0.000435	0.000000	0.000000	6606.675521	44415.449084	3997.275350	22964.528452
12.037000	-0.001486	0.000229	-0.006964	0.004153	6569.111856	44002.023885	3970.798403	22774.265682
12.537000	0.001268	0.000395	0.001835	-0.000293	6629.190508	44439.590139	4002.422078	22978.015402
13.040000	0.000725	-0.000338	0.000729	-0.000429	6625.775247	44382.761648	4000.072984	22984.296958
13.535000	-0.001937	0.000644	-0.000269	0.000330	6597.123632	44403.873769	3995.829720	22949.322033
14.035000	-0.002051	-0.000125	0.000438	0.003173	6572.545298	44061.032189	3990.696144	22818.964053
14.535000	-0.002739	-0.000646	-0.006743	0.002032	6576.298859	44119.682793	3976.318240	22871.192174
15.038500	0.000653	-0.000700	-0.000248	-0.000267	6623.805480	44332.784977	3997.319899	22976.815515
15.536000	-0.001353	-0.000515	-0.003243	-0.000609	6609.850706	44382.996940	3990.940545	22992.603814
16.036500	-0.002835	-0.000522	-0.006744	0.004558	6554.624655	43892.969329	3970.361363	22755.784263
16.536500	-0.000147	0.000485	-0.002541	0.000394	6611.551888	44382.734860	3990.220097	22946.413806
17.037000	0.002547	0.000304	-0.005405	-0.002935	6662.335180	44683.756608	3991.333260	23100.116973
17.537500	0.000248	0.000411	-0.001000	0.001671	6604.175354	44254.261720	3990.853392	22887.769907
18.034500	-0.000100	-0.000094	-0.000328	0.002035	6598.228306	44171.734558	3991.589762	22871.050435
18.534500	-0.000582	0.000128	0.001885	0.001452	6599.066669	44248.068682	3998.320295	22897.771806
19.035000	-0.001267	-0.000089	-0.006375	0.001332	6594.356808	44238.877326	3978.846306	22903.295906
19.535500	-0.000649	0.000339	-0.003102	0.001650	6596.859840	44249.398623	3985.874808	22888.727375
20.036000	-0.001062	-0.000336	-0.004153	0.001286	6596.447082	44219.816953	3984.235421	22905.412378
20.536000	-0.001808	0.000192	-0.003478	0.001464	6588.755026	44253.121111	3985.422207	22897.260405
21.036500	-0.001417	0.000178	-0.001632	0.001304	6593.340278	44266.930420	3990.217395	22904.596320
21.537000	0.000957	0.000542	-0.005869	0.001447	6611.977986	44287.928722	3979.774421	22898.042621
22.037000	0.001216	0.000827	0.003605	0.002572	6604.733176	44208.173376	3999.769677	22846.465264
22.540000	0.000777	0.000138	0.001241	0.001479	6610.199678	44246.537726	3996.702235	22896.560157
23.035000	-0.001482	0.000249	-0.001601	0.001011	6595.235488	44301.451707	3990.990965	22918.016823
23.535000	0.000873	0.000089	-0.000472	0.001076	6614.377458	44280.162595	3993.548173	22915.052796
24.036000	-0.001841	0.000294	-0.004342	0.001530	6587.924618	44256.389933	3983.202938	22894.193238
24.535500	-0.001511	0.000602	-0.003384	0.001537	6590.614315	44285.049166	3985.470595	22893.879462
25.035500	-0.002461	0.000431	-0.001424	0.001179	6585.694222	44302.903707	3991.014255	22910.340247
25.535500	-0.001447	-0.000037	-0.001407	0.000564	6599.259065	44316.791954	3992.530426	22938.563635
26.036500	0.000396	-0.000181	-0.004626	0.000701	6613.525558	44290.126095	3984.502664	22932.268721
26.537000	-0.000675	0.000063	-0.003082	0.001060	6601.566143	44279.163821	3987.331558	22915.800482
27.040000	0.002110	-0.000002	0.005000	-0.001584	6647.185708	44525.040069	4013.279491	23037.585030
27.537000	0.000282	0.000278	-0.003659	-0.000649	6623.890809	44462.386183	3990.038131	22994.415690
28.034500	-0.000892	0.000600	0.002551	0.000158	6607.294460	44416.140458	4003.065064	22957.262054
28.535000	0.001073	0.000829	-0.003298	0.000335	6622.272089	44421.097708	3988.546902	22949.113365
29.035000	0.000922	-0.000476	-0.000193	-0.000259	6625.992496	44353.301909	3997.434629	22976.435627
29.538500	-0.000876	0.000288	0.002121	0.000024	6608.544692	44399.163017	4002.347095	22963.421545
30.036000	-0.000438	0.000085	0.001772	0.000132	6611.306674	44369.563677	4001.239492	22958.456679
30.536500	0.000572	-0.000135	-0.001112	0.003542	6591.268434	44025.308018	3986.108623	22802.138663
31.036500	0.001099	0.000475	-0.005855	0.001676	6611.246198	44259.795316	3979.264789	22887.525082
31.537000	0.000169	-0.000312	0.003325	-0.000590	6622.446896	44400.486129	4006.762496	22991.691170
32.040000	-0.001709	-0.000459	-0.006747	0.004827	6561.696240	43873.573102	3969.723714	22743.548188
32.534500	-0.001082	-0.000661	0.000224	0.003019	6581.859434	44025.007650	3990.553838	22826.024005
33.035500	0.000160	0.000118	-0.000207	-0.000299	6619.927115	44413.775524	3997.497442	22978.278604
33.535000	0.002646	-0.001095	0.007503	-0.002800	6662.021979	44536.744804	4022.428076	23093.832676
34.036000	-0.001349	-0.000879	-0.000642	0.001527	6592.047654	44145.484718	3992.054689	22894.349078
34.536000	-0.001519	0.000121	-0.001011	0.002764	6580.347338	44122.980894	3988.207825	22837.670622
35.036000	-0.002090	0.000493	-0.001226	0.001320	6587.609837	44295.421049	3991.152946	22903.870623
35.536500	-0.000279	-0.000282	0.000534	0.001119	6604.385488	44240.861727	3995.865715	22913.095752
36.036500	0.000998	0.000344	0.000000	0.002071	6607.097518	44209.864697	3992.292412	22869.426079
36.540500	-0.000778	0.000287	0.003270	0.003411	6581.127744	44077.520057	3996.934621	22808.095138
37.037000	-0.000051	0.000348	-0.002522	0.001221	6605.433293	44290.983492	3988.283858	22908.385876
37.537500	-0.001839	0.000086	-0.002487	0.001440	6588.695785	44245.229795	3987.843582	22898.326947
38.035000	-0.000353	0.000440	0.001502	0.001487	6600.682819	44274.345495	3997.310587	22896.172332
38.535500	-0.000258	0.000646	0.002732	0.001510	6601.292272	44291.851675	4000.227236	22895.142849
39.036000	0.000734	0.000040	-0.003685	0.001600	6608.830816	44225.725388	3984.602814	22891.007484
39.539000	-0.000855	0.000001	-0.000833	0.001104	6599.691834	44269.080259	3992.612398	22913.750067
40.036500	-0.001379	-0.000114	-0.002621	0.001563	6591.497936	44214.606302	3987.231253	22892.709477
40.536500	-0.000593	-0.000171	0.000169	0.001501	6598.567100	44215.079212	3994.066514	22895.550683
41.036500	0.000214	0.000555	-0.000112	0.001632	6604.218685	44271.613889	3993.077170	22889.558320
41.537000	0.000831	-0.000050	-0.003140	0.001142	6613.473234	44260.589103	3986.994513	22912.003250
42.037000	-0.001339	-0.000054	0.000494	0.001975	6588.403781	44181.199714	3993.708812	22873.805099
42.535000	-0.000150	0.000323	-0.001364	0.001497	6602.293287	44262.320323	3990.393956	22895.708363
43.035000	-0.002121	-0.000456	-0.005832	0.001061	6589.497536	44229.754360	3980.776537	22915.726335
43.536000	0.000347	0.000245	-0.001477	0.001429	6607.026568	44261.480595	3990.290278	22898.871976
44.036000	-0.001950	-0.000058	0.002308	0.003367	6571.770376	44049.004819	3994.723994	22810.106149
44.536000	-0.001974	0.000198	-0.001228	0.006195	6548.232387	43806.677840	3979.518366	22681.340095
45.036500	0.002708	0.000449	0.003705	0.000178	6637.359454	44399.907456	4005.818596	22956.341857
45.537000	-0.000781	-0.000304	0.000091	-0.000309	6612.126706	44374.518089	3998.242007	22978.762997
46.039500	-0.001848	0.000563	-0.003319	0.005647	6553.785255	43892.619357	3975.868272	22706.258557
46.537000	-0.002111	-0.000385	-0.001298	-0.000603	6603.457894	44394.818278	3995.598763	22992.298737
47.035000	-0.000257	0.000664	0.003973	0.000336	6611.110275	44405.255346	4006.085994	22949.044536
47.534500	-0.001788	0.000044	0.000214	0.001808	6586.060734	44206.329271	3993.436077	22881.460016
48.035500	-0.001384	0.000061	-0.003765	0.002758	6581.522666	44117.893931	3981.655438	22837.963274
48.536000	-0.001924	-0.000366	-0.008584	0.005821	6551.726751	43788.897329	3963.093933	22698.335981
49.036000	-0.000820	-0.000250	-0.001823	0.000256	6607.077014	44325.873465	3992.271669	22952.766323
49.536000	0.000173	0.000236	0.000796	-0.001605	6631.015903	44549.770343	4003.083328	23038.537022
50.036500	-0.002505	0.000404	-0.002152	0.004493	6557.877115	43986.355163	3981.366246	22758.729341
50.537000	-0.000812	0.000412	0.001992	0.009137	6533.621518	43551.245689	3980.180200	22548.278676
51.037000	-0.004573	-0.008088	0.003910	0.044652	6225.911163	39643.358838	3903.456329	21011.015019
51.537500	-0.005925	-0.014916	-0.006321	0.132864	5620.099409	32442.239308	3709.987381	17694.971552
52.043000	-0.029252	-0.038113	-0.036986	-0.164149	7942.387566	58303.112817	4353.689051	32147.902937
52.535500	-0.034199	-0.085869	-0.032282	-0.259000	9084.862018	64636.890191	4715.443392	39269.648716
53.035500	-0.017467	-0.052673	-0.017257	-0.206826	8606.052071	62001.706764	4570.673661	35160.656495
53.536000	-0.019704	-0.042742	-0.017063	-0.197369	8456.443773	62066.018554	4536.463463	34467.272003
54.036000	-0.010223	-0.023607	-0.010671	-0.128081	7751.268311	55624.694637	4322.506840	29822.650044
54.536000	-0.013250	-0.021371	-0.005388	-0.115173	7579.180896	54347.343506	4298.610926	29036.276642
55.036000	-0.003282	-0.024132	-0.002282	-0.143073	7998.675848	57407.084365	4398.448760	30765.773501
55.537000	0.008907	-0.020118	0.011041	-0.134958	8046.016655	56895.744571	4415.927070	30251.207543
56.037500	0.025911	-0.006743	0.029911	-0.080333	7625.227103	52012.823780	4300.039807	27026.974989
56.535000	0.035168	0.006240	0.035339	-0.011184	7026.185542	46067.491299	4115.742149	23486.072601
57.035000	0.059502	0.017736	0.063207	0.035803	6820.290690	42688.357386	4065.517515	21382.378752
57.535000	0.084253	0.032167	0.081542	0.077653	6671.835387	40260.458840	4006.700130	19690.987552
58.035500	0.109752	0.048387	0.108375	0.115791	6565.798970	38426.959157	3979.537525	18285.330491
58.536000	0.127778	0.060769	0.127409	0.166472	6305.701761	35436.961035	3907.149922	16598.504210
59.036500	0.147039	0.074426	0.149747	0.198300	6210.706552	34108.012755	3886.451793	15635.504465
59.536500	0.156771	0.083484	0.160259	0.235596	6011.724782	32150.075441	3830.418597	14593.308411
60.039000	0.171777	0.092525	0.171376	0.255695	5976.317302	31417.326275	3812.386846	14067.676303
60.537500	0.180945	0.101341	0.187062	0.278290	5884.951143	30530.101578	3798.769601	13505.110417
61.034500	0.190435	0.105752	0.193449	0.284290	5908.431423	30429.615907	3799.528436	13360.595261
61.534500	0.195044	0.110591	0.195860	0.277644	5985.442450	31164.487099	3817.437263	13520.791629
62.035000	0.203380	0.120066	0.205183	0.309169	5828.915585	29770.447690	3774.185016	12782.124152
62.538000	0.201802	0.124172	0.209002	0.309123	5818.868376	30027.598847	3781.556348	12783.166085
63.036000	0.204611	0.126221	0.198978	0.304844	5865.669198	30424.233484	3770.623280	12880.329130
63.546500	0.207700	0.127367	0.205159	0.300414	5916.147837	30778.514477	3790.932292	12981.920947
64.037000	0.206672	0.128875	0.198803	0.304015	5884.965422	30644.974516	3771.860417	12899.250447
64.537000	0.209321	0.132363	0.203074	0.303870	5903.745179	30877.161133	3780.264300	12902.570686
65.037000	0.212131	0.131944	0.211733	0.297098	5969.083262	31287.862362	3810.311761	13058.650821
65.537500	0.213627	0.132642	0.213102	0.296038	5986.756913	31402.618259	3815.138880	13083.299490
66.037500	0.212744	0.135751	0.207762	0.304396	5923.347093	31061.399242	3788.263367	12890.542194
66.535000	0.218681	0.137152	0.213807	0.300915	5987.980809	31378.592342	3806.862500	12970.369021
67.035500	0.219678	0.138972	0.213227	0.303349	5978.032566	31338.529639	3800.936798	12914.503249
67.535500	0.220963	0.139415	0.212940	0.308058	5954.446255	31061.572370	3791.196833	12807.266473
68.036000	0.218086	0.138291	0.215612	0.315488	5884.568969	30514.399549	3782.025475	12640.404147
68.536000	0.218154	0.139308	0.220241	0.316594	5877.619966	30508.723056	3788.807837	12615.814226
69.036500	0.220310	0.139352	0.215419	0.311600	5925.803435	30829.662245	3789.138497	12727.360054
69.539500	0.225716	0.140897	0.218187	0.313827	5947.484802	30786.000377	3790.185249	12677.456202
70.037000	0.222889	0.142416	0.218836	0.319126	5892.384941	30545.252987	3781.234554	12559.753503
70.537500	0.226476	0.144594	0.225512	0.321353	5901.535732	30542.139348	3789.797113	12510.699429
71.037000	0.225531	0.144651	0.221929	0.323750	5879.099058	30394.163358	3778.306113	12458.189029
71.534500	0.228609	0.145332	0.224877	0.327059	5877.550844	30228.936054	3777.617665	12386.176218
72.038000	0.226057	0.143636	0.221653	0.328423	5851.503943	30037.794947	3768.917396	12356.661406
72.536000	0.225885	0.144335	0.220201	0.329593	5842.626381	30008.484934	3763.983740	12331.401740
73.036000	0.227053	0.144780	0.222355	0.330453	5844.658699	29982.714742	3766.414651	12312.888709
73.536000	0.230568	0.147406	0.225789	0.333039	5850.807284	29985.155537	3768.010918	12257.424722
74.036500	0.228765	0.147166	0.224067	0.332397	5843.133756	30010.177372	3765.978730	12271.176683
74.536500	0.231489	0.146444	0.226976	0.332713	5859.076875	29945.689213	3770.866407	12264.396902
75.040000	0.228182	0.146781	0.221740	0.331923	5842.405377	30015.687073	3762.502047	12281.320535
75.534500	0.229381	0.147227	0.220929	0.333106	5842.512840	29969.936287	3758.778778	12256.000044
76.036000	0.232448	0.148178	0.226542	0.334545	5853.283487	29939.584360	3766.593468	12225.274759
76.535500	0.232971	0.148849	0.228519	0.337298	5838.542229	29810.787835	3765.134016	12166.802231
77.035500	0.236666	0.150089	0.232804	0.337283	5863.111866	29888.399733	3773.250136	12167.122738
77.536000	0.235846	0.149044	0.229976	0.335946	5866.552325	29906.515806	3770.427267	12195.484771
78.035500	0.235953	0.148590	0.225984	0.338300	5851.628403	29733.116995	3758.520020	12145.613134
78.535500	0.232917	0.149388	0.230597	0.340712	5815.769577	29633.971776	3762.629618	12094.801358
79.039500	0.234927	0.149455	0.230475	0.335845	5861.105043	29938.192986	3771.560863	12197.615892
79.537000	0.240559	0.151581	0.231280	0.337499	5887.669300	29967.521511	3769.957228	12162.557824
80.034000	0.241029	0.152228	0.231873	0.338125	5886.618925	29968.796447	3769.894793	12149.309320
80.535000	0.237375	0.151823	0.227563	0.339254	5854.731254	29873.729309	3759.684205	12125.478847
81.035000	0.236623	0.151222	0.236403	0.336430	5868.500994	30011.618935	3781.738246	12185.209078
81.535000	0.237918	0.151702	0.239497	0.336632	5875.792002	30028.894437	3787.298431	12180.924993
82.036000	0.240374	0.151039	0.232630	0.335896	5897.187344	30033.455060	3775.553252	12196.534884
82.536000	0.236497	0.150234	0.233264	0.338632	5853.032591	29813.975120	3771.566199	12138.606844
83.036500	0.238209	0.150093	0.235242	0.333926	5895.884739	30097.259351	3784.315819	12238.491284
83.537000	0.239564	0.150854	0.232984	0.333625	5907.039933	30163.577772	3780.562115	12244.905497
84.037000	0.238242	0.150657	0.235445	0.332786	5903.785003	30203.769253	3786.901430	12262.853314
84.537000	0.235357	0.149536	0.234821	0.333902	5876.924443	30064.013879	3783.553816	12239.005212
85.037500	0.238695	0.149151	0.238006	0.330391	5923.048963	30259.473395	3796.511034	12314.230335
85.535000	0.239777	0.149311	0.240516	0.330144	5932.083496	30285.024793	3801.903299	12319.532586
86.035000	0.233210	0.147069	0.235926	0.332546	5871.640951	29994.874424	3788.291528	12267.986123
86.536000	0.238633	0.148471	0.234108	0.331704	5913.730726	30134.684657	3786.408479	12286.024721
87.035500	0.237048	0.148350	0.231440	0.327662	5930.405288	30380.743242	3789.060140	12373.127751
87.536500	0.235553	0.147625	0.229884	0.326247	5929.860214	30424.238867	3788.787405	12403.801780
88.036000	0.234842	0.146475	0.235270	0.331161	5891.835569	30044.091953	3789.701611	12297.681717
88.539500	0.238955	0.147416	0.236190	0.326318	5952.608854	30406.593214	3800.922062	12402.253288
89.036500	0.237728	0.147564	0.230420	0.325538	5949.544838	30465.238966	3791.196833	12419.219035
89.534500	0.236325	0.146239	0.235347	0.324576	5946.526673	30442.290925	3802.687610	12440.170282
90.035000	0.238228	0.147191	0.238567	0.329084	5928.757270	30218.564739	3800.160973	12342.391338
90.538000	0.237924	0.146891	0.236215	0.324402	5958.681993	30494.506718	3804.737753	12443.969736
91.035500	0.239400	0.146283	0.238435	0.323635	5974.133547	30504.588138	3810.638581	12460.713426
91.535500	0.236369	0.146222	0.240628	0.323724	5952.664636	30495.076711	3814.820546	12458.771391
92.036000	0.234164	0.144659	0.234205	0.326196	5920.771678	30240.838325	3797.279112	12404.914162
92.536000	0.238779	0.145898	0.240185	0.323154	5973.166327	30510.628629	3815.074794	12471.226757
93.039500	0.238138	0.146062	0.237167	0.323527	5966.175970	30497.417548	3808.340887	12463.066421
93.558500	0.236422	0.144284	0.229023	0.321675	5967.109988	30502.070328	3795.990146	12503.629128
94.040000	0.238623	0.144599	0.236375	0.321653	5982.466036	30523.431767	3810.484949	12504.120495
94.537000	0.237703	0.145051	0.240084	0.323597	5962.697813	30429.099876	3813.990326	12461.542751
95.035000	0.238003	0.144474	0.238059	0.321998	5975.792930	30493.720531	3813.144183	12496.551968
95.535500	0.238699	0.144719	0.236773	0.321888	5981.369810	30516.190992	3810.808911	12498.969157
96.035500	0.237732	0.143998	0.238188	0.321355	5978.362021	30504.249299	3814.679824	12510.662249
