sample name	sample
index	1171
start time	 04-26-2021  10:59:01 AM


Wavelength (nm)	Absorbance
494.344910	-0.250009
494.563924	-0.250009
494.782919	-0.250009
495.001897	NaN
495.220856	-0.106098
495.439797	-0.084292
495.658719	-0.077760
495.877624	-0.084597
496.096510	-0.172165
496.315378	-0.158950
496.534227	-0.175211
496.753059	-0.180146
496.971872	-0.114722
497.190667	0.099433
497.409444	0.117267
497.628203	0.121510
497.846943	0.123595
498.065665	0.122699
498.284369	0.122789
498.503055	0.124393
498.721723	0.125302
498.940372	0.125237
499.159003	0.125525
499.377616	0.125950
499.596210	0.125370
499.814787	0.125707
500.033345	0.126572
500.251885	0.126255
500.470406	0.125854
500.688910	0.125715
500.907395	0.125317
501.125862	0.124720
501.344311	0.123416
501.562742	0.125390
501.781154	0.124564
501.999548	0.124370
502.217924	0.123822
502.436282	0.125455
502.654621	0.125055
502.872942	0.124425
503.091245	0.124232
503.309530	0.124188
503.527797	0.123376
503.746045	0.124194
503.964275	0.123465
504.182487	0.124016
504.400681	0.123710
504.618856	0.124548
504.837013	0.125715
505.055152	0.125486
505.273273	0.125180
505.491376	0.126307
505.709460	0.125988
505.927526	0.126868
506.145574	0.126441
506.363604	0.125201
506.581615	0.124509
506.799608	0.124335
507.017583	0.125232
507.235540	0.125402
507.453478	0.124940
507.671399	0.125316
507.889301	0.125159
508.107185	0.126301
508.325050	0.127466
508.542898	0.127906
508.760727	0.128077
508.978538	0.128156
509.196330	0.128285
509.414105	0.127959
509.631861	0.127236
509.849599	0.127557
510.067319	0.127396
510.285021	0.128059
510.502704	0.128133
510.720369	0.127968
510.938016	0.128112
511.155645	0.129246
511.373255	0.129271
511.590848	0.129884
511.808422	0.131417
512.025977	0.131650
512.243515	0.130945
512.461034	0.131178
512.678536	0.131230
512.896018	0.132043
513.113483	0.132178
513.330930	0.132780
513.548358	0.133089
513.765768	0.133242
513.983160	0.132993
514.200533	0.133530
514.417889	0.133641
514.635226	0.133837
514.852545	0.133895
515.069845	0.134633
515.287128	0.134603
515.504392	0.134838
515.721638	0.133610
515.938866	0.134251
516.156075	0.134490
516.373267	0.134488
516.590440	0.135543
516.807594	0.135272
517.024731	0.135280
517.241850	0.135197
517.458950	0.136437
517.676032	0.137680
517.893095	0.137689
518.110141	0.137127
518.327168	0.136935
518.544177	0.136763
518.761168	0.136472
518.978141	0.137062
519.195095	0.137335
519.412031	0.136473
519.628949	0.135613
519.845849	0.136181
520.062731	0.137156
520.279594	0.138647
520.496439	0.139337
520.713266	0.139653
520.930074	0.139820
521.146865	0.139616
521.363637	0.140234
521.580391	0.140380
521.797127	0.140315
522.013844	0.140940
522.230543	0.140428
522.447224	0.139832
522.663887	0.140716
522.880532	0.139421
523.097158	0.140851
523.313766	0.141282
523.530356	0.142505
523.746928	0.143553
523.963481	0.143001
524.180017	0.143011
524.396534	0.143398
524.613032	0.142690
524.829513	0.143947
525.045975	0.143057
525.262420	0.143622
525.478845	0.143651
525.695253	0.142761
525.911643	0.143567
526.128014	0.144374
526.344367	0.145150
526.560702	0.145577
526.777018	0.145431
526.993316	0.146800
527.209597	0.146797
527.425858	0.146819
527.642102	0.147827
527.858328	0.147749
528.074535	0.147817
528.290724	0.147555
528.506894	0.147508
528.723047	0.148019
528.939181	0.147669
529.155297	0.147977
529.371395	0.148423
529.587475	0.148757
529.803536	0.149149
530.019579	0.150032
530.235604	0.150802
530.451611	0.151587
530.667600	0.151811
530.883570	0.152407
531.099522	0.152572
531.315456	0.152888
531.531372	0.153065
531.747269	0.153218
531.963148	0.153308
532.179009	0.152875
532.394852	0.153074
532.610676	0.153436
532.826482	0.153488
533.042271	0.153457
533.258040	0.153576
533.473792	0.153597
533.689525	0.154199
533.905240	0.153796
534.120937	0.155140
534.336616	0.155980
534.552277	0.156389
534.767919	0.156618
534.983543	0.156866
535.199149	0.157421
535.414736	0.157710
535.630306	0.157608
535.845857	0.158039
536.061390	0.157346
536.276904	0.157474
536.492401	0.157796
536.707879	0.158118
536.923339	0.158049
537.138781	0.157974
537.354204	0.158181
537.569610	0.158727
537.784997	0.159642
538.000366	0.160650
538.215716	0.160586
538.431049	0.160503
538.646363	0.160411
538.861659	0.161130
539.076937	0.161348
539.292196	0.161960
539.507438	0.162496
539.722661	0.162410
539.937866	0.162446
540.153052	0.163065
540.368221	0.163671
540.583371	0.164341
540.798503	0.164192
541.013617	0.164343
541.228712	0.164836
541.443789	0.164640
541.658848	0.164992
541.873889	0.164991
542.088912	0.164902
542.303916	0.165177
542.518902	0.165061
542.733870	0.165582
542.948820	0.165899
543.163752	0.165924
543.378665	0.165984
543.593560	0.165869
543.808437	0.165842
544.023295	0.165769
544.238136	0.166028
544.452958	0.166204
544.667762	0.166304
544.882548	0.166691
545.097315	0.166856
545.312064	0.166786
545.526795	0.167406
545.741508	0.167986
545.956203	0.168431
546.170879	0.168117
546.385537	0.168298
546.600177	0.168527
546.814799	0.168686
547.029402	0.168957
547.243988	0.169906
547.458555	0.169998
547.673103	0.170415
547.887634	0.170998
548.102146	0.171324
548.316640	0.171564
548.531116	0.171923
548.745574	0.172637
548.960013	0.172641
549.174435	0.172868
549.388838	0.172987
549.603222	0.173175
549.817589	0.173205
550.031937	0.173743
550.246267	0.174057
550.460579	0.174318
550.674873	0.174168
550.889148	0.174503
551.103405	0.174343
551.317644	0.174624
551.531865	0.174065
551.746068	0.173984
551.960252	0.174145
552.174418	0.174317
552.388566	0.174177
552.602696	0.174333
552.816807	0.174064
553.030900	0.173911
553.244975	0.173930
553.459032	0.174664
553.673070	0.175311
553.887091	0.175129
554.101093	0.175218
554.315077	0.175620
554.529042	0.175493
554.742990	0.176096
554.956919	0.176720
555.170830	0.176416
555.384722	0.176457
555.598597	0.176542
555.812453	0.177088
556.026291	0.177208
556.240111	0.177547
556.453913	0.177781
556.667696	0.178173
556.881461	0.178609
557.095208	0.178944
557.308937	0.178989
557.522647	0.178817
557.736339	0.179024
557.950013	0.179154
558.163669	0.179479
558.377307	0.179993
558.590926	0.179636
558.804527	0.179299
559.018110	0.179855
559.231675	0.180268
559.445221	0.180787
559.658749	0.180951
559.872259	0.181211
560.085751	0.181083
560.299225	0.181046
560.512680	0.181603
560.726117	0.181970
560.939536	0.182052
561.152937	0.182128
561.366319	0.182170
561.579683	0.182323
561.793029	0.182614
562.006357	0.182993
562.219667	0.182917
562.432958	0.182616
562.646231	0.182867
562.859486	0.182964
563.072723	0.183013
563.285941	0.183225
563.499141	0.183068
563.712323	0.183425
563.925487	0.183325
564.138632	0.183866
564.351760	0.184201
564.564869	0.183989
564.777960	0.184062
564.991032	0.184059
565.204087	0.184239
565.417123	0.184292
565.630141	0.184339
565.843140	0.184327
566.056122	0.184515
566.269085	0.184673
566.482030	0.184830
566.694957	0.184711
566.907866	0.185499
567.120756	0.185723
567.333628	0.185903
567.546482	0.185590
567.759318	0.186006
567.972135	0.185837
568.184935	0.186020
568.397716	0.186560
568.610478	0.187399
568.823223	0.186904
569.035949	0.187263
569.248657	0.187561
569.461347	0.188106
569.674019	0.188308
569.886672	0.188739
570.099308	0.188664
570.311925	0.188731
570.524523	0.188164
570.737104	0.188815
570.949666	0.188660
571.162210	0.188654
571.374736	0.188825
571.587244	0.188918
571.799733	0.188653
572.012205	0.189164
572.224658	0.189305
572.437092	0.189903
572.649509	0.189705
572.861907	0.189614
573.074287	0.190038
573.286649	0.189986
573.498993	0.189715
573.711318	0.190175
573.923625	0.189988
574.135914	0.190160
574.348185	0.190037
574.560438	0.190352
574.772672	0.190709
574.984888	0.190176
575.197086	0.190511
575.409266	0.190732
575.621427	0.190744
575.833570	0.191249
576.045695	0.191145
576.257802	0.191541
576.469890	0.191807
576.681961	0.191694
576.894013	0.192177
577.106046	0.192354
577.318062	0.192810
577.530059	0.193238
577.742039	0.193175
577.954000	0.193340
578.165942	0.193409
578.377867	0.193179
578.589773	0.193540
578.801661	0.193894
579.013531	0.193720
579.225382	0.193520
579.437216	0.193261
579.649031	0.193072
579.860828	0.193455
580.072606	0.193306
580.284367	0.193626
580.496109	0.193780
580.707833	0.193996
580.919539	0.194199
581.131227	0.194962
581.342896	0.195498
581.554547	0.195743
581.766180	0.196014
581.977795	0.196419
582.189391	0.196720
582.400969	0.196728
582.612529	0.196769
582.824071	0.196859
583.035595	0.196956
583.247100	0.196667
583.458587	0.197001
583.670056	0.196783
583.881506	0.196775
584.092939	0.196784
584.304353	0.197025
584.515749	0.197315
584.727127	0.197470
584.938486	0.197336
585.149828	0.197387
585.361151	0.197499
585.572456	0.197787
585.783742	0.197868
585.995011	0.197941
586.206261	0.198233
586.417493	0.197898
586.628706	0.198181
586.839902	0.198295
587.051079	0.198774
587.262238	0.198997
587.473379	0.199233
587.684502	0.199867
587.895606	0.200078
588.106692	0.199884
588.317760	0.200407
588.528810	0.200271
588.739841	0.200408
588.950855	0.200458
589.161850	0.200635
589.372827	0.200808
589.583785	0.200637
589.794726	0.201063
590.005648	0.201459
590.216552	0.201464
590.427437	0.201802
590.638305	0.201835
590.849154	0.202283
591.059985	0.202371
591.270798	0.202301
591.481592	0.202341
591.692369	0.202047
591.903127	0.202248
592.113867	0.202593
592.324588	0.203305
592.535292	0.203373
592.745977	0.203336
592.956644	0.203655
593.167293	0.204011
593.377923	0.204334
593.588536	0.204709
593.799130	0.204975
594.009706	0.204994
594.220263	0.204666
594.430803	0.205049
594.641324	0.205273
594.851827	0.205357
595.062312	0.205503
595.272778	0.205698
595.483227	0.205943
595.693657	0.206067
595.904069	0.206563
596.114462	0.206588
596.324838	0.206962
596.535195	0.207036
596.745534	0.207318
596.955855	0.207536
597.166157	0.207362
597.376441	0.207242
597.586707	0.207454
597.796955	0.207232
598.007185	0.207987
598.217396	0.208007
598.427589	0.208084
598.637764	0.208301
598.847921	0.208439
599.058060	0.208788
599.268180	0.209050
599.478282	0.208661
599.688366	0.208698
599.898431	0.208352
600.108479	0.208585
600.318508	0.208511
600.528519	0.208528
600.738511	0.208830
600.948486	0.209136
601.158442	0.209434
601.368380	0.210418
601.578300	0.210926
601.788202	0.211235
601.998085	0.211454
602.207950	0.211911
602.417797	0.212345
602.627626	0.212243
602.837436	0.212201
603.047228	0.212204
603.257002	0.211592
603.466758	0.211604
603.676496	0.211815
603.886215	0.211612
604.095916	0.211770
604.305599	0.211693
604.515264	0.211847
604.724910	0.211945
604.934538	0.212036
605.144148	0.212522
605.353740	0.212470
605.563314	0.212269
605.772869	0.212500
605.982406	0.212704
606.191925	0.212705
606.401425	0.212707
606.610908	0.212953
606.820372	0.213591
607.029818	0.213511
607.239246	0.213673
607.448655	0.213974
607.658047	0.214201
607.867420	0.214549
608.076775	0.214704
608.286111	0.214847
608.495430	0.214908
608.704730	0.214685
608.914012	0.215082
609.123275	0.215401
609.332521	0.215526
609.541748	0.215614
609.750957	0.215301
609.960148	0.215059
610.169321	0.215236
610.378475	0.215723
610.587611	0.215648
610.796729	0.215474
611.005829	0.215429
611.214910	0.215416
611.423974	0.215377
611.633019	0.215416
611.842045	0.216018
612.051054	0.216146
612.260044	0.216064
612.469017	0.216240
612.677970	0.216416
612.886906	0.217005
613.095824	0.217363
613.304723	0.217876
613.513604	0.218204
613.722467	0.218295
613.931311	0.218351
614.140138	0.218614
614.348946	0.219011
614.557736	0.219248
614.766507	0.219061
614.975261	0.219335
615.183996	0.219252
615.392713	0.219585
615.601412	0.219728
615.810092	0.219742
616.018754	0.219533
616.227399	0.219417
616.436024	0.219688
616.644632	0.219582
616.853222	0.219234
617.061793	0.219156
617.270346	0.218885
617.478880	0.218711
617.687397	0.218929
617.895895	0.219398
618.104375	0.219415
618.312837	0.219043
618.521281	0.219378
618.729706	0.219559
618.938113	0.219981
619.146502	0.220275
619.354873	0.220491
619.563226	0.220738
619.771560	0.220715
619.979876	0.220962
620.188174	0.220967
620.396453	0.221136
620.604715	0.221511
620.812958	0.221437
621.021183	0.221453
621.229390	0.221720
621.437578	0.221844
621.645748	0.222062
621.853900	0.222125
622.062034	0.222383
622.270150	0.222407
622.478247	0.222463
622.686326	0.222767
622.894387	0.223064
623.102430	0.222947
623.310454	0.223156
623.518461	0.223038
623.726449	0.223171
623.934418	0.223749
624.142370	0.223972
624.350303	0.224169
624.558218	0.224454
624.766115	0.224601
624.973994	0.224909
625.181855	0.225222
625.389697	0.225201
625.597521	0.225613
625.805327	0.225630
626.013114	0.225708
626.220883	0.225861
626.428634	0.225736
626.636367	0.225898
626.844082	0.226069
627.051778	0.225952
627.259457	0.226282
627.467117	0.226334
627.674758	0.226694
627.882382	0.227054
628.089987	0.227048
628.297574	0.227360
628.505143	0.227546
628.712694	0.227661
628.920226	0.227658
629.127740	0.227944
629.335236	0.228153
629.542714	0.227992
629.750174	0.227928
629.957615	0.228091
630.165038	0.228173
630.372443	0.228501
630.579829	0.228497
630.787198	0.228703
630.994548	0.228908
631.201880	0.229051
631.409194	0.229218
631.616489	0.229345
631.823766	0.229329
632.031025	0.229292
632.238266	0.229115
632.445489	0.229263
632.652693	0.229358
632.859879	0.229412
633.067047	0.229382
633.274197	0.229667
633.481329	0.229617
633.688442	0.229758
633.895537	0.230065
634.102614	0.230123
634.309672	0.230537
634.516713	0.230693
634.723735	0.230666
634.930739	0.230454
635.137724	0.230350
635.344692	0.230562
635.551641	0.230994
635.758572	0.231028
635.965485	0.231063
636.172379	0.230657
636.379256	0.231011
636.586114	0.231220
636.792954	0.231515
636.999775	0.231719
637.206579	0.231993
637.413364	0.231956
637.620131	0.231662
637.826880	0.231891
638.033610	0.232354
638.240323	0.232366
638.447017	0.232632
638.653692	0.233115
638.860350	0.233144
639.066990	0.233327
639.273611	0.233476
639.480214	0.234128
639.686798	0.234479
639.893365	0.234821
640.099913	0.234781
640.306443	0.234902
640.512955	0.235003
640.719449	0.235486
640.925924	0.235840
641.132381	0.235985
641.338820	0.235854
641.545241	0.236075
641.751644	0.236238
641.958028	0.236478
642.164394	0.236710
642.370742	0.236897
642.577071	0.236867
642.783383	0.237013
642.989676	0.237142
643.195951	0.237429
643.402207	0.237450
643.608446	0.237608
643.814666	0.237741
644.020868	0.237975
644.227052	0.237976
644.433218	0.238403
644.639365	0.238402
644.845494	0.238745
645.051605	0.239050
645.257698	0.239453
645.463772	0.239393
645.669828	0.239556
645.875866	0.239398
646.081886	0.239434
646.287888	0.239207
646.493871	0.239054
646.699836	0.239052
646.905783	0.239470
647.111712	0.239426
647.317622	0.239796
647.523514	0.240179
647.729388	0.240338
647.935244	0.240571
648.141082	0.240793
648.346901	0.241235
648.552702	0.241535
648.758485	0.241258
648.964250	0.241293
649.169996	0.241284
649.375724	0.241104
649.581434	0.241488
649.787126	0.241743
649.992800	0.241906
650.198455	0.242079
650.404092	0.242321
650.609711	0.242588
650.815311	0.242627
651.020894	0.242799
651.226458	0.243262
651.432004	0.243339
651.637532	0.243485
651.843041	0.243757
652.048532	0.243644
652.254006	0.243527
652.459460	0.243843
652.664897	0.243993
652.870315	0.244238
653.075716	0.244452
653.281097	0.244698
653.486461	0.244770
653.691807	0.244835
653.897134	0.245196
654.102443	0.245674
654.307734	0.245794
654.513006	0.246271
654.718261	0.246305
654.923497	0.246252
655.128715	0.246419
655.333915	0.246820
655.539096	0.247025
655.744259	0.247135
655.949404	0.247083
656.154531	0.247214
656.359640	0.247049
656.564730	0.247440
656.769802	0.247713
656.974856	0.247870
657.179892	0.248129
657.384909	0.248448
657.589908	0.248785
657.794889	0.249148
657.999852	0.249489
658.204797	0.250275
658.409723	0.250065
658.614631	0.250189
658.819521	0.250243
659.024393	0.250119
659.229246	0.250160
659.434081	0.250269
659.638898	0.250288
659.843697	0.250329
660.048478	0.250141
660.253240	0.250690
660.457984	0.251170
660.662710	0.251494
660.867417	0.251884
661.072107	0.252158
661.276778	0.252393
661.481431	0.252627
661.686066	0.252731
661.890682	0.252931
662.095281	0.253085
662.299861	0.253246
662.504422	0.253458
662.708966	0.253388
662.913491	0.253583
663.117999	0.253919
663.322488	0.254278
663.526958	0.254512
663.731411	0.254985
663.935845	0.255389
664.140261	0.255570
664.344659	0.255673
664.549038	0.256124
664.753400	0.256410
664.957743	0.256491
665.162068	0.256599
665.366375	0.256873
665.570663	0.256665
665.774933	0.256654
665.979185	0.256611
666.183419	0.256560
666.387635	0.256522
666.591832	0.256506
666.796011	0.256823
667.000172	0.256816
667.204315	0.257038
667.408439	0.257536
667.612545	0.257686
667.816634	0.257873
668.020703	0.258197
668.224755	0.258422
668.428788	0.258745
668.632803	0.258957
668.836800	0.259405
669.040779	0.259684
669.244739	0.259691
669.448681	0.260111
669.652605	0.260328
669.856511	0.260941
670.060399	0.261278
670.264268	0.261587
670.468119	0.261810
670.671952	0.261940
670.875767	0.261995
671.079563	0.262135
671.283341	0.262312
671.487101	0.262364
671.690843	0.262273
671.894567	0.262480
672.098272	0.262339
672.301959	0.262436
672.505628	0.262524
672.709278	0.262860
672.912911	0.263220
673.116525	0.263312
673.320121	0.263727
673.523699	0.264178
673.727258	0.264331
673.930799	0.265010
674.134322	0.265370
674.337827	0.265531
674.541314	0.265497
674.744782	0.265588
674.948232	0.265685
675.151664	0.265985
675.355078	0.265978
675.558474	0.266139
675.761851	0.265988
675.965210	0.266039
676.168551	0.266447
676.371873	0.266736
676.575178	0.267316
676.778464	0.267473
676.981732	0.267556
677.184981	0.267743
677.388213	0.268209
677.591426	0.268470
677.794621	0.268817
677.997798	0.269031
678.200956	0.269108
678.404097	0.269077
678.607219	0.269470
678.810323	0.269763
679.013408	0.269873
679.216476	0.269682
679.419525	0.269839
679.622556	0.269682
679.825569	0.270010
680.028563	0.270250
680.231540	0.270411
680.434498	0.270604
680.637438	0.270641
680.840359	0.270868
681.043263	0.271253
681.246148	0.271476
681.449015	0.271898
681.651864	0.271770
681.854694	0.272083
682.057506	0.271940
682.260301	0.271999
682.463076	0.272234
682.665834	0.272640
682.868573	0.272901
683.071295	0.273131
683.273998	0.273292
683.476682	0.273619
683.679349	0.273688
683.881997	0.274091
684.084627	0.274347
684.287239	0.274655
684.489833	0.274599
684.692408	0.274816
684.894965	0.274965
685.097504	0.275090
685.300025	0.275176
685.502527	0.275228
685.705012	0.275341
685.907478	0.275522
686.109925	0.275476
686.312355	0.275637
686.514766	0.275806
686.717159	0.275981
686.919534	0.275892
687.121891	0.275951
687.324230	0.276493
687.526550	0.276720
687.728852	0.276955
687.931136	0.277337
688.133401	0.277531
688.335649	0.277419
688.537878	0.277419
688.740089	0.277789
688.942281	0.278034
689.144456	0.277860
689.346612	0.277898
689.548750	0.277646
689.750870	0.277574
689.952971	0.277651
690.155055	0.278075
690.357120	0.278128
690.559167	0.278214
690.761195	0.278319
690.963206	0.278511
691.165198	0.278523
691.367172	0.278968
691.569128	0.279030
691.771065	0.279326
691.972984	0.279341
692.174885	0.279759
692.376768	0.279873
692.578633	0.280043
692.780479	0.280173
692.982308	0.280525
693.184118	0.280530
693.385909	0.280908
