sample name	sample
index	1222
start time	 04-29-2021  10:44:46 AM
880	0.005036
Peak Time (s)	91.036
Peak Height 	0.005036
calc peak height	90,93
Baseline Time (s)	8.536
Baseline Value 	-0.004702
subtract baseline	10,4
Abs	-0.014414
Peak Time (s)	91.537
Peak Height 	-0.01441
calc peak height	90,93
Baseline Time (s)	11.037
Baseline Value 	0.002251
subtract baseline	10,3
PK_550	-0.001177
Peak Time (s)	92.037
Peak Height 	-0.001177
calc peak height	90,93
Baseline Time (s)	10.537
Baseline Value 	9.848E-4
subtract baseline	10,2
PK_880	-0.013907
Peak Time (s)	91.537
Peak Height 	-0.01391
calc peak height	90,93
Baseline Time (s)	10.537
Baseline Value 	0.002158
subtract baseline	10,1


Time (s)	A880-A510	A880-A775	A880-A975	A880	I510	I775	I975	I880	
0.035000	-0.001795	-0.000898	0.002534	0.001290	6184.501989	44318.681470	3864.380917	22808.275287
0.759500	-0.003540	-0.001393	-0.002632	0.003096	6157.578434	44099.702528	3848.323896	22725.514128
1.068000	-0.000256	-0.000335	0.002750	0.003628	6178.428257	44149.765663	3859.466799	22701.248264
1.630500	0.000766	-0.000971	0.001111	-0.000048	6214.323843	44439.487196	3864.183475	22869.791464
2.037000	-0.001076	-0.000486	-0.000441	-0.000032	6200.085266	44484.387616	3860.550664	22869.062551
2.534500	0.001032	-0.000376	-0.002927	-0.000354	6218.714377	44525.700608	3855.557053	22883.872209
3.035500	0.002525	0.000010	-0.003117	-0.000270	6229.577566	44554.706261	3854.928871	22880.020865
3.535500	0.000302	-0.000570	0.002241	-0.000682	6215.629264	44538.621520	3868.285258	22899.021804
4.035500	-0.001831	0.000223	-0.004493	-0.000189	6195.510093	44567.322099	3851.583220	22876.271948
4.536000	-0.000018	0.000417	0.003470	-0.000094	6208.658670	44576.896588	3869.780928	22871.903215
5.036000	-0.000944	-0.000388	-0.000786	0.000044	6200.502273	44486.471243	3859.575813	22865.537402
5.536500	0.001958	-0.000197	-0.000957	-0.000311	6225.521923	44538.764343	3860.000994	22881.900601
6.036500	-0.000334	0.000313	-0.000744	0.000275	6203.414062	44531.486142	3859.140047	22854.926554
6.540000	0.001044	-0.000283	0.001764	-0.000562	6220.411656	44554.594144	3866.895160	22893.478097
7.037500	-0.001045	-0.001276	-0.005115	-0.000989	6207.647971	44500.328527	3851.990136	22913.170830
7.537500	-0.002902	-0.000588	-0.000086	-0.000809	6192.064545	44549.053205	3863.170909	22904.872337
8.035000	-0.000174	0.000115	0.004188	-0.000156	6207.938245	44553.921502	3871.603866	22874.783588
8.535500	0.000083	0.000162	-0.000981	0.000000	6208.711982	44543.424851	3859.228027	22867.585502
9.035000	-0.001505	-0.000421	-0.002284	-0.000308	6198.910679	44517.055661	3856.933328	22881.789183
9.536000	-0.001494	0.000003	-0.003323	0.000031	6196.397370	44525.127063	3853.763189	22866.138835
10.036500	0.000403	0.000072	0.004513	0.000284	6208.988669	44507.540718	3871.333386	22854.514626
10.536500	0.000000	0.000000	0.000705	0.000052	6207.676628	44522.878658	3863.009599	22865.182664
11.036500	-0.001448	-0.000380	0.000000	-0.000510	6200.894873	44540.326061	3862.678716	22891.095049
11.537000	0.000011	-0.001230	0.000934	-0.001081	6216.461945	44513.563320	3866.171184	22917.425855
12.037500	0.000906	0.000294	0.001816	-0.000456	6218.534975	44599.839941	3866.769534	22888.573508
12.535000	-0.000425	-0.000983	-0.000888	-0.001225	6214.212921	44551.081516	3862.277136	22924.071267
13.035500	0.000139	-0.000219	-0.000615	-0.000026	6209.340111	44509.367556	3860.133678	22868.778981
13.535500	0.000474	-0.000273	0.001158	-0.001860	6226.019516	44680.289115	3868.507505	22953.404844
14.038500	0.000577	-0.000084	0.002016	-0.001609	6224.881194	44674.388407	3869.922701	22941.819199
14.593500	-0.000974	-0.000354	0.005303	0.002220	6183.675731	44281.858238	3868.658366	22765.616806
15.036500	-0.002464	-0.000837	-0.000243	0.000935	6182.115560	44358.384697	3858.773480	22824.586359
15.536500	-0.002798	-0.000481	0.001917	-0.001266	6196.355175	44603.250744	3868.891734	22925.980246
16.133000	-0.000730	-0.000908	0.003709	-0.002462	6221.388511	44677.132519	3875.883192	22981.288204
16.537500	0.002878	0.000307	-0.000292	-0.001446	6241.400811	44696.324234	3864.173336	22934.299553
17.037500	0.000100	-0.000605	0.003399	-0.001665	6221.643211	44629.673841	3873.287890	22944.411036
17.535000	0.001158	-0.000547	0.001790	-0.001765	6230.564401	44644.831713	3869.758912	22949.007928
18.035500	0.001265	-0.000295	0.000838	-0.003615	6245.705819	44847.374459	3871.857443	23034.736453
18.538000	-0.001110	-0.000461	-0.000806	0.000052	6199.180499	44478.736556	3859.514963	22865.214277
19.035500	-0.000634	-0.000524	0.000004	0.000018	6203.085100	44475.953754	3861.465696	22866.759851
19.536500	-0.000605	0.000015	0.004692	0.000446	6200.026075	44486.590830	3871.372530	22847.054813
20.036500	-0.000640	0.000046	0.000720	0.000616	6198.463928	44473.316339	3861.738207	22839.250184
20.539500	0.000309	-0.000208	0.003690	0.000353	6207.735078	44474.055816	3869.250641	22851.318231
21.037500	0.000032	-0.000194	0.000613	0.000222	6206.627044	44488.066854	3862.402229	22857.385253
21.537000	-0.001543	0.000357	0.003681	0.000753	6190.522557	44489.928610	3868.297428	22832.951269
22.035000	-0.000657	-0.000143	0.002223	0.000565	6198.715170	44460.062081	3865.340740	22841.563715
22.535000	0.000407	-0.000218	0.004004	0.000493	6207.413034	44459.744995	3869.657041	22844.884222
23.035500	-0.000906	-0.001182	0.007790	-0.000115	6202.011455	44425.660015	3879.961840	22872.859362
23.536000	-0.002189	-0.000094	0.004445	0.000558	6187.079282	44465.461498	3870.533979	22841.910937
24.036000	-0.001764	0.000732	0.005066	0.000940	6187.409231	44507.986144	3871.092583	22824.360934
24.536500	-0.001650	-0.001147	-0.000076	-0.000018	6195.591370	44419.841468	3861.363378	22868.425236
25.037000	0.000670	-0.001026	0.000954	-0.000229	6214.976479	44451.588467	3864.239523	22878.143596
25.537000	0.000054	-0.000365	0.003182	0.000649	6203.513768	44430.795300	3867.377352	22837.708430
26.037000	-0.000905	-0.000355	0.002742	0.000187	6199.714505	44475.901605	3867.427255	22858.957567
26.537000	-0.000029	-0.001569	-0.001835	-0.000560	6212.156887	44431.341013	3858.550493	22893.408549
27.038000	-0.002666	-0.000485	0.002210	0.000354	6185.001755	44447.509068	3865.802499	22851.305751
27.535000	-0.000861	-0.000485	0.001075	-0.000204	6203.043992	44500.931314	3864.460858	22876.979353
28.036000	0.000791	-0.000841	0.001557	-0.002894	6236.450233	44725.191714	3871.852777	23001.282342
28.536000	0.000576	0.000163	0.002772	-0.001535	6224.298817	44690.965998	3871.514682	22938.372289
29.035500	-0.000051	-0.000236	0.002659	-0.001110	6216.202056	44611.722326	3870.259746	22918.753374
29.536500	0.002152	0.000174	0.005979	-0.001140	6233.414429	44654.035173	3878.110568	22920.144752
30.039500	-0.001564	-0.001048	-0.000783	-0.002560	6215.722597	44673.058759	3865.618432	22985.801258
30.537000	0.001125	0.000335	0.000962	-0.001127	6225.387137	44668.291922	3866.344440	22919.538447
31.037500	-0.000255	-0.000184	0.003840	-0.000351	6208.810650	44543.867822	3871.243686	22883.731761
31.540000	-0.000071	-0.000193	0.001710	0.001576	6195.465922	44358.603802	3861.805754	22795.132885
32.035000	-0.000666	-0.000685	0.001225	-0.001207	6212.225219	44577.905561	3867.142040	22923.237161
32.535500	0.000718	-0.000058	0.000716	-0.001712	6226.760445	44686.676264	3867.131454	22946.551842
33.035500	0.000940	-0.000481	-0.002883	-0.000531	6219.373338	44532.636565	3856.066150	22892.045896
33.536000	-0.002195	-0.001164	0.004083	-0.002446	6210.005396	44650.975605	3876.725806	22980.540610
34.036500	-0.000003	0.000145	0.004415	-0.001499	6219.560052	44685.787134	3875.278145	22936.704322
34.537000	0.002284	-0.000205	0.000651	-0.000356	6228.384599	44542.401998	3863.831247	22883.988110
35.037000	-0.001640	-0.000069	0.006123	0.001264	6185.886166	44400.276801	3872.807264	22809.467353
35.537000	-0.001545	-0.001367	0.000291	0.000314	6193.851352	44367.005126	3861.443163	22853.110707
36.037500	-0.000588	-0.000342	0.003305	0.000765	6197.717811	44421.935074	3867.394566	22832.391530
36.535000	-0.003040	-0.000887	0.000402	0.000676	6179.709369	44378.359944	3860.862767	22836.496604
37.035500	-0.002118	-0.000793	0.002268	0.000620	6187.150627	44392.677356	3865.318344	22839.066270
37.535500	-0.002389	0.000347	0.003099	0.001179	6180.827531	44448.122365	3865.950210	22813.353472
38.035500	-0.001325	-0.000986	-0.005165	0.000053	6197.524278	44428.363660	3849.489112	22865.133211
38.536000	-0.001888	-0.000832	0.001717	0.000322	6191.168523	44417.342683	3864.731493	22852.748202
39.036000	-0.000999	0.000498	0.000009	0.001316	6190.370576	44449.476550	3858.476405	22807.072093
39.539500	0.000676	0.000340	0.011667	0.001487	6201.868170	44418.070953	3885.340730	22799.242435
40.037500	-0.000920	-0.000577	-0.000792	0.000331	6198.494067	44440.949762	3858.899175	22852.342086
40.537000	-0.002278	-0.000839	0.005034	0.000747	6184.963612	44376.141880	3871.469822	22833.234602
41.035000	-0.001353	-0.001233	-0.003808	0.000241	6195.876308	44386.739386	3852.166319	22856.471013
41.535000	-0.002763	-0.000812	-0.005009	0.000098	6186.210730	44440.730601	3849.744117	22863.060472
42.035500	-0.001619	-0.000572	-0.002893	0.000555	6191.451534	44419.956935	3853.546433	22842.049941
42.535500	-0.002493	-0.000838	0.001457	0.000463	6185.490948	44403.370573	3863.801054	22846.277318
43.036000	-0.002852	-0.000757	0.002201	0.000065	6185.789227	44449.154740	3866.452852	22864.597354
43.536500	-0.001695	-0.000545	-0.001627	0.000623	6190.356643	44416.114348	3856.302220	22838.939211
44.037000	-0.001023	-0.000782	-0.003319	0.000251	6198.322274	44429.032641	3853.268293	22856.044528
44.537000	0.002038	0.000029	0.005006	-0.002624	6244.021633	44782.987137	3879.315170	22988.788298
45.037000	0.000651	-0.000740	0.007207	-0.000041	6213.393087	44460.960953	3878.416440	22869.494061
45.534500	0.001716	0.000021	0.005175	-0.000936	6228.474226	44619.795633	3875.744277	22910.751687
46.037500	-0.000599	-0.001477	0.000881	-0.002835	6225.267420	44658.306322	3870.137133	22998.573373
46.535500	0.000088	-0.000810	0.005009	-0.002024	6224.306327	44644.364003	3877.908169	22960.989433
47.035500	-0.001935	-0.000814	0.004880	0.001504	6181.810018	44306.236800	3869.343199	22798.457180
47.535500	-0.002017	-0.000681	0.006080	-0.001533	6204.371548	44609.670944	3879.276492	22938.317994
48.036500	-0.001502	-0.000797	0.002440	0.000755	6190.815845	44379.371334	3865.403019	22832.835551
48.536500	-0.001266	-0.000347	0.000610	0.001422	6187.523859	44358.574634	3859.617815	22802.195694
49.039500	0.000262	-0.000352	0.001415	0.002419	6191.577229	44263.078055	3859.176712	22756.518804
49.537000	0.000114	0.000155	0.001544	-0.000821	6215.258947	44621.567410	3866.988097	22905.445373
50.034500	0.000051	-0.000870	0.004423	-0.001538	6220.285171	44591.971898	3875.390775	22938.522514
50.537000	0.003986	0.000368	0.005424	-0.002410	6257.477729	44795.058342	3879.794970	22978.845896
51.035000	-0.001652	-0.000947	-0.002114	0.003072	6172.050120	44144.411272	3849.565835	22726.653670
51.535500	-0.000113	-0.000776	0.003277	-0.002175	6223.924498	44662.156343	3874.196690	22967.976018
52.035500	0.018861	-0.010802	0.015410	0.233214	4910.826159	26630.811627	3465.024680	14558.751846
52.536000	0.011238	-0.021975	0.005871	0.038195	6007.660789	39141.297779	3789.392073	21184.014036
53.035500	-0.008118	-0.027695	-0.005042	-0.099375	6986.768270	51999.432027	4105.386689	28009.220712
53.539500	-0.002837	-0.073603	0.005587	-0.242538	8661.039528	64324.708780	4636.192195	37825.307515
54.037000	0.005485	-0.037356	0.010881	-0.180200	7984.702001	60742.836179	4417.098381	33151.391175
54.536500	0.001916	-0.026235	0.004845	-0.126855	7357.458442	55383.111218	4217.622068	29651.241809
55.037000	-0.005020	-0.021232	0.001477	-0.072409	6767.042164	49734.849939	4047.933564	26495.728122
55.535000	-0.008654	-0.010535	-0.004041	-0.069802	6711.565218	50615.698784	4025.848796	26354.368301
56.035000	-0.016581	-0.012812	-0.012873	-0.070582	6648.985065	50451.399062	4004.359901	26396.567211
56.535000	-0.011229	-0.011503	-0.008942	-0.082228	6799.510632	51891.432424	4046.289734	27035.973640
57.035500	-0.017374	-0.010059	-0.014254	-0.082457	6746.450154	52080.591400	4032.443254	27048.726622
57.536000	-0.011929	-0.012314	-0.013684	-0.127488	7223.233910	57171.988090	4162.662736	29690.308273
58.036500	-0.005495	-0.008086	-0.013400	-0.113793	7151.199697	56001.575366	4122.937969	28857.808760
58.536500	-0.004455	-0.008860	-0.009456	-0.105848	7083.787151	54945.890982	4111.321119	28386.661181
59.037000	-0.006095	-0.007856	-0.011198	-0.092708	6943.062195	53511.484510	4069.040572	27626.197759
59.540000	-0.007819	-0.008602	-0.008792	-0.080412	6813.935627	52014.138158	4041.735797	26935.173845
60.035000	-0.005115	-0.006026	-0.013838	-0.058965	6647.682955	49925.377272	3971.575502	25775.631402
60.535000	-0.009484	-0.005658	-0.010469	-0.051898	6549.712813	49205.429229	3962.118635	25405.904451
61.035500	-0.009979	-0.004750	-0.012429	-0.050780	6536.096436	49183.036495	3954.308077	25347.958753
61.538500	-0.007099	-0.004666	-0.005070	-0.040285	6472.520210	48086.546178	3946.408265	24811.307086
62.036000	-0.009564	-0.004715	-0.009222	-0.029632	6365.564153	46986.494342	3909.869715	24279.627807
62.536000	-0.008775	-0.002968	-0.012711	-0.011834	6231.617789	45386.566241	3859.467625	23419.977129
63.039500	-0.009992	-0.001546	-0.011361	-0.010290	6210.365386	45374.649139	3859.020962	23347.070532
63.536500	-0.012511	-0.000777	-0.012558	-0.012417	6207.353546	45658.843795	3861.169602	23447.561308
64.037000	-0.010093	-0.000828	-0.014505	-0.017846	6268.059586	46191.712461	3869.258680	23706.411877
64.537500	-0.009014	-0.000280	-0.013534	-0.019302	6287.905825	46391.982082	3874.936074	23776.393613
65.035000	-0.011680	0.000244	-0.017904	-0.014827	6232.294290	45998.115837	3854.399186	23562.093115
65.535500	-0.009256	0.001045	-0.014294	-0.020069	6292.028664	46602.020523	3874.953804	23813.362853
66.035500	-0.009538	0.000213	-0.011401	-0.021547	6301.443494	46667.095063	3885.259739	23884.745719
66.535500	-0.007413	0.000988	-0.016312	-0.020870	6312.875276	46677.012584	3872.101999	23852.011080
67.035500	-0.015412	0.000763	-0.016574	-0.015330	6207.447026	46099.624141	3858.621103	23586.085514
67.536500	-0.008150	0.000465	-0.015887	-0.020705	6305.752454	46607.713918	3872.711624	23844.050995
68.037000	-0.009257	0.000092	-0.018841	-0.021220	6301.076883	46621.932599	3867.017103	23868.922860
68.539500	-0.008205	0.000687	-0.011203	-0.020346	6302.487544	46593.869177	3882.886305	23826.727196
69.037000	-0.012983	0.001078	-0.018289	-0.014387	6218.857662	46037.225139	3852.505998	23541.136301
69.537500	-0.008347	0.001652	-0.017491	-0.019537	6295.001274	46609.608212	3866.244962	23787.737291
70.035000	-0.004976	0.001496	-0.012223	-0.019726	6323.119476	46612.984408	3879.017579	23796.846214
70.535500	-0.008353	0.001654	-0.012969	-0.019486	6294.544987	46604.721550	3876.695527	23785.267487
71.036000	-0.012217	0.000832	-0.018712	-0.014993	6229.424203	46072.931218	3852.924637	23569.982483
71.536500	-0.009561	0.000772	-0.013095	-0.019817	6287.656510	46549.232192	3877.177874	23801.204841
72.036500	-0.009333	0.000201	-0.009776	-0.019759	6288.988858	46486.124952	3884.873187	23798.420336
72.539500	-0.011279	0.001362	-0.010879	-0.018121	6260.957171	46438.210246	3878.401859	23719.648076
73.037000	-0.015052	0.000615	-0.009100	-0.012640	6189.632661	45818.259326	3869.725707	23458.158951
73.537000	-0.009950	0.000243	-0.015687	-0.017389	6265.604777	46252.952543	3865.443523	23684.506652
74.034500	-0.013285	0.000141	-0.014940	-0.016732	6234.610460	46177.269877	3865.653514	23653.041021
74.538000	-0.014156	-0.000384	-0.007950	-0.016053	6222.651885	46057.468619	3880.427507	23620.566245
75.035500	-0.016353	0.000394	-0.017808	-0.008509	6148.467960	45390.205177	3840.200184	23263.252218
75.535500	-0.012303	0.000649	-0.015738	-0.013244	6215.300549	45881.264997	3855.740156	23486.793181
76.035500	-0.011352	-0.000376	-0.009822	-0.012801	6219.207375	45736.291373	3868.417115	23465.790465
76.536000	-0.011319	0.000137	-0.012679	-0.011382	6208.561088	45647.034030	3858.499092	23398.617927
77.037000	-0.016412	0.000164	-0.019838	-0.004124	6115.177632	44941.029166	3825.773065	23058.397723
77.536500	-0.009393	0.000579	-0.013764	-0.008858	6203.975490	45442.463176	3850.203484	23279.634488
78.037000	-0.012836	-0.000502	-0.011546	-0.008881	6177.888519	45338.962945	3855.346752	23280.712578
78.537000	-0.012264	0.000263	-0.014065	-0.006603	6164.952497	45191.317060	3844.372440	23173.947915
79.035000	-0.014789	0.000324	-0.015091	0.000133	6095.602843	44546.241179	3826.866466	22861.464489
79.535000	-0.011036	0.000504	-0.018305	-0.004612	6159.176600	45021.159734	3830.295071	23081.060379
80.035500	-0.011939	0.001336	-0.009842	-0.003242	6142.048715	44969.061349	3846.334448	23017.418673
80.535500	-0.012265	-0.000372	-0.022176	-0.003981	6145.157692	44875.309724	3820.249477	23051.729963
81.036000	-0.015365	-0.000883	-0.021597	0.003424	6067.074255	44116.984549	3805.215366	22710.541344
81.535500	-0.013990	0.000632	-0.012432	-0.001137	6110.966105	44697.877840	3835.688541	22920.021091
82.039000	-0.013252	-0.000715	-0.014077	-0.001486	6119.067658	44601.885482	3832.770618	22936.139466
82.536000	-0.014375	-0.000349	-0.015378	-0.000671	6104.632139	44558.755558	3828.022767	22898.491095
83.034000	-0.016496	-0.000798	-0.016384	0.006160	6038.813114	43866.204079	3810.644072	22585.969283
83.537500	-0.015516	-0.000618	-0.020220	0.000619	6086.627057	44409.455266	3814.399050	22839.103389
84.040500	-0.015146	-0.000409	-0.017114	0.001209	6084.998208	44373.039941	3819.965398	22811.989223
84.535000	-0.014569	-0.000728	-0.013701	0.001552	6086.727899	44309.836167	3826.802535	22796.238226
85.036000	-0.018892	-0.001369	-0.017513	0.006612	6018.149462	43769.733794	3807.175274	22565.429506
85.536000	-0.014397	-0.000335	-0.022968	0.002776	6078.966918	44230.718088	3803.638034	22740.188448
86.036000	-0.012504	-0.000896	-0.011257	0.002548	6094.637847	44199.027045	3830.043457	22750.606276
86.539000	-0.011964	-0.000225	-0.013950	0.003503	6091.569779	44172.027254	3821.899468	22706.939819
87.035500	-0.016598	-0.001306	-0.018281	0.005214	6044.955029	43907.538825	3808.556662	22628.943611
87.537000	-0.015764	-0.000895	-0.014778	0.003312	6064.973061	44126.468492	3820.483515	22715.662721
88.037000	-0.014682	-0.001167	-0.020305	0.003018	6075.080647	44128.511817	3808.933007	22729.080696
88.534500	-0.015613	-0.000113	-0.014186	0.003577	6064.138503	44175.654142	3821.209592	22703.575274
89.037000	-0.016234	-0.000832	-0.020386	0.005926	6042.425119	43885.059061	3802.398350	22596.580825
89.535500	-0.016144	-0.000375	-0.011865	0.003288	6062.363011	44178.274217	3827.027261	22716.779946
90.035500	-0.014991	-0.001497	-0.018436	0.002500	6076.626835	44146.512038	3814.184997	22752.809108
90.536000	-0.016898	-0.001578	-0.020230	0.002599	6061.883600	44129.403712	3810.019351	22748.286094
91.036000	-0.019865	-0.001428	-0.021445	0.005036	6022.508127	43912.794466	3802.030044	22637.032291
91.536500	-0.013907	-0.001405	-0.014414	0.003013	6080.832334	44106.541072	3821.958132	22729.351542
92.036500	-0.016279	-0.001177	-0.015955	0.002239	6069.073024	44201.702840	3820.253384	22764.766486
92.534500	-0.015641	-0.001205	-0.017307	0.002151	6074.405777	44207.311144	3817.449365	22768.766672
93.037000	-0.019945	-0.001179	-0.021114	0.007109	6006.962203	43740.850310	3798.244048	22542.907871
93.537500	-0.017226	-0.002124	-0.014780	0.001374	6068.467030	44193.828498	3824.790039	22804.402076
94.037500	-0.015569	-0.001405	-0.019699	0.001515	6079.625928	44248.930987	3813.571463	22797.947796
94.538000	-0.015628	-0.001546	-0.015808	0.001260	6081.069199	44259.800041	3822.755818	22809.672927
95.036000	-0.017903	-0.001063	-0.015283	0.006966	6022.743411	43765.156802	3811.290966	22549.374120
95.536000	-0.016286	-0.001193	-0.012935	0.001711	6072.903266	44250.446177	3828.160632	22788.960968
96.039500	-0.014905	-0.002077	-0.016430	0.000702	6090.531905	44262.267313	3822.610741	22835.277798
