sample name	sample
index	16
start time	 02-11-2021  11:51:42 AM
880	0.031879
Peak Time (s)	81.037
Peak Height 	0.03188
calc peak height	80,83
Baseline Time (s)	8.537
Baseline Value 	-0.004984
subtract baseline	10,4
Abs	0.013000
Peak Time (s)	82.035
Peak Height 	0.013
calc peak height	80,83
Baseline Time (s)	9.537
Baseline Value 	0.005124
subtract baseline	10,3
PK_550	0.008267
Peak Time (s)	81.037
Peak Height 	0.008267
calc peak height	80,83
Baseline Time (s)	9.037
Baseline Value 	7.1293E-4
subtract baseline	10,2
PK_880	-0.000005
Peak Time (s)	82.535
Peak Height 	-4.61E-6
calc peak height	80,83
Baseline Time (s)	10.535
Baseline Value 	0.00298
subtract baseline	10,1


Time (s)	A880-A510	A880-A775	A880-A975	A880	I510	I775	I975	I880	
0.037000	-0.000636	0.000294	-0.016750	0.001268	4444.937510	18926.654126	3206.283561	10144.986403
0.537500	-0.001788	-0.002453	-0.013108	0.001954	4438.514807	18801.199648	3208.642502	10133.551767
1.044000	-0.005835	0.000048	-0.010650	0.006284	4409.582354	18734.761220	3207.147279	10061.856179
1.535000	-0.001468	-0.000075	-0.009998	0.000110	4446.077808	18955.604811	3212.632481	10164.304029
2.035500	0.000560	-0.000221	-0.004909	-0.000689	4456.023680	18979.662478	3217.435416	10177.685611
2.535500	0.000671	0.000774	-0.000463	0.002209	4446.221735	18909.753480	3218.708460	10129.315960
3.036000	-0.002825	0.000866	-0.007056	0.002579	4432.729571	18899.536341	3213.016038	10123.154545
3.536000	-0.001682	-0.000257	-0.002666	0.001752	4439.589589	18888.749227	3217.272900	10136.925516
4.036500	-0.004930	-0.001504	-0.003295	0.000722	4431.865911	18880.767585	3217.601149	10154.082425
4.537000	0.001144	-0.000917	-0.011392	0.001788	4449.359715	18863.275760	3210.153716	10136.325107
5.037000	0.000451	-0.001383	0.003971	0.001853	4446.695265	18843.853989	3222.677112	10135.231466
5.537500	0.004274	0.001320	0.003640	-0.000476	4468.419272	19028.612543	3224.345728	10174.107640
6.040500	0.001740	0.001089	-0.000189	0.000171	4457.152070	18996.232764	3220.619154	10163.295518
6.535500	0.000648	0.000457	0.002153	0.002519	4445.051150	18886.762812	3220.613146	10124.155479
7.036000	-0.001870	-0.000059	-0.005477	0.002167	4437.485085	18880.791297	3214.634546	10130.009015
7.535500	0.003564	0.000582	0.004610	-0.000646	4466.501384	19007.653152	3225.301196	10176.961777
8.060500	-0.004251	-0.001184	-0.003754	-0.001180	4440.856570	18962.295624	3218.789382	10185.907606
8.537500	0.002532	0.000855	0.009699	0.000000	4460.552656	18993.920619	3229.049029	10166.149899
9.037000	0.003487	0.000000	0.000201	-0.000386	4465.303625	18976.621350	3221.403689	10172.601201
9.536500	-0.000229	0.000283	0.000000	-0.000868	4453.871349	19004.801447	3221.637348	10180.675805
10.037500	-0.002455	-0.000095	-0.003380	-0.001376	4447.829091	19009.584690	3219.259111	10189.185104
10.535000	0.000000	-0.000606	-0.008331	0.000104	4451.253986	18936.319290	3213.990734	10164.407358
11.035000	0.000665	-0.000443	-0.001024	0.000722	4451.417923	18919.632915	3219.472183	10154.086305
11.535500	-0.000121	0.000368	0.004425	0.001408	4446.250194	18924.238875	3223.426789	10142.643842
12.035500	0.000462	0.000728	-0.011856	0.001520	4447.903203	18933.340637	3209.996003	10140.788020
12.536000	-0.003616	0.000010	-0.009499	0.001138	4434.991885	18921.027163	3212.204908	10147.157774
13.036000	0.002455	-0.000409	0.004295	0.001037	4456.619052	18909.363151	3223.629119	10148.842017
13.537000	0.000078	-0.000587	0.004218	0.001532	4446.514430	18884.696067	3223.151127	10140.587593
14.037000	-0.000590	0.000735	-0.003915	0.002471	4440.892341	18898.740486	3215.661760	10124.964916
14.537000	-0.001999	-0.000786	-0.005205	0.001512	4439.323673	18878.182007	3215.391280	10140.924344
15.035000	0.004357	-0.000232	-0.009896	0.001252	4462.583640	18907.952954	3211.791606	10145.254270
15.534500	-0.000262	0.000569	0.012194	0.002262	4442.767491	18900.323133	3229.246402	10128.436342
16.035500	0.001171	-0.001043	0.005746	0.000114	4455.341349	18919.951905	3225.616896	10164.241224
16.535500	-0.002236	0.000688	-0.006801	0.001083	4439.989797	18947.902588	3214.438825	10148.063261
17.035500	0.001150	0.000398	-0.001820	0.001400	4450.741867	18925.643926	3218.257287	10142.785734
17.536000	0.001679	0.000898	0.001142	0.002164	4449.912694	18915.943185	3220.070465	10130.054680
18.036500	0.000322	0.000179	-0.007939	0.000471	4451.098398	18951.711850	3214.011700	10158.287606
18.536500	-0.002451	0.000654	-0.000269	0.000749	4440.405965	18958.921039	3220.074217	10153.637923
19.037000	0.000567	-0.000065	-0.011318	0.001328	4448.947302	18911.313898	3210.583922	10143.988928
19.537500	0.002914	0.000506	-0.002805	0.001305	4457.291945	18933.083866	3217.525650	10144.370352
20.038000	0.005001	0.001698	-0.000596	-0.000327	4470.478024	19037.066876	3220.693690	10171.619490
20.537500	-0.004186	-0.001825	-0.002417	0.001100	4433.136894	18855.218713	3218.012731	10147.776834
21.038000	0.002621	0.000534	-0.004363	0.000252	4459.978975	18972.822085	3217.110987	10161.943244
21.536000	0.001868	0.001157	0.001303	0.000142	4457.703123	18999.817500	3221.881233	10163.777078
22.035500	0.001310	-0.000163	0.012078	-0.000537	4458.130753	18976.196816	3231.529534	10175.134802
22.536000	-0.001645	-0.001072	0.003726	0.002850	4435.890378	18818.861012	3221.643511	10118.655987
23.036500	0.002103	0.000901	0.005267	0.000543	4457.119312	18975.599650	3224.854981	10157.079929
23.556000	0.002381	-0.000254	-0.008538	-0.001423	4465.060090	19005.481066	3215.065957	10189.980976
24.037000	-0.005725	-0.001373	-0.007937	0.001039	4428.011657	18873.968628	3213.551662	10148.801859
24.541000	0.001467	0.001783	0.004648	0.003694	4443.806748	18892.306297	3221.708803	10104.649663
25.041000	-0.001659	-0.000795	-0.004331	-0.001302	4450.363695	18981.072455	3218.414466	10187.944188
25.535500	-0.001917	-0.000542	0.000755	-0.000868	4447.935319	18974.406105	3222.264635	10180.673880
26.036000	0.001474	0.000814	-0.008959	-0.000877	4459.914941	19024.727695	3214.278273	10180.830268
26.536000	-0.001163	0.000960	-0.001445	0.002649	4438.272112	18900.444752	3217.538870	10122.005043
27.035500	0.003246	0.000237	-0.005357	-0.001884	4469.773311	19040.609718	3218.048794	10197.714614
27.536500	-0.001862	0.000116	0.005599	0.001055	4441.392750	18927.913828	3224.704412	10148.530051
28.036500	-0.000607	-0.000194	0.000035	0.001495	4444.245298	18900.457954	3219.708924	10141.205088
28.536000	0.000061	-0.001226	-0.013717	0.001291	4447.301013	18870.149057	3208.686156	10144.603025
29.037500	0.002429	-0.000222	0.009434	0.000972	4456.754085	18918.581369	3228.001003	10149.910300
29.537500	-0.000144	0.001088	0.001145	0.002516	4442.294010	18910.028451	3219.782100	10124.215007
30.034500	-0.002376	-0.000629	-0.013047	0.000656	4440.992542	18915.249284	3209.733045	10155.192639
30.535000	-0.001276	-0.000546	-0.001928	0.002395	4438.762689	18854.637899	3217.350294	10126.220031
31.035000	-0.004805	-0.001487	0.003043	0.000346	4433.609980	18895.183637	3223.160061	10160.374628
31.536000	0.000354	-0.000496	-0.002073	0.001305	4448.279448	18896.348415	3218.127150	10144.361867
32.036500	0.001941	0.001255	-0.009866	0.002147	4450.895082	18929.655741	3211.093467	10130.340418
32.536500	-0.000383	0.000535	-0.011433	0.002954	4439.926011	18873.702427	3209.184133	10116.928997
33.036500	-0.003208	-0.000757	-0.002243	0.000804	4437.571748	18905.122893	3218.399370	10152.715953
33.537000	0.002981	-0.000557	0.006154	0.001663	4456.261779	18880.993282	3224.659105	10138.392881
34.037500	-0.001126	0.000947	0.010519	0.002109	4440.284617	18919.772845	3227.957952	10130.983209
34.535000	0.000742	0.000030	-0.000602	0.001710	4448.219121	18900.756675	3219.005088	10137.616317
35.035500	0.000562	0.000905	-0.006611	0.002070	4446.326530	18919.637676	3213.791105	10131.623747
35.535500	-0.002456	0.000324	0.004657	0.001812	4436.678690	18907.788927	3223.283277	10135.912400
36.035500	-0.000577	-0.000239	-0.002435	0.000602	4447.478587	18931.546337	3218.407546	10156.094697
36.536000	-0.001401	0.001588	0.000836	0.002953	4436.379719	18912.296412	3219.166019	10116.941721
37.036500	-0.000408	-0.000078	-0.005930	0.000114	4449.784825	18955.376421	3215.940503	10164.246517
37.537000	0.001875	0.001792	-0.013871	0.000546	4456.302788	19008.305067	3209.160085	10157.030025
38.036500	-0.002762	-0.000481	0.010840	-0.001560	4447.399929	19002.151800	3231.345915	10192.277330
38.550500	0.002588	0.000024	-0.002848	-0.000942	4464.086596	18997.995716	3219.339947	10181.914705
39.037500	0.000417	-0.000069	0.009891	-0.000036	4453.217181	18961.236772	3229.242942	10166.757679
39.534500	-0.000124	-0.000189	-0.003472	-0.001062	4454.925132	18994.591522	3218.924768	10183.931430
40.035500	0.004310	0.001034	0.005798	-0.000566	4468.868395	19021.361698	3226.232082	10175.616454
40.555000	0.001597	-0.000674	-0.004941	0.004449	4441.621165	18775.165929	3213.215666	10092.154924
41.035500	-0.002203	0.001351	0.001187	0.002949	4433.604644	18903.777442	3219.458808	10117.011147
41.536500	-0.001258	-0.001203	-0.009305	0.001594	4441.621907	18859.910074	3211.992886	10139.556520
42.036500	-0.001518	-0.000072	-0.011474	0.000620	4444.117478	18936.982667	3211.027504	10155.785258
42.553000	-0.000590	0.000023	0.003214	0.004911	4432.391914	18783.709984	3219.512756	10084.513993
43.037000	0.000761	-0.000205	-0.003695	-0.000629	4456.517369	18978.051743	3218.383808	10176.676886
43.537500	-0.001197	0.001169	0.000061	0.000036	4447.289254	19004.138912	3220.937867	10165.551865
44.035000	0.005809	0.000593	-0.000183	-0.002614	4481.537859	19080.799753	3222.938193	10209.982308
44.535500	0.004968	0.000855	0.002873	-0.004329	4484.678606	19154.232806	3226.938329	10238.891837
45.035500	-0.003401	-0.003831	-0.000073	0.033372	4327.596093	17651.349103	3194.228689	9629.137415
45.536000	-0.028955	-0.019088	0.003044	0.129919	3983.586485	14324.168682	3129.696487	8288.919317
46.036000	-0.040810	-0.025701	0.004699	0.143149	3924.116792	13818.056550	3122.625243	8127.397988
46.536000	-0.027247	-0.018446	-0.002054	-0.089342	4686.429818	21794.307564	3301.074351	11824.512657
47.036500	-0.017737	-0.015613	-0.005137	-0.182556	5156.738793	26448.160834	3402.608894	13959.764575
47.537000	-0.010015	-0.011274	-0.001886	-0.142050	4994.397294	24573.926648	3358.072929	12975.380667
48.034000	-0.015961	-0.010971	0.002571	-0.114371	4840.141291	23255.520631	3332.183971	12353.626692
48.540000	-0.024964	-0.010837	-0.003027	-0.100769	4742.956002	22636.782208	3311.799149	12062.290968
49.035000	-0.014685	-0.005079	0.003285	-0.079529	4697.620239	21948.819148	3296.562037	11625.243539
49.535000	-0.009928	-0.003578	-0.000888	-0.090464	4762.880504	22499.475924	3303.399552	11847.582965
50.035500	-0.012049	-0.002759	0.005576	-0.078271	4703.258682	21995.240178	3297.599545	11600.030379
50.536000	-0.008649	-0.000925	0.001270	-0.053617	4618.277182	21022.490277	3269.424976	11120.202915
51.035500	-0.003731	0.000017	0.007045	-0.052754	4634.169856	21025.764226	3274.072677	11103.897739
51.535500	-0.003994	0.001592	-0.010003	-0.031872	4552.898585	20241.650878	3239.513125	10719.029221
52.036500	-0.000135	0.002982	-0.006518	-0.020135	4523.613800	19835.496611	3232.385368	10510.685137
52.537000	-0.010454	0.002493	-0.005578	-0.013677	4462.997881	19568.250392	3227.694771	10398.440029
53.039500	-0.007079	0.004712	-0.001779	-0.011926	4468.763402	19586.101857	3229.428300	10368.285765
53.535000	-0.006037	0.005764	-0.019003	-0.013205	4477.043616	19675.419112	3216.141852	10390.305112
54.045500	-0.007197	0.005570	-0.001277	-0.016513	4484.743528	19795.475016	3233.773142	10447.531161
54.536000	-0.014151	0.004275	-0.010591	-0.013513	4449.378589	19630.123987	3223.347674	10395.606644
55.039000	-0.007790	0.006064	-0.002669	-0.017330	4485.551357	19846.289438	3233.280346	10461.739326
55.536000	-0.002809	0.007211	0.003025	-0.016546	4500.714712	19860.390784	3237.514968	10448.104076
56.036500	-0.007324	0.006042	0.010459	-0.017368	4487.361682	19846.871168	3244.743701	10462.388135
56.536000	-0.003143	0.007248	0.005161	-0.008842	4471.796488	19565.170298	3232.715648	10315.479582
57.037000	-0.006062	0.008226	0.004026	-0.011100	4469.444004	19689.159977	3233.679224	10354.112825
57.537500	-0.003260	0.006893	0.009132	-0.010597	4477.647684	19618.698472	3237.651335	10345.487533
58.037000	-0.002551	0.007869	-0.000734	-0.007383	4468.711474	19533.250574	3226.471457	10290.626185
58.535000	-0.008471	0.006822	-0.006096	-0.001458	4427.151357	19269.823816	3217.092431	10190.570586
59.035500	-0.004028	0.006619	0.007142	-0.003883	4451.112381	19353.350136	3230.175120	10231.361995
59.535500	-0.007533	0.007332	-0.002341	-0.002323	4433.405874	19321.457549	3220.901959	10205.094506
60.036500	-0.004144	0.005043	-0.007616	-0.002286	4445.098088	19234.194220	3216.524428	10204.461552
60.536500	-0.006223	0.006375	-0.002636	0.000492	4428.179497	19180.225858	3218.332873	10157.923719
61.036500	-0.008969	0.005074	0.007668	0.001449	4415.408747	19096.262132	3226.110295	10141.960022
61.536500	-0.003922	0.004989	0.002036	0.002733	4428.389236	19045.575775	3220.338759	10120.595495
62.037000	-0.003449	0.006272	0.012328	0.005616	4420.066432	18986.572068	3226.525250	10072.869148
62.540000	-0.002984	0.006059	-0.004135	0.006786	4417.636919	18935.718699	3211.974777	10053.579376
63.038000	-0.001643	0.006902	0.004338	0.009868	4411.662696	18853.757247	3216.361018	10003.037995
63.534000	-0.003384	0.007020	0.009493	0.010729	4402.773474	18826.632210	3219.893972	9988.978612
64.035500	-0.004569	0.005930	0.003317	0.010741	4398.706120	18786.511939	3214.813965	9988.790336
64.535500	-0.005464	0.006687	-0.004570	0.012815	4388.655305	18738.674138	3206.787545	9955.035150
65.036000	-0.006028	0.007547	0.001372	0.013378	4384.861576	18749.466031	3211.099629	9945.910761
65.536500	-0.004524	0.006478	0.013344	0.013926	4388.080586	18690.879880	3220.434398	9937.021214
66.036500	-0.000584	0.007155	0.008194	0.014902	4398.110205	18680.090514	3215.398717	9921.249038
66.534000	-0.004809	0.006089	0.005836	0.019253	4369.282745	18485.619317	3209.962953	9851.304330
67.037500	-0.005796	0.007160	0.011829	0.016101	4376.505026	18637.021437	3217.392588	9901.900006
67.537000	-0.007095	0.005181	0.008604	0.015379	4374.576959	18591.802722	3215.343271	9913.541690
68.035000	-0.003096	0.005632	0.000529	0.016801	4383.210197	18556.972277	3207.675019	9890.634751
68.535000	-0.007344	0.006551	0.011875	0.023647	4346.406335	18345.976883	3211.287914	9781.386452
69.035000	-0.005574	0.005060	0.016225	0.017687	4371.949863	18504.769449	3219.706290	9876.393317
69.535500	-0.005760	0.005463	0.003281	0.019100	4366.628424	18468.761079	3208.036852	9853.750938
70.036000	-0.005373	0.005810	0.007308	0.019825	4365.509915	18455.285921	3210.687755	9842.169355
70.536500	-0.007406	0.006469	0.005764	0.024948	4341.949545	18297.184693	3205.357701	9760.821831
71.037000	-0.004064	0.007487	0.001932	0.020689	4366.983276	18484.260061	3205.696176	9828.375853
71.534000	-0.002575	0.007292	0.006515	0.022818	4364.857625	18401.587806	3207.650300	9794.519323
72.040500	-0.005370	0.005147	0.005973	0.021011	4361.587873	18389.595172	3208.662039	9823.250024
72.535000	-0.007994	0.005993	0.005885	0.025476	4338.308537	18261.816409	3205.034254	9752.484354
73.035500	-0.005802	0.007009	-0.003182	0.024269	4349.424599	18340.177379	3198.861517	9771.548373
73.535500	-0.008073	0.006190	0.006413	0.022914	4346.421059	18359.140082	3207.492518	9793.005185
74.036000	-0.007002	0.006027	0.004959	0.022133	4352.499534	18381.034032	3206.956000	9805.404361
74.536000	-0.008279	0.005985	-0.002481	0.026191	4335.056670	18236.418528	3197.912659	9741.228394
75.036000	-0.005396	0.005545	0.006279	0.024713	4349.296631	18272.888236	3205.952678	9764.524455
75.536000	-0.007037	0.005670	-0.001691	0.024376	4345.024233	18289.180199	3199.940872	9769.857691
76.037000	-0.004786	0.004920	0.009679	0.023717	4354.577900	18285.951092	3209.463547	9780.276628
76.537500	-0.009287	0.005204	0.005135	0.027841	4326.446655	18151.327542	3202.575164	9715.305210
77.034000	-0.007198	0.007289	0.011086	0.026994	4335.961389	18254.033163	3207.966000	9728.601838
77.535000	-0.007778	0.005277	0.012619	0.025049	4340.404592	18251.656199	3210.757023	9759.228040
78.036000	-0.005782	0.006922	0.009047	0.026563	4341.979733	18256.256866	3206.683488	9735.375845
78.535500	-0.005590	0.006321	0.010705	0.026334	4343.352547	18243.205436	3208.188695	9738.973399
79.036000	-0.008026	0.006921	0.012389	0.029012	4326.735496	18170.397345	3207.394848	9696.963757
79.536000	-0.004389	0.006646	0.012829	0.027513	4343.425425	18213.238271	3208.946411	9720.455464
80.036000	-0.001820	0.006282	0.011899	0.028115	4349.869374	18179.433445	3207.720171	9711.010538
80.536500	-0.007436	0.006571	-0.008975	0.030657	4323.334910	18100.850696	3189.512994	9671.298724
81.037000	-0.002530	0.008267	-0.008853	0.031879	4335.254205	18117.339535	3188.680829	9652.283526
81.540500	-0.004295	0.007169	0.006254	0.030174	4335.060327	18138.481063	3201.620609	9678.819844
82.035500	-0.002370	0.007703	0.013000	0.030503	4340.254736	18145.643175	3206.693782	9673.697353
82.535000	-0.000005	0.006740	0.003058	0.031248	4345.548407	18086.133305	3198.286526	9662.087374
83.036000	-0.007069	0.006941	0.000808	0.032219	4319.488660	18059.449264	3195.793472	9647.009550
83.536000	-0.002968	0.005718	-0.004313	0.030865	4337.128120	18063.956346	3192.900423	9668.050860
84.102000	-0.001739	0.006621	0.018970	0.031944	4337.614991	18057.839462	3210.318933	9651.268576
84.538500	0.000662	0.006642	0.006326	0.032085	4344.994538	18053.695646	3200.181142	9649.088696
85.050000	-0.003531	0.005759	0.010176	0.032417	4330.263408	18011.620124	3202.940905	9643.931730
85.536500	0.000073	0.006304	0.006860	0.032607	4341.363560	18023.935849	3200.190454	9640.990989
86.040000	-0.003969	0.005495	0.010513	0.032373	4328.988917	18004.031977	3203.241216	9644.621148
86.537500	-0.006463	0.006409	0.009303	0.036256	4308.507730	17901.736717	3199.249498	9584.630481
87.035000	-0.005297	0.006702	0.002296	0.034725	4317.130740	17964.504276	3195.008714	9608.214053
87.534500	-0.001480	0.005922	0.012739	0.034384	4330.535204	17949.393883	3203.410789	9613.486585
