sample name	sample
index	1156
start time	 04-22-2021  03:48:22 PM


Wavelength (nm)	Absorbance
494.344910	-0.252387
494.563924	-0.252387
494.782919	-0.252387
495.001897	-0.038948
495.220856	-0.191260
495.439797	0.008144
495.658719	0.047883
495.877624	-0.105711
496.096510	-0.079321
496.315378	-0.081364
496.534227	0.025846
496.753059	0.209944
496.971872	0.313753
497.190667	0.095040
497.409444	0.086645
497.628203	0.081992
497.846943	0.083077
498.065665	0.082842
498.284369	0.082276
498.503055	0.081535
498.721723	0.081923
498.940372	0.081685
499.159003	0.081784
499.377616	0.082393
499.596210	0.083535
499.814787	0.083229
500.033345	0.083976
500.251885	0.083370
500.470406	0.083663
500.688910	0.084460
500.907395	0.084490
501.125862	0.083875
501.344311	0.083148
501.562742	0.083576
501.781154	0.083519
501.999548	0.082196
502.217924	0.082880
502.436282	0.083288
502.654621	0.082105
502.872942	0.082376
503.091245	0.082579
503.309530	0.082210
503.527797	0.081547
503.746045	0.082200
503.964275	0.083816
504.182487	0.083515
504.400681	0.083177
504.618856	0.083771
504.837013	0.083235
505.055152	0.082938
505.273273	0.082802
505.491376	0.082504
505.709460	0.082856
505.927526	0.083102
506.145574	0.082904
506.363604	0.081637
506.581615	0.082367
506.799608	0.082478
507.017583	0.082156
507.235540	0.081315
507.453478	0.081564
507.671399	0.081549
507.889301	0.082051
508.107185	0.082896
508.325050	0.084030
508.542898	0.081933
508.760727	0.082385
508.978538	0.082461
509.196330	0.083557
509.414105	0.084006
509.631861	0.084125
509.849599	0.082166
510.067319	0.081166
510.285021	0.081601
510.502704	0.082280
510.720369	0.082468
510.938016	0.082375
511.155645	0.082603
511.373255	0.081624
511.590848	0.081407
511.808422	0.081778
512.025977	0.082678
512.243515	0.082736
512.461034	0.083731
512.678536	0.083001
512.896018	0.083632
513.113483	0.083465
513.330930	0.084589
513.548358	0.084051
513.765768	0.083992
513.983160	0.084063
514.200533	0.083296
514.417889	0.082688
514.635226	0.083687
514.852545	0.084133
515.069845	0.083681
515.287128	0.082881
515.504392	0.083566
515.721638	0.084325
515.938866	0.084592
516.156075	0.086120
516.373267	0.085933
516.590440	0.085606
516.807594	0.085426
517.024731	0.086187
517.241850	0.086676
517.458950	0.086552
517.676032	0.086437
517.893095	0.086393
518.110141	0.086250
518.327168	0.086964
518.544177	0.087197
518.761168	0.087617
518.978141	0.087275
519.195095	0.088066
519.412031	0.088185
519.628949	0.089062
519.845849	0.089076
520.062731	0.089290
520.279594	0.089276
520.496439	0.089772
520.713266	0.089375
520.930074	0.089668
521.146865	0.089385
521.363637	0.089065
521.580391	0.088325
521.797127	0.088598
522.013844	0.088448
522.230543	0.088865
522.447224	0.089223
522.663887	0.089923
522.880532	0.090209
523.097158	0.090208
523.313766	0.091034
523.530356	0.091358
523.746928	0.091154
523.963481	0.090669
524.180017	0.090486
524.396534	0.089848
524.613032	0.089610
524.829513	0.089227
525.045975	0.089780
525.262420	0.090242
525.478845	0.090762
525.695253	0.091312
525.911643	0.091513
526.128014	0.091944
526.344367	0.092410
526.560702	0.092799
526.777018	0.092809
526.993316	0.092657
527.209597	0.092304
527.425858	0.091604
527.642102	0.091648
527.858328	0.091629
528.074535	0.092104
528.290724	0.092806
528.506894	0.093170
528.723047	0.094072
528.939181	0.094319
529.155297	0.094744
529.371395	0.095512
529.587475	0.095926
529.803536	0.096240
530.019579	0.096424
530.235604	0.096179
530.451611	0.095686
530.667600	0.095560
530.883570	0.094712
531.099522	0.094430
531.315456	0.093699
531.531372	0.093359
531.747269	0.093669
531.963148	0.093937
532.179009	0.093155
532.394852	0.093309
532.610676	0.092780
532.826482	0.093975
533.042271	0.094325
533.258040	0.095278
533.473792	0.095492
533.689525	0.095572
533.905240	0.094387
534.120937	0.095069
534.336616	0.095731
534.552277	0.096578
534.767919	0.096461
534.983543	0.096666
535.199149	0.096679
535.414736	0.096828
535.630306	0.096969
535.845857	0.097285
536.061390	0.097325
536.276904	0.097093
536.492401	0.097351
536.707879	0.097435
536.923339	0.097223
537.138781	0.096701
537.354204	0.096651
537.569610	0.096733
537.784997	0.097245
538.000366	0.097121
538.215716	0.097042
538.431049	0.096702
538.646363	0.096583
538.861659	0.096658
539.076937	0.096739
539.292196	0.097022
539.507438	0.096867
539.722661	0.096927
539.937866	0.097791
540.153052	0.098642
540.368221	0.099042
540.583371	0.099284
540.798503	0.099448
541.013617	0.100134
541.228712	0.100056
541.443789	0.100090
541.658848	0.100438
541.873889	0.100453
542.088912	0.099993
542.303916	0.100157
542.518902	0.100161
542.733870	0.100713
542.948820	0.100736
543.163752	0.100928
543.378665	0.101381
543.593560	0.101108
543.808437	0.101058
544.023295	0.101261
544.238136	0.101169
544.452958	0.101588
544.667762	0.101578
544.882548	0.101895
545.097315	0.102149
545.312064	0.102763
545.526795	0.103036
545.741508	0.103290
545.956203	0.102996
546.170879	0.103460
546.385537	0.103822
546.600177	0.103497
546.814799	0.103657
547.029402	0.103733
547.243988	0.103160
547.458555	0.103620
547.673103	0.103190
547.887634	0.104056
548.102146	0.104077
548.316640	0.104332
548.531116	0.104401
548.745574	0.104379
548.960013	0.104389
549.174435	0.104803
549.388838	0.104376
549.603222	0.104512
549.817589	0.103944
550.031937	0.104013
550.246267	0.102922
550.460579	0.103171
550.674873	0.102794
550.889148	0.102932
551.103405	0.103034
551.317644	0.102857
551.531865	0.102954
551.746068	0.103252
551.960252	0.103020
552.174418	0.103774
552.388566	0.104291
552.602696	0.104714
552.816807	0.104656
553.030900	0.104534
553.244975	0.104684
553.459032	0.105285
553.673070	0.105513
553.887091	0.105511
554.101093	0.105980
554.315077	0.105987
554.529042	0.106176
554.742990	0.106148
554.956919	0.106070
555.170830	0.106469
555.384722	0.106431
555.598597	0.106180
555.812453	0.106409
556.026291	0.105833
556.240111	0.105203
556.453913	0.105117
556.667696	0.105073
556.881461	0.105281
557.095208	0.105216
557.308937	0.104822
557.522647	0.105127
557.736339	0.105108
557.950013	0.105339
558.163669	0.105386
558.377307	0.105270
558.590926	0.105355
558.804527	0.105176
559.018110	0.105209
559.231675	0.105167
559.445221	0.105299
559.658749	0.105574
559.872259	0.105627
560.085751	0.105691
560.299225	0.105986
560.512680	0.106218
560.726117	0.106372
560.939536	0.106523
561.152937	0.106883
561.366319	0.106801
561.579683	0.106587
561.793029	0.106371
562.006357	0.106806
562.219667	0.106956
562.432958	0.107210
562.646231	0.107228
562.859486	0.107306
563.072723	0.107101
563.285941	0.107038
563.499141	0.107308
563.712323	0.107873
563.925487	0.108020
564.138632	0.107851
564.351760	0.107943
564.564869	0.108171
564.777960	0.108409
564.991032	0.108552
565.204087	0.108665
565.417123	0.108638
565.630141	0.108621
565.843140	0.108584
566.056122	0.108815
566.269085	0.108526
566.482030	0.108254
566.694957	0.107879
566.907866	0.108011
567.120756	0.108274
567.333628	0.107995
567.546482	0.107952
567.759318	0.107886
567.972135	0.107558
568.184935	0.107889
568.397716	0.108276
568.610478	0.108538
568.823223	0.109015
569.035949	0.108680
569.248657	0.109415
569.461347	0.109498
569.674019	0.109488
569.886672	0.109550
570.099308	0.109397
570.311925	0.109204
570.524523	0.109609
570.737104	0.109370
570.949666	0.109572
571.162210	0.109364
571.374736	0.109452
571.587244	0.109558
571.799733	0.109821
572.012205	0.109926
572.224658	0.110024
572.437092	0.109906
572.649509	0.109690
572.861907	0.109548
573.074287	0.109608
573.286649	0.109257
573.498993	0.109166
573.711318	0.109050
573.923625	0.108984
574.135914	0.108991
574.348185	0.108762
574.560438	0.109006
574.772672	0.108971
574.984888	0.108727
575.197086	0.108835
575.409266	0.108937
575.621427	0.109388
575.833570	0.109642
576.045695	0.109712
576.257802	0.109684
576.469890	0.109958
576.681961	0.110330
576.894013	0.110359
577.106046	0.110208
577.318062	0.110882
577.530059	0.110647
577.742039	0.110286
577.954000	0.110557
578.165942	0.110761
578.377867	0.110608
578.589773	0.110839
578.801661	0.111205
579.013531	0.111560
579.225382	0.111255
579.437216	0.111288
579.649031	0.111738
579.860828	0.111587
580.072606	0.111622
580.284367	0.111468
580.496109	0.111204
580.707833	0.111035
580.919539	0.111482
581.131227	0.111588
581.342896	0.112068
581.554547	0.112260
581.766180	0.112328
581.977795	0.112218
582.189391	0.112618
582.400969	0.113048
582.612529	0.112927
582.824071	0.112807
583.035595	0.112529
583.247100	0.111961
583.458587	0.111677
583.670056	0.111622
583.881506	0.112062
584.092939	0.112000
584.304353	0.111678
584.515749	0.111870
584.727127	0.111534
584.938486	0.111501
585.149828	0.111657
585.361151	0.111997
585.572456	0.112140
585.783742	0.112132
585.995011	0.112383
586.206261	0.112343
586.417493	0.112865
586.628706	0.113121
586.839902	0.113699
587.051079	0.113740
587.262238	0.113505
587.473379	0.113458
587.684502	0.113304
587.895606	0.113364
588.106692	0.113483
588.317760	0.113288
588.528810	0.113633
588.739841	0.113816
588.950855	0.114108
589.161850	0.114062
589.372827	0.114268
589.583785	0.114397
589.794726	0.114429
590.005648	0.114557
590.216552	0.114164
590.427437	0.114084
590.638305	0.113508
590.849154	0.113447
591.059985	0.113362
591.270798	0.113688
591.481592	0.113753
591.692369	0.113764
591.903127	0.113810
592.113867	0.114061
592.324588	0.114330
592.535292	0.114448
592.745977	0.114949
592.956644	0.115718
593.167293	0.115618
593.377923	0.115604
593.588536	0.115462
593.799130	0.115485
594.009706	0.115814
594.220263	0.115786
594.430803	0.116083
594.641324	0.115577
594.851827	0.115510
595.062312	0.115729
595.272778	0.116072
595.483227	0.116100
595.693657	0.116154
595.904069	0.115937
596.114462	0.115606
596.324838	0.115548
596.535195	0.115772
596.745534	0.115689
596.955855	0.115397
597.166157	0.115367
597.376441	0.115404
597.586707	0.115813
597.796955	0.115898
598.007185	0.116055
598.217396	0.116263
598.427589	0.116277
598.637764	0.116162
598.847921	0.116607
599.058060	0.116364
599.268180	0.116453
599.478282	0.116275
599.688366	0.116507
599.898431	0.116165
600.108479	0.116126
600.318508	0.116452
600.528519	0.116423
600.738511	0.116230
600.948486	0.116240
601.158442	0.116128
601.368380	0.115747
601.578300	0.115216
601.788202	0.115567
601.998085	0.115440
602.207950	0.115190
602.417797	0.115286
602.627626	0.115241
602.837436	0.115433
603.047228	0.115578
603.257002	0.115989
603.466758	0.116648
603.676496	0.116769
603.886215	0.117274
604.095916	0.117399
604.305599	0.117535
604.515264	0.117667
604.724910	0.117765
604.934538	0.117753
605.144148	0.117605
605.353740	0.117604
605.563314	0.117790
605.772869	0.117456
605.982406	0.117368
606.191925	0.117563
606.401425	0.117646
606.610908	0.117674
606.820372	0.117942
607.029818	0.118105
607.239246	0.118161
607.448655	0.118350
607.658047	0.118472
607.867420	0.118464
608.076775	0.118489
608.286111	0.118647
608.495430	0.118615
608.704730	0.118439
608.914012	0.118428
609.123275	0.118449
609.332521	0.118172
609.541748	0.118380
609.750957	0.118215
609.960148	0.118047
610.169321	0.117836
610.378475	0.117852
610.587611	0.117873
610.796729	0.117821
611.005829	0.117963
611.214910	0.117967
611.423974	0.117748
611.633019	0.117900
611.842045	0.117982
612.051054	0.118259
612.260044	0.118351
612.469017	0.118449
612.677970	0.118931
612.886906	0.118974
613.095824	0.119142
613.304723	0.119322
613.513604	0.119296
613.722467	0.119560
613.931311	0.119773
614.140138	0.120045
614.348946	0.120115
614.557736	0.120093
614.766507	0.120191
614.975261	0.120296
615.183996	0.120646
615.392713	0.121044
615.601412	0.120820
615.810092	0.120487
616.018754	0.120446
616.227399	0.120602
616.436024	0.120435
616.644632	0.120196
616.853222	0.120416
617.061793	0.120027
617.270346	0.119996
617.478880	0.120386
617.687397	0.120693
617.895895	0.120834
618.104375	0.120876
618.312837	0.121200
618.521281	0.121385
618.729706	0.121538
618.938113	0.121973
619.146502	0.121953
619.354873	0.121788
619.563226	0.121658
619.771560	0.121558
619.979876	0.121629
620.188174	0.121525
620.396453	0.121380
620.604715	0.121160
620.812958	0.121048
621.021183	0.121126
621.229390	0.121092
621.437578	0.121184
621.645748	0.121280
621.853900	0.121284
622.062034	0.121281
622.270150	0.121638
622.478247	0.121755
622.686326	0.121630
622.894387	0.121732
623.102430	0.122093
623.310454	0.122079
623.518461	0.121869
623.726449	0.121821
623.934418	0.122002
624.142370	0.121938
624.350303	0.121955
624.558218	0.121942
624.766115	0.122115
624.973994	0.121768
625.181855	0.121938
625.389697	0.122336
625.597521	0.122335
625.805327	0.122542
626.013114	0.122425
626.220883	0.122337
626.428634	0.122550
626.636367	0.122599
626.844082	0.122923
627.051778	0.123053
627.259457	0.123026
627.467117	0.123513
627.674758	0.123566
627.882382	0.123861
628.089987	0.124046
628.297574	0.124167
628.505143	0.124121
628.712694	0.124048
628.920226	0.124240
629.127740	0.124322
629.335236	0.124093
629.542714	0.124210
629.750174	0.124648
629.957615	0.124573
630.165038	0.124552
630.372443	0.124457
630.579829	0.124444
630.787198	0.124169
630.994548	0.124305
631.201880	0.124474
631.409194	0.124123
631.616489	0.123826
631.823766	0.124065
632.031025	0.124286
632.238266	0.124555
632.445489	0.124681
632.652693	0.124777
632.859879	0.125006
633.067047	0.125005
633.274197	0.125439
633.481329	0.125465
633.688442	0.125527
633.895537	0.125515
634.102614	0.125647
634.309672	0.125919
634.516713	0.126188
634.723735	0.126155
634.930739	0.126280
635.137724	0.126078
635.344692	0.126137
635.551641	0.126060
635.758572	0.126033
635.965485	0.125762
636.172379	0.125575
636.379256	0.125505
636.586114	0.125376
636.792954	0.125386
636.999775	0.125741
637.206579	0.125782
637.413364	0.126110
637.620131	0.126159
637.826880	0.126584
638.033610	0.126864
638.240323	0.127071
638.447017	0.127211
638.653692	0.127291
638.860350	0.127111
639.066990	0.127280
639.273611	0.127297
639.480214	0.127498
639.686798	0.127498
639.893365	0.127411
640.099913	0.127375
640.306443	0.127440
640.512955	0.127481
640.719449	0.127462
640.925924	0.127202
641.132381	0.127323
641.338820	0.127603
641.545241	0.127808
641.751644	0.128023
641.958028	0.128099
642.164394	0.128030
642.370742	0.128300
642.577071	0.128611
642.783383	0.128890
642.989676	0.128855
643.195951	0.128681
643.402207	0.128538
643.608446	0.128729
643.814666	0.128905
644.020868	0.129053
644.227052	0.129095
644.433218	0.129201
644.639365	0.129250
644.845494	0.129318
645.051605	0.129411
645.257698	0.129706
645.463772	0.129762
645.669828	0.129843
645.875866	0.130084
646.081886	0.130107
646.287888	0.130044
646.493871	0.130338
646.699836	0.130519
646.905783	0.130535
647.111712	0.130428
647.317622	0.130508
647.523514	0.130523
647.729388	0.130608
647.935244	0.130676
648.141082	0.130798
648.346901	0.130865
648.552702	0.130815
648.758485	0.131029
648.964250	0.131028
649.169996	0.131185
649.375724	0.131171
649.581434	0.131093
649.787126	0.131054
649.992800	0.131173
650.198455	0.131218
650.404092	0.131510
650.609711	0.131376
650.815311	0.131621
651.020894	0.131628
651.226458	0.131850
651.432004	0.131984
651.637532	0.132169
651.843041	0.132334
652.048532	0.132571
652.254006	0.132741
652.459460	0.133143
652.664897	0.133312
652.870315	0.133475
653.075716	0.133252
653.281097	0.133289
653.486461	0.133428
653.691807	0.133338
653.897134	0.133125
654.102443	0.132924
654.307734	0.132733
654.513006	0.132737
654.718261	0.132524
654.923497	0.132821
655.128715	0.132803
655.333915	0.132699
655.539096	0.132870
655.744259	0.132931
655.949404	0.133023
656.154531	0.133037
656.359640	0.132984
656.564730	0.133163
656.769802	0.133334
656.974856	0.133620
657.179892	0.134105
657.384909	0.134157
657.589908	0.134489
657.794889	0.134639
657.999852	0.135027
658.204797	0.135131
658.409723	0.135446
658.614631	0.135633
658.819521	0.135654
659.024393	0.135411
659.229246	0.135409
659.434081	0.135514
659.638898	0.135774
659.843697	0.135869
660.048478	0.136200
660.253240	0.136123
660.457984	0.136138
660.662710	0.136372
660.867417	0.136600
661.072107	0.136976
661.276778	0.136981
661.481431	0.136860
661.686066	0.136901
661.890682	0.136754
662.095281	0.136996
662.299861	0.136959
662.504422	0.136948
662.708966	0.137188
662.913491	0.137281
663.117999	0.137148
663.322488	0.137355
663.526958	0.137293
663.731411	0.137411
663.935845	0.137391
664.140261	0.137502
664.344659	0.137415
664.549038	0.137338
664.753400	0.137292
664.957743	0.137455
665.162068	0.137347
665.366375	0.137587
665.570663	0.137829
665.774933	0.137963
665.979185	0.138185
666.183419	0.138473
666.387635	0.138722
666.591832	0.138544
666.796011	0.138852
667.000172	0.138893
667.204315	0.139034
667.408439	0.139073
667.612545	0.139133
667.816634	0.139395
668.020703	0.139495
668.224755	0.139648
668.428788	0.139855
668.632803	0.139930
668.836800	0.140192
669.040779	0.140186
669.244739	0.140375
669.448681	0.140614
669.652605	0.140572
669.856511	0.140868
670.060399	0.140930
670.264268	0.141303
670.468119	0.141501
670.671952	0.141799
670.875767	0.141936
671.079563	0.142119
671.283341	0.141912
671.487101	0.141977
671.690843	0.141945
671.894567	0.142024
672.098272	0.142196
672.301959	0.142184
672.505628	0.142130
672.709278	0.142576
672.912911	0.142653
673.116525	0.142981
673.320121	0.143201
673.523699	0.143204
673.727258	0.143058
673.930799	0.142960
674.134322	0.143258
674.337827	0.143299
674.541314	0.143081
674.744782	0.143201
674.948232	0.143287
675.151664	0.143132
675.355078	0.143208
675.558474	0.143435
675.761851	0.143669
675.965210	0.143608
676.168551	0.143958
676.371873	0.144280
676.575178	0.144449
676.778464	0.144512
676.981732	0.144803
677.184981	0.145123
677.388213	0.145451
677.591426	0.145597
677.794621	0.145882
677.997798	0.145951
678.200956	0.146038
678.404097	0.145918
678.607219	0.146219
678.810323	0.146304
679.013408	0.146252
679.216476	0.146218
679.419525	0.146289
679.622556	0.146284
679.825569	0.146423
680.028563	0.146480
680.231540	0.146683
680.434498	0.146541
680.637438	0.146528
680.840359	0.146844
681.043263	0.146723
681.246148	0.146764
681.449015	0.146705
681.651864	0.146694
681.854694	0.146755
682.057506	0.146833
682.260301	0.146987
682.463076	0.147313
682.665834	0.147322
682.868573	0.147524
683.071295	0.147595
683.273998	0.147904
683.476682	0.148035
683.679349	0.148015
683.881997	0.148259
684.084627	0.148321
684.287239	0.148277
684.489833	0.148474
684.692408	0.148395
684.894965	0.148447
685.097504	0.148362
685.300025	0.148119
685.502527	0.148265
685.705012	0.148044
685.907478	0.148100
686.109925	0.147957
686.312355	0.147890
686.514766	0.148057
686.717159	0.148105
686.919534	0.148278
687.121891	0.148585
687.324230	0.148664
687.526550	0.148863
687.728852	0.148846
687.931136	0.149157
688.133401	0.149171
688.335649	0.149452
688.537878	0.149447
688.740089	0.149527
688.942281	0.149542
689.144456	0.149627
689.346612	0.149640
689.548750	0.149882
689.750870	0.149939
689.952971	0.149917
690.155055	0.150005
690.357120	0.150285
690.559167	0.150210
690.761195	0.150283
690.963206	0.150341
691.165198	0.150306
691.367172	0.150351
691.569128	0.150260
691.771065	0.150332
691.972984	0.149961
692.174885	0.149841
692.376768	0.149904
692.578633	0.149794
692.780479	0.149858
692.982308	0.150073
693.184118	0.150283
693.385909	0.150461
