sample name	sample
index	1522
start time	 05-18-2021  03:32:26 PM


Wavelength (nm)	Absorbance
494.344910	0.232475
494.563924	0.232475
494.782919	0.232475
495.001897	-0.188852
495.220856	0.169665
495.439797	0.207832
495.658719	0.231968
495.877624	0.149322
496.096510	0.209910
496.315378	0.083557
496.534227	0.085059
496.753059	0.078211
496.971872	0.054948
497.190667	0.153709
497.409444	0.169314
497.628203	0.174495
497.846943	0.177171
498.065665	0.178223
498.284369	0.180799
498.503055	0.179753
498.721723	0.181087
498.940372	0.181171
499.159003	0.181063
499.377616	0.181725
499.596210	0.181758
499.814787	0.181513
500.033345	0.182169
500.251885	0.183014
500.470406	0.183691
500.688910	0.183540
500.907395	0.184629
501.125862	0.184094
501.344311	0.182457
501.562742	0.182183
501.781154	0.184122
501.999548	0.184238
502.217924	0.183868
502.436282	0.183886
502.654621	0.183169
502.872942	0.182831
503.091245	0.182326
503.309530	0.183216
503.527797	0.184677
503.746045	0.183358
503.964275	0.182361
504.182487	0.182148
504.400681	0.181457
504.618856	0.181934
504.837013	0.182929
505.055152	0.184384
505.273273	0.184034
505.491376	0.183497
505.709460	0.184387
505.927526	0.185780
506.145574	0.186509
506.363604	0.187664
506.581615	0.188441
506.799608	0.187308
507.017583	0.186409
507.235540	0.187157
507.453478	0.186738
507.671399	0.186537
507.889301	0.187269
508.107185	0.186839
508.325050	0.187285
508.542898	0.186690
508.760727	0.187981
508.978538	0.188800
509.196330	0.188118
509.414105	0.188880
509.631861	0.189112
509.849599	0.187950
510.067319	0.188149
510.285021	0.187185
510.502704	0.187495
510.720369	0.187418
510.938016	0.188144
511.155645	0.188269
511.373255	0.188080
511.590848	0.187799
511.808422	0.188413
512.025977	0.188279
512.243515	0.189775
512.461034	0.189172
512.678536	0.189449
512.896018	0.189447
513.113483	0.189841
513.330930	0.190392
513.548358	0.190292
513.765768	0.190425
513.983160	0.191265
514.200533	0.190920
514.417889	0.191700
514.635226	0.191717
514.852545	0.191044
515.069845	0.191800
515.287128	0.192071
515.504392	0.193025
515.721638	0.192752
515.938866	0.192448
516.156075	0.192876
516.373267	0.194255
516.590440	0.194321
516.807594	0.194849
517.024731	0.196052
517.241850	0.195709
517.458950	0.195973
517.676032	0.197073
517.893095	0.198214
518.110141	0.198675
518.327168	0.198804
518.544177	0.200065
518.761168	0.200899
518.978141	0.200298
519.195095	0.200524
519.412031	0.200345
519.628949	0.199491
519.845849	0.198830
520.062731	0.200186
520.279594	0.199859
520.496439	0.199203
520.713266	0.199714
520.930074	0.200039
521.146865	0.200766
521.363637	0.201536
521.580391	0.202124
521.797127	0.203006
522.013844	0.202340
522.230543	0.202631
522.447224	0.203286
522.663887	0.203614
522.880532	0.203527
523.097158	0.204329
523.313766	0.205166
523.530356	0.205790
523.746928	0.206193
523.963481	0.206227
524.180017	0.206511
524.396534	0.206685
524.613032	0.206125
524.829513	0.206515
525.045975	0.206164
525.262420	0.205311
525.478845	0.205763
525.695253	0.206278
525.911643	0.206981
526.128014	0.207348
526.344367	0.207418
526.560702	0.208716
526.777018	0.209598
526.993316	0.210182
527.209597	0.211765
527.425858	0.211672
527.642102	0.212116
527.858328	0.211490
528.074535	0.212177
528.290724	0.212436
528.506894	0.212902
528.723047	0.213592
528.939181	0.214101
529.155297	0.213904
529.371395	0.214939
529.587475	0.214959
529.803536	0.215848
530.019579	0.216571
530.235604	0.217039
530.451611	0.216581
530.667600	0.216807
530.883570	0.216966
531.099522	0.217465
531.315456	0.217496
531.531372	0.218182
531.747269	0.218695
531.963148	0.218576
532.179009	0.218877
532.394852	0.219934
532.610676	0.219482
532.826482	0.220305
533.042271	0.220842
533.258040	0.221762
533.473792	0.221619
533.689525	0.221803
533.905240	0.222694
534.120937	0.223408
534.336616	0.223400
534.552277	0.224505
534.767919	0.224016
534.983543	0.223847
535.199149	0.223582
535.414736	0.223763
535.630306	0.224421
535.845857	0.224021
536.061390	0.224202
536.276904	0.224131
536.492401	0.224455
536.707879	0.225049
536.923339	0.225691
537.138781	0.226257
537.354204	0.226210
537.569610	0.226155
537.784997	0.227080
538.000366	0.228039
538.215716	0.229422
538.431049	0.229755
538.646363	0.230067
538.861659	0.230440
539.076937	0.230906
539.292196	0.232019
539.507438	0.232240
539.722661	0.232277
539.937866	0.231968
540.153052	0.231041
540.368221	0.231002
540.583371	0.231823
540.798503	0.232175
541.013617	0.232752
541.228712	0.233538
541.443789	0.234377
541.658848	0.234844
541.873889	0.235420
542.088912	0.236499
542.303916	0.236680
542.518902	0.236903
542.733870	0.237122
542.948820	0.237447
543.163752	0.237622
543.378665	0.237773
543.593560	0.237937
543.808437	0.238179
544.023295	0.238375
544.238136	0.238269
544.452958	0.238029
544.667762	0.238502
544.882548	0.238069
545.097315	0.238123
545.312064	0.238326
545.526795	0.238382
545.741508	0.238709
545.956203	0.239208
546.170879	0.240204
546.385537	0.240853
546.600177	0.240695
546.814799	0.241563
547.029402	0.241371
547.243988	0.241841
547.458555	0.241993
547.673103	0.242231
547.887634	0.242222
548.102146	0.242300
548.316640	0.242692
548.531116	0.243353
548.745574	0.243406
548.960013	0.243535
549.174435	0.243848
549.388838	0.244444
549.603222	0.244746
549.817589	0.245329
550.031937	0.245945
550.246267	0.245800
550.460579	0.245945
550.674873	0.246041
550.889148	0.246328
551.103405	0.246240
551.317644	0.246597
551.531865	0.246639
551.746068	0.247392
551.960252	0.247550
552.174418	0.247668
552.388566	0.248150
552.602696	0.248572
552.816807	0.249406
553.030900	0.249689
553.244975	0.249714
553.459032	0.249844
553.673070	0.249567
553.887091	0.249849
554.101093	0.249975
554.315077	0.249628
554.529042	0.249936
554.742990	0.250135
554.956919	0.250691
555.170830	0.250465
555.384722	0.250877
555.598597	0.250412
555.812453	0.250389
556.026291	0.250923
556.240111	0.251550
556.453913	0.251688
556.667696	0.251637
556.881461	0.251721
557.095208	0.252366
557.308937	0.252645
557.522647	0.253230
557.736339	0.253259
557.950013	0.253624
558.163669	0.253705
558.377307	0.253710
558.590926	0.253854
558.804527	0.254194
559.018110	0.254578
559.231675	0.254260
559.445221	0.254214
559.658749	0.254346
559.872259	0.254650
560.085751	0.254741
560.299225	0.255207
560.512680	0.255482
560.726117	0.255325
560.939536	0.255164
561.152937	0.255782
561.366319	0.256425
561.579683	0.256883
561.793029	0.256919
562.006357	0.257277
562.219667	0.257574
562.432958	0.257719
562.646231	0.257881
562.859486	0.258106
563.072723	0.258506
563.285941	0.258128
563.499141	0.257972
563.712323	0.258077
563.925487	0.258112
564.138632	0.257844
564.351760	0.258501
564.564869	0.258607
564.777960	0.259325
564.991032	0.259431
565.204087	0.260074
565.417123	0.260253
565.630141	0.260392
565.843140	0.260265
566.056122	0.260820
566.269085	0.260864
566.482030	0.261278
566.694957	0.261392
566.907866	0.261210
567.120756	0.261431
567.333628	0.261935
567.546482	0.262132
567.759318	0.262438
567.972135	0.262210
568.184935	0.262059
568.397716	0.262135
568.610478	0.262135
568.823223	0.262199
569.035949	0.262087
569.248657	0.262414
569.461347	0.262842
569.674019	0.262964
569.886672	0.263256
570.099308	0.263692
570.311925	0.264038
570.524523	0.263890
570.737104	0.263999
570.949666	0.264360
571.162210	0.264658
571.374736	0.264644
571.587244	0.265291
571.799733	0.265731
572.012205	0.265720
572.224658	0.265334
572.437092	0.265661
572.649509	0.265907
572.861907	0.265970
573.074287	0.265947
573.286649	0.266288
573.498993	0.266426
573.711318	0.266328
573.923625	0.266659
574.135914	0.267124
574.348185	0.267543
574.560438	0.268087
574.772672	0.268376
574.984888	0.268297
575.197086	0.268348
575.409266	0.268515
575.621427	0.268674
575.833570	0.268959
576.045695	0.269282
576.257802	0.269594
576.469890	0.269896
576.681961	0.270137
576.894013	0.270339
577.106046	0.270493
577.318062	0.270946
577.530059	0.271429
577.742039	0.271213
577.954000	0.271413
578.165942	0.271140
578.377867	0.270987
578.589773	0.271112
578.801661	0.271522
579.013531	0.271865
579.225382	0.271469
579.437216	0.271674
579.649031	0.271681
579.860828	0.271728
580.072606	0.272338
580.284367	0.272488
580.496109	0.272742
580.707833	0.273096
580.919539	0.272784
581.131227	0.273180
581.342896	0.272896
581.554547	0.273420
581.766180	0.274072
581.977795	0.273755
582.189391	0.274548
582.400969	0.274731
582.612529	0.274960
582.824071	0.275507
583.035595	0.275895
583.247100	0.276279
583.458587	0.276592
583.670056	0.276109
583.881506	0.276422
584.092939	0.276656
584.304353	0.276402
584.515749	0.276420
584.727127	0.276512
584.938486	0.276816
585.149828	0.277148
585.361151	0.277039
585.572456	0.277426
585.783742	0.277764
585.995011	0.277499
586.206261	0.278386
586.417493	0.278410
586.628706	0.278801
586.839902	0.278243
587.051079	0.278869
587.262238	0.278977
587.473379	0.279280
587.684502	0.279560
587.895606	0.279438
588.106692	0.279013
588.317760	0.279166
588.528810	0.279104
588.739841	0.280010
588.950855	0.279810
589.161850	0.280106
589.372827	0.280322
589.583785	0.280430
589.794726	0.280762
590.005648	0.280725
590.216552	0.280516
590.427437	0.280667
590.638305	0.280346
590.849154	0.280406
591.059985	0.280983
591.270798	0.281232
591.481592	0.281184
591.692369	0.281640
591.903127	0.282205
592.113867	0.282589
592.324588	0.282854
592.535292	0.283084
592.745977	0.283268
592.956644	0.283277
593.167293	0.283412
593.377923	0.283814
593.588536	0.283970
593.799130	0.284224
594.009706	0.284788
594.220263	0.285187
594.430803	0.285473
594.641324	0.285611
594.851827	0.285350
595.062312	0.285506
595.272778	0.285784
595.483227	0.285747
595.693657	0.286226
595.904069	0.286745
596.114462	0.286792
596.324838	0.286803
596.535195	0.287035
596.745534	0.287796
596.955855	0.287725
597.166157	0.288030
597.376441	0.288690
597.586707	0.288859
597.796955	0.288546
598.007185	0.288959
598.217396	0.289425
598.427589	0.289954
598.637764	0.290031
598.847921	0.290731
599.058060	0.290953
599.268180	0.291017
599.478282	0.290783
599.688366	0.290791
599.898431	0.290640
600.108479	0.290676
600.318508	0.290500
600.528519	0.290743
600.738511	0.290526
600.948486	0.290564
601.158442	0.290332
601.368380	0.290980
601.578300	0.291553
601.788202	0.291821
601.998085	0.292237
602.207950	0.292868
602.417797	0.293049
602.627626	0.293461
602.837436	0.293582
603.047228	0.293772
603.257002	0.293889
603.466758	0.293516
603.676496	0.294026
603.886215	0.294096
604.095916	0.293808
604.305599	0.293568
604.515264	0.293957
604.724910	0.293456
604.934538	0.293769
605.144148	0.293894
605.353740	0.294579
605.563314	0.294535
605.772869	0.294679
605.982406	0.294805
606.191925	0.295169
606.401425	0.294822
606.610908	0.295555
606.820372	0.295593
607.029818	0.295532
607.239246	0.295753
607.448655	0.295697
607.658047	0.295634
607.867420	0.296434
608.076775	0.296965
608.286111	0.297606
608.495430	0.297866
608.704730	0.298250
608.914012	0.298474
609.123275	0.298389
609.332521	0.298919
609.541748	0.299236
609.750957	0.298972
609.960148	0.299220
610.169321	0.299206
610.378475	0.299454
610.587611	0.299863
610.796729	0.300036
611.005829	0.300039
611.214910	0.300353
611.423974	0.300802
611.633019	0.300769
611.842045	0.300472
612.051054	0.300354
612.260044	0.300657
612.469017	0.300629
612.677970	0.300532
612.886906	0.301046
613.095824	0.300827
613.304723	0.300650
613.513604	0.300904
613.722467	0.301205
613.931311	0.301519
614.140138	0.301453
614.348946	0.301759
614.557736	0.302439
614.766507	0.302597
614.975261	0.302958
615.183996	0.303062
615.392713	0.303559
615.601412	0.303734
615.810092	0.304028
616.018754	0.304212
616.227399	0.304087
616.436024	0.304242
616.644632	0.304561
616.853222	0.304645
617.061793	0.305139
617.270346	0.305275
617.478880	0.305546
617.687397	0.305832
617.895895	0.306119
618.104375	0.306235
618.312837	0.306354
618.521281	0.306197
618.729706	0.306491
618.938113	0.306839
619.146502	0.306903
619.354873	0.307050
619.563226	0.307228
619.771560	0.307269
619.979876	0.307837
620.188174	0.307772
620.396453	0.308021
620.604715	0.308018
620.812958	0.307883
621.021183	0.308195
621.229390	0.308449
621.437578	0.308594
621.645748	0.308800
621.853900	0.308951
622.062034	0.309321
622.270150	0.309524
622.478247	0.310207
622.686326	0.310519
622.894387	0.310353
623.102430	0.310505
623.310454	0.310401
623.518461	0.310576
623.726449	0.310760
623.934418	0.310671
624.142370	0.311049
624.350303	0.310879
624.558218	0.311176
624.766115	0.311410
624.973994	0.311580
625.181855	0.311802
625.389697	0.312080
625.597521	0.312026
625.805327	0.312377
626.013114	0.312255
626.220883	0.312307
626.428634	0.312458
626.636367	0.312725
626.844082	0.313089
627.051778	0.313280
627.259457	0.313381
627.467117	0.313417
627.674758	0.313512
627.882382	0.313637
628.089987	0.313789
628.297574	0.313766
628.505143	0.313963
628.712694	0.314129
628.920226	0.314604
629.127740	0.314804
629.335236	0.315080
629.542714	0.315392
629.750174	0.315620
629.957615	0.316065
630.165038	0.316267
630.372443	0.316333
630.579829	0.316391
630.787198	0.316128
630.994548	0.316168
631.201880	0.316405
631.409194	0.316334
631.616489	0.316964
631.823766	0.316759
632.031025	0.317031
632.238266	0.317208
632.445489	0.317312
632.652693	0.317705
632.859879	0.318259
633.067047	0.318576
633.274197	0.318784
633.481329	0.318866
633.688442	0.319079
633.895537	0.319142
634.102614	0.319479
634.309672	0.319502
634.516713	0.319701
634.723735	0.319656
634.930739	0.319700
635.137724	0.319993
635.344692	0.320031
635.551641	0.320395
635.758572	0.320229
635.965485	0.320176
636.172379	0.320540
636.379256	0.320926
636.586114	0.321092
636.792954	0.321318
636.999775	0.321854
637.206579	0.321842
637.413364	0.321678
637.620131	0.322132
637.826880	0.322600
638.033610	0.322490
638.240323	0.322633
638.447017	0.322811
638.653692	0.322841
638.860350	0.322437
639.066990	0.322785
639.273611	0.323257
639.480214	0.323575
639.686798	0.323925
639.893365	0.324532
640.099913	0.324557
640.306443	0.324682
640.512955	0.325166
640.719449	0.325760
640.925924	0.325938
641.132381	0.326365
641.338820	0.326675
641.545241	0.326657
641.751644	0.327024
641.958028	0.327331
642.164394	0.327582
642.370742	0.327588
642.577071	0.327781
642.783383	0.327884
642.989676	0.327854
643.195951	0.327838
643.402207	0.328124
643.608446	0.327797
643.814666	0.328036
644.020868	0.328226
644.227052	0.328522
644.433218	0.328667
644.639365	0.329128
644.845494	0.329500
645.051605	0.329949
645.257698	0.330034
645.463772	0.330420
645.669828	0.330481
645.875866	0.330814
646.081886	0.330797
646.287888	0.331116
646.493871	0.330966
646.699836	0.331004
646.905783	0.331108
647.111712	0.331064
647.317622	0.331127
647.523514	0.331386
647.729388	0.331515
647.935244	0.332085
648.141082	0.332173
648.346901	0.332364
648.552702	0.332551
648.758485	0.332880
648.964250	0.333276
649.169996	0.333863
649.375724	0.334139
649.581434	0.334323
649.787126	0.334595
649.992800	0.334828
650.198455	0.335209
650.404092	0.335305
650.609711	0.335109
650.815311	0.335310
651.020894	0.335239
651.226458	0.335414
651.432004	0.335384
651.637532	0.335095
651.843041	0.335370
652.048532	0.335468
652.254006	0.335686
652.459460	0.335937
652.664897	0.336139
652.870315	0.336304
653.075716	0.336245
653.281097	0.336477
653.486461	0.337121
653.691807	0.337088
653.897134	0.337465
654.102443	0.337558
654.307734	0.338017
654.513006	0.338346
654.718261	0.338585
654.923497	0.339153
655.128715	0.339588
655.333915	0.339873
655.539096	0.340378
655.744259	0.340510
655.949404	0.341112
656.154531	0.341191
656.359640	0.341604
656.564730	0.341849
656.769802	0.342116
656.974856	0.342343
657.179892	0.342556
657.384909	0.342716
657.589908	0.343105
657.794889	0.343416
657.999852	0.343815
658.204797	0.343753
658.409723	0.344145
658.614631	0.344392
658.819521	0.344620
659.024393	0.344865
659.229246	0.345148
659.434081	0.345201
659.638898	0.345217
659.843697	0.345429
660.048478	0.345655
660.253240	0.345593
660.457984	0.345590
660.662710	0.345879
660.867417	0.345973
661.072107	0.346049
661.276778	0.346337
661.481431	0.346601
661.686066	0.346828
661.890682	0.347160
662.095281	0.347727
662.299861	0.348075
662.504422	0.348349
662.708966	0.348363
662.913491	0.348624
663.117999	0.349008
663.322488	0.349309
663.526958	0.349587
663.731411	0.349914
663.935845	0.349913
664.140261	0.350215
664.344659	0.350348
664.549038	0.350606
664.753400	0.350890
664.957743	0.351281
665.162068	0.351188
665.366375	0.351278
665.570663	0.351398
665.774933	0.351646
665.979185	0.351552
666.183419	0.351641
666.387635	0.351812
666.591832	0.351772
666.796011	0.351802
667.000172	0.352328
667.204315	0.352625
667.408439	0.352848
667.612545	0.353177
667.816634	0.353489
668.020703	0.353862
668.224755	0.354105
668.428788	0.354425
668.632803	0.354554
668.836800	0.354846
669.040779	0.354885
669.244739	0.355126
669.448681	0.355103
669.652605	0.355341
669.856511	0.355575
670.060399	0.356003
670.264268	0.356551
670.468119	0.356641
670.671952	0.356857
670.875767	0.357272
671.079563	0.357660
671.283341	0.358180
671.487101	0.358831
671.690843	0.359101
671.894567	0.359170
672.098272	0.359185
672.301959	0.359834
672.505628	0.359859
672.709278	0.359835
672.912911	0.359846
673.116525	0.360191
673.320121	0.360079
673.523699	0.360510
673.727258	0.360850
673.930799	0.361178
674.134322	0.361116
674.337827	0.361520
674.541314	0.362212
674.744782	0.362479
674.948232	0.362450
675.151664	0.362874
675.355078	0.363015
675.558474	0.363333
675.761851	0.363670
675.965210	0.363938
676.168551	0.364208
676.371873	0.364291
676.575178	0.364813
676.778464	0.365448
676.981732	0.365626
677.184981	0.365753
677.388213	0.366000
677.591426	0.366447
677.794621	0.366917
677.997798	0.367259
678.200956	0.367676
678.404097	0.367932
678.607219	0.368169
678.810323	0.368227
679.013408	0.368346
679.216476	0.368593
679.419525	0.368658
679.622556	0.368819
679.825569	0.368885
680.028563	0.368891
680.231540	0.368734
680.434498	0.368453
680.637438	0.368832
680.840359	0.369005
681.043263	0.369137
681.246148	0.369039
681.449015	0.369080
681.651864	0.369175
681.854694	0.369317
682.057506	0.369710
682.260301	0.370412
682.463076	0.370608
682.665834	0.370885
682.868573	0.371459
683.071295	0.372012
683.273998	0.372176
683.476682	0.372456
683.679349	0.372622
683.881997	0.372824
684.084627	0.372974
684.287239	0.373104
684.489833	0.373369
684.692408	0.373149
684.894965	0.373088
685.097504	0.373543
685.300025	0.373983
685.502527	0.374339
685.705012	0.374523
685.907478	0.374516
686.109925	0.374483
686.312355	0.374824
686.514766	0.375008
686.717159	0.375478
686.919534	0.375511
687.121891	0.375613
687.324230	0.375866
687.526550	0.376208
687.728852	0.376351
687.931136	0.376688
688.133401	0.376842
688.335649	0.377215
688.537878	0.377162
688.740089	0.377478
688.942281	0.377710
689.144456	0.377898
689.346612	0.377942
689.548750	0.378413
689.750870	0.379020
689.952971	0.379169
690.155055	0.379230
690.357120	0.379391
690.559167	0.379550
690.761195	0.379355
690.963206	0.379317
691.165198	0.379238
691.367172	0.379361
691.569128	0.379356
691.771065	0.379497
691.972984	0.379343
692.174885	0.379571
692.376768	0.379445
692.578633	0.379835
692.780479	0.380120
692.982308	0.380617
693.184118	0.380656
693.385909	0.380510
