sample name	sample
index	615
start time	 03-19-2021  02:11:25 PM


Wavelength (nm)	Absorbance
494.344910	0.017270
494.563924	0.017270
494.782919	0.017270
495.001897	0.040000
495.220856	0.031579
495.439797	0.023144
495.658719	0.054032
495.877624	0.076527
496.096510	0.037389
496.315378	0.012252
496.534227	0.003806
496.753059	0.029433
496.971872	0.046731
497.190667	0.128001
497.409444	0.139356
497.628203	0.138780
497.846943	0.141238
498.065665	0.143864
498.284369	0.143345
498.503055	0.144045
498.721723	0.143765
498.940372	0.143926
499.159003	0.143833
499.377616	0.144068
499.596210	0.144668
499.814787	0.144259
500.033345	0.143967
500.251885	0.144842
500.470406	0.145419
500.688910	0.144039
500.907395	0.143962
501.125862	0.143882
501.344311	0.143436
501.562742	0.143143
501.781154	0.143556
501.999548	0.144062
502.217924	0.144591
502.436282	0.144573
502.654621	0.145244
502.872942	0.144750
503.091245	0.144280
503.309530	0.144363
503.527797	0.143960
503.746045	0.143792
503.964275	0.142928
504.182487	0.142026
504.400681	0.142826
504.618856	0.143331
504.837013	0.143334
505.055152	0.143800
505.273273	0.143902
505.491376	0.143841
505.709460	0.142869
505.927526	0.143165
506.145574	0.143217
506.363604	0.143017
506.581615	0.142192
506.799608	0.141679
507.017583	0.141715
507.235540	0.141791
507.453478	0.142724
507.671399	0.144137
507.889301	0.144410
508.107185	0.144870
508.325050	0.143917
508.542898	0.144879
508.760727	0.146196
508.978538	0.146180
509.196330	0.146444
509.414105	0.146443
509.631861	0.146465
509.849599	0.146115
510.067319	0.146476
510.285021	0.147076
510.502704	0.147316
510.720369	0.147274
510.938016	0.147470
511.155645	0.147406
511.373255	0.147161
511.590848	0.147420
511.808422	0.146917
512.025977	0.147551
512.243515	0.147456
512.461034	0.147732
512.678536	0.147764
512.896018	0.147951
513.113483	0.147928
513.330930	0.148263
513.548358	0.148371
513.765768	0.150861
513.983160	0.151442
514.200533	0.151534
514.417889	0.151421
514.635226	0.151050
514.852545	0.151256
515.069845	0.151624
515.287128	0.151784
515.504392	0.151975
515.721638	0.150632
515.938866	0.150772
516.156075	0.151466
516.373267	0.151441
516.590440	0.151777
516.807594	0.152143
517.024731	0.152384
517.241850	0.152517
517.458950	0.152791
517.676032	0.153754
517.893095	0.152476
518.110141	0.152621
518.327168	0.153073
518.544177	0.153676
518.761168	0.153474
518.978141	0.153677
519.195095	0.153788
519.412031	0.154048
519.628949	0.153855
519.845849	0.154569
520.062731	0.154608
520.279594	0.154696
520.496439	0.154917
520.713266	0.155440
520.930074	0.155301
521.146865	0.156071
521.363637	0.155778
521.580391	0.155864
521.797127	0.156510
522.013844	0.156988
522.230543	0.156814
522.447224	0.157410
522.663887	0.157490
522.880532	0.158214
523.097158	0.157884
523.313766	0.157828
523.530356	0.158350
523.746928	0.157668
523.963481	0.156917
524.180017	0.157769
524.396534	0.157800
524.613032	0.157670
524.829513	0.157449
525.045975	0.157710
525.262420	0.158694
525.478845	0.158567
525.695253	0.159076
525.911643	0.159858
526.128014	0.159305
526.344367	0.159907
526.560702	0.160009
526.777018	0.160267
526.993316	0.160784
527.209597	0.160963
527.425858	0.161323
527.642102	0.161609
527.858328	0.162428
528.074535	0.163047
528.290724	0.162097
528.506894	0.163194
528.723047	0.163470
528.939181	0.163699
529.155297	0.162796
529.371395	0.163232
529.587475	0.163495
529.803536	0.162868
530.019579	0.163479
530.235604	0.164062
530.451611	0.164098
530.667600	0.164422
530.883570	0.164636
531.099522	0.164660
531.315456	0.164896
531.531372	0.164652
531.747269	0.165212
531.963148	0.165237
532.179009	0.165841
532.394852	0.165795
532.610676	0.166352
532.826482	0.166231
533.042271	0.168095
533.258040	0.168069
533.473792	0.168983
533.689525	0.168631
533.905240	0.168793
534.120937	0.168647
534.336616	0.168763
534.552277	0.168453
534.767919	0.168897
534.983543	0.168161
535.199149	0.167729
535.414736	0.167606
535.630306	0.168219
535.845857	0.168375
536.061390	0.168563
536.276904	0.168561
536.492401	0.169034
536.707879	0.169488
536.923339	0.169554
537.138781	0.170464
537.354204	0.170698
537.569610	0.171172
537.784997	0.171306
538.000366	0.171827
538.215716	0.172277
538.431049	0.172701
538.646363	0.172583
538.861659	0.173206
539.076937	0.173819
539.292196	0.174556
539.507438	0.174413
539.722661	0.175164
539.937866	0.175380
540.153052	0.176001
540.368221	0.176092
540.583371	0.176092
540.798503	0.176277
541.013617	0.176148
541.228712	0.176006
541.443789	0.176370
541.658848	0.175943
541.873889	0.175686
542.088912	0.175402
542.303916	0.175322
542.518902	0.175622
542.733870	0.175785
542.948820	0.175985
543.163752	0.176184
543.378665	0.176258
543.593560	0.176565
543.808437	0.177364
544.023295	0.177843
544.238136	0.178022
544.452958	0.178801
544.667762	0.179343
544.882548	0.179789
545.097315	0.180223
545.312064	0.180709
545.526795	0.181477
545.741508	0.181471
545.956203	0.181736
546.170879	0.182211
546.385537	0.182212
546.600177	0.182293
546.814799	0.182501
547.029402	0.182850
547.243988	0.183175
547.458555	0.183231
547.673103	0.183400
547.887634	0.183751
548.102146	0.184063
548.316640	0.183992
548.531116	0.184010
548.745574	0.184003
548.960013	0.184222
549.174435	0.184164
549.388838	0.184369
549.603222	0.184769
549.817589	0.184671
550.031937	0.184599
550.246267	0.185635
550.460579	0.185879
550.674873	0.186388
550.889148	0.186860
551.103405	0.186957
551.317644	0.186995
551.531865	0.187193
551.746068	0.187755
551.960252	0.188224
552.174418	0.187795
552.388566	0.188059
552.602696	0.188108
552.816807	0.187459
553.030900	0.187795
553.244975	0.187759
553.459032	0.187605
553.673070	0.187520
553.887091	0.187541
554.101093	0.187471
554.315077	0.187243
554.529042	0.187423
554.742990	0.187768
554.956919	0.187688
555.170830	0.188195
555.384722	0.188783
555.598597	0.188848
555.812453	0.189086
556.026291	0.189283
556.240111	0.189521
556.453913	0.189644
556.667696	0.189822
556.881461	0.190306
557.095208	0.190760
557.308937	0.190728
557.522647	0.190928
557.736339	0.191111
557.950013	0.191340
558.163669	0.191481
558.377307	0.191438
558.590926	0.191416
558.804527	0.191345
559.018110	0.191284
559.231675	0.191874
559.445221	0.192356
559.658749	0.192502
559.872259	0.192627
560.085751	0.193070
560.299225	0.193377
560.512680	0.193612
560.726117	0.193634
560.939536	0.193923
561.152937	0.193746
561.366319	0.193594
561.579683	0.193471
561.793029	0.194041
562.006357	0.193866
562.219667	0.193504
562.432958	0.193398
562.646231	0.194162
562.859486	0.193851
563.072723	0.193794
563.285941	0.193835
563.499141	0.194089
563.712323	0.193976
563.925487	0.194407
564.138632	0.195061
564.351760	0.195231
564.564869	0.195074
564.777960	0.195058
564.991032	0.195150
565.204087	0.195613
565.417123	0.196038
565.630141	0.195912
565.843140	0.196151
566.056122	0.196145
566.269085	0.196285
566.482030	0.196356
566.694957	0.196594
566.907866	0.196840
567.120756	0.196793
567.333628	0.196682
567.546482	0.196779
567.759318	0.196566
567.972135	0.196941
568.184935	0.197206
568.397716	0.197589
568.610478	0.197999
568.823223	0.198167
569.035949	0.198309
569.248657	0.198395
569.461347	0.198788
569.674019	0.199054
569.886672	0.198962
570.099308	0.199446
570.311925	0.199384
570.524523	0.199459
570.737104	0.199425
570.949666	0.199529
571.162210	0.199737
571.374736	0.200038
571.587244	0.200167
571.799733	0.200426
572.012205	0.200468
572.224658	0.200428
572.437092	0.200482
572.649509	0.200537
572.861907	0.200788
573.074287	0.200895
573.286649	0.200646
573.498993	0.200670
573.711318	0.201086
573.923625	0.201113
574.135914	0.201074
574.348185	0.201560
574.560438	0.201997
574.772672	0.202094
574.984888	0.202101
575.197086	0.202289
575.409266	0.202728
575.621427	0.202522
575.833570	0.202744
576.045695	0.202964
576.257802	0.203095
576.469890	0.202888
576.681961	0.203121
576.894013	0.203324
577.106046	0.203505
577.318062	0.203551
577.530059	0.203638
577.742039	0.203811
577.954000	0.204415
578.165942	0.203981
578.377867	0.204419
578.589773	0.204590
578.801661	0.204503
579.013531	0.204805
579.225382	0.204767
579.437216	0.204939
579.649031	0.205052
579.860828	0.205211
580.072606	0.205695
580.284367	0.205506
580.496109	0.205246
580.707833	0.205670
580.919539	0.205912
581.131227	0.205719
581.342896	0.205781
581.554547	0.205714
581.766180	0.205739
581.977795	0.205708
582.189391	0.206217
582.400969	0.206467
582.612529	0.206715
582.824071	0.206407
583.035595	0.206615
583.247100	0.206779
583.458587	0.206785
583.670056	0.206553
583.881506	0.206858
584.092939	0.206783
584.304353	0.206708
584.515749	0.206552
584.727127	0.206615
584.938486	0.206860
585.149828	0.207087
585.361151	0.207323
585.572456	0.207549
585.783742	0.207565
585.995011	0.207662
586.206261	0.208182
586.417493	0.208089
586.628706	0.208232
586.839902	0.208678
587.051079	0.208713
587.262238	0.209004
587.473379	0.209138
587.684502	0.209147
587.895606	0.209079
588.106692	0.208908
588.317760	0.209139
588.528810	0.209525
588.739841	0.209450
588.950855	0.209612
589.161850	0.209271
589.372827	0.209344
589.583785	0.209475
589.794726	0.209755
590.005648	0.209760
590.216552	0.210093
590.427437	0.209972
590.638305	0.210180
590.849154	0.210060
591.059985	0.210603
591.270798	0.210572
591.481592	0.210818
591.692369	0.211240
591.903127	0.211538
592.113867	0.212025
592.324588	0.212492
592.535292	0.212492
592.745977	0.212846
592.956644	0.213197
593.167293	0.213633
593.377923	0.213682
593.588536	0.213686
593.799130	0.213813
594.009706	0.213672
594.220263	0.213582
594.430803	0.213475
594.641324	0.213372
594.851827	0.213303
595.062312	0.213186
595.272778	0.213404
595.483227	0.213444
595.693657	0.213851
595.904069	0.213758
596.114462	0.214217
596.324838	0.214997
596.535195	0.215168
596.745534	0.215071
596.955855	0.215520
597.166157	0.215700
597.376441	0.215627
597.586707	0.215802
597.796955	0.216343
598.007185	0.216049
598.217396	0.215771
598.427589	0.215950
598.637764	0.216085
598.847921	0.216266
599.058060	0.216326
599.268180	0.216626
599.478282	0.216366
599.688366	0.216335
599.898431	0.216547
600.108479	0.216680
600.318508	0.216965
600.528519	0.217217
600.738511	0.217078
600.948486	0.217117
601.158442	0.217229
601.368380	0.217299
601.578300	0.217290
601.788202	0.217319
601.998085	0.217393
602.207950	0.217417
602.417797	0.217350
602.627626	0.217218
602.837436	0.217185
603.047228	0.217122
603.257002	0.217411
603.466758	0.217557
603.676496	0.217801
603.886215	0.218122
604.095916	0.218151
604.305599	0.218545
604.515264	0.219043
604.724910	0.219411
604.934538	0.219516
605.144148	0.219279
605.353740	0.219344
605.563314	0.219687
605.772869	0.219703
605.982406	0.219628
606.191925	0.219502
606.401425	0.219394
606.610908	0.219158
606.820372	0.219358
607.029818	0.220000
607.239246	0.220246
607.448655	0.220093
607.658047	0.220127
607.867420	0.220507
608.076775	0.220482
608.286111	0.220690
608.495430	0.220935
608.704730	0.221038
608.914012	0.220922
609.123275	0.220726
609.332521	0.220838
609.541748	0.221192
609.750957	0.221142
609.960148	0.221445
610.169321	0.221587
610.378475	0.221770
610.587611	0.221698
610.796729	0.222061
611.005829	0.222447
611.214910	0.222309
611.423974	0.222219
611.633019	0.222412
611.842045	0.222476
612.051054	0.222558
612.260044	0.222472
612.469017	0.222672
612.677970	0.222361
612.886906	0.222168
613.095824	0.222689
613.304723	0.222793
613.513604	0.222810
613.722467	0.223006
613.931311	0.223046
614.140138	0.222949
614.348946	0.223263
614.557736	0.223726
614.766507	0.223874
614.975261	0.223750
615.183996	0.223946
615.392713	0.224112
615.601412	0.224241
615.810092	0.224590
616.018754	0.225052
616.227399	0.225282
616.436024	0.225090
616.644632	0.225304
616.853222	0.225229
617.061793	0.225102
617.270346	0.225168
617.478880	0.225171
617.687397	0.225170
617.895895	0.225100
618.104375	0.225082
618.312837	0.225279
618.521281	0.225380
618.729706	0.225544
618.938113	0.225502
619.146502	0.225833
619.354873	0.225865
619.563226	0.225710
619.771560	0.225632
619.979876	0.225577
620.188174	0.225701
620.396453	0.225785
620.604715	0.225948
620.812958	0.226412
621.021183	0.226246
621.229390	0.226354
621.437578	0.226690
621.645748	0.226887
621.853900	0.227043
622.062034	0.227073
622.270150	0.226958
622.478247	0.226977
622.686326	0.226787
622.894387	0.227055
623.102430	0.227198
623.310454	0.226943
623.518461	0.227286
623.726449	0.227262
623.934418	0.227548
624.142370	0.227820
624.350303	0.227900
624.558218	0.228149
624.766115	0.227866
624.973994	0.227843
625.181855	0.228236
625.389697	0.228267
625.597521	0.228305
625.805327	0.228232
626.013114	0.228301
626.220883	0.228515
626.428634	0.228660
626.636367	0.229092
626.844082	0.229304
627.051778	0.229337
627.259457	0.229354
627.467117	0.229550
627.674758	0.229821
627.882382	0.230052
628.089987	0.230205
628.297574	0.230109
628.505143	0.230161
628.712694	0.230272
628.920226	0.230279
629.127740	0.230448
629.335236	0.230762
629.542714	0.230727
629.750174	0.230730
629.957615	0.230855
630.165038	0.231202
630.372443	0.231138
630.579829	0.231361
630.787198	0.231397
630.994548	0.231718
631.201880	0.231840
631.409194	0.231802
631.616489	0.231888
631.823766	0.231968
632.031025	0.231908
632.238266	0.232329
632.445489	0.232189
632.652693	0.232465
632.859879	0.232370
633.067047	0.232349
633.274197	0.232389
633.481329	0.232821
633.688442	0.232888
633.895537	0.232918
634.102614	0.232945
634.309672	0.233123
634.516713	0.233234
634.723735	0.233246
634.930739	0.233325
635.137724	0.233708
635.344692	0.233482
635.551641	0.233535
635.758572	0.234008
635.965485	0.234231
636.172379	0.234503
636.379256	0.234929
636.586114	0.235255
636.792954	0.235420
636.999775	0.235266
637.206579	0.235459
637.413364	0.235923
637.620131	0.235861
637.826880	0.235721
638.033610	0.235726
638.240323	0.235660
638.447017	0.235746
638.653692	0.235785
638.860350	0.235947
639.066990	0.236060
639.273611	0.235825
639.480214	0.236021
639.686798	0.236403
639.893365	0.236634
640.099913	0.236802
640.306443	0.236871
640.512955	0.237148
640.719449	0.237434
640.925924	0.237634
641.132381	0.237773
641.338820	0.237686
641.545241	0.237660
641.751644	0.237806
641.958028	0.237497
642.164394	0.237758
642.370742	0.237879
642.577071	0.237668
642.783383	0.237590
642.989676	0.237825
643.195951	0.238229
643.402207	0.238309
643.608446	0.238349
643.814666	0.238662
644.020868	0.238547
644.227052	0.238401
644.433218	0.238417
644.639365	0.238806
644.845494	0.239040
645.051605	0.239213
645.257698	0.239194
645.463772	0.239332
645.669828	0.239530
645.875866	0.239632
646.081886	0.240211
646.287888	0.240680
646.493871	0.240626
646.699836	0.240467
646.905783	0.240400
647.111712	0.240776
647.317622	0.241016
647.523514	0.241251
647.729388	0.241542
647.935244	0.241212
648.141082	0.241638
648.346901	0.241733
648.552702	0.241995
648.758485	0.242143
648.964250	0.242299
649.169996	0.242350
649.375724	0.242250
649.581434	0.242304
649.787126	0.242479
649.992800	0.242403
650.198455	0.242805
650.404092	0.243112
650.609711	0.243226
650.815311	0.243238
651.020894	0.243518
651.226458	0.243900
651.432004	0.244074
651.637532	0.244274
651.843041	0.244534
652.048532	0.244604
652.254006	0.244629
652.459460	0.244674
652.664897	0.244775
652.870315	0.244839
653.075716	0.245008
653.281097	0.245145
653.486461	0.245474
653.691807	0.245436
653.897134	0.245391
654.102443	0.245563
654.307734	0.245644
654.513006	0.245959
654.718261	0.246145
654.923497	0.246116
655.128715	0.246209
655.333915	0.246182
655.539096	0.246534
655.744259	0.246638
655.949404	0.246822
656.154531	0.247251
656.359640	0.247175
656.564730	0.247325
656.769802	0.247624
656.974856	0.247762
657.179892	0.247957
657.384909	0.248103
657.589908	0.248475
657.794889	0.248710
657.999852	0.248896
658.204797	0.249308
658.409723	0.249422
658.614631	0.249546
658.819521	0.249740
659.024393	0.249947
659.229246	0.249944
659.434081	0.249988
659.638898	0.250123
659.843697	0.249626
660.048478	0.249650
660.253240	0.249701
660.457984	0.249847
660.662710	0.249971
660.867417	0.250131
661.072107	0.250432
661.276778	0.250430
661.481431	0.250321
661.686066	0.250831
661.890682	0.250889
662.095281	0.251051
662.299861	0.250936
662.504422	0.250968
662.708966	0.251148
662.913491	0.251395
663.117999	0.251642
663.322488	0.252132
663.526958	0.252370
663.731411	0.252485
663.935845	0.252463
664.140261	0.252922
664.344659	0.253305
664.549038	0.253296
664.753400	0.253175
664.957743	0.253340
665.162068	0.253238
665.366375	0.253328
665.570663	0.253396
665.774933	0.253857
665.979185	0.253681
666.183419	0.253790
666.387635	0.254167
666.591832	0.254476
666.796011	0.254558
667.000172	0.254709
667.204315	0.255012
667.408439	0.255146
667.612545	0.255357
667.816634	0.255578
668.020703	0.255557
668.224755	0.255566
668.428788	0.255448
668.632803	0.255806
668.836800	0.255911
669.040779	0.255964
669.244739	0.256145
669.448681	0.256067
669.652605	0.256265
669.856511	0.256550
670.060399	0.256818
670.264268	0.257218
670.468119	0.257421
670.671952	0.257792
670.875767	0.257957
671.079563	0.258191
671.283341	0.258317
671.487101	0.258600
671.690843	0.258797
671.894567	0.258867
672.098272	0.258975
672.301959	0.259072
672.505628	0.258920
672.709278	0.259173
672.912911	0.259292
673.116525	0.259508
673.320121	0.259584
673.523699	0.259712
673.727258	0.259572
673.930799	0.259486
674.134322	0.259482
674.337827	0.259717
674.541314	0.259796
674.744782	0.260182
674.948232	0.260353
675.151664	0.260498
675.355078	0.260791
675.558474	0.260999
675.761851	0.261259
675.965210	0.261497
676.168551	0.261513
676.371873	0.261550
676.575178	0.261579
676.778464	0.261645
676.981732	0.261802
677.184981	0.261781
677.388213	0.262289
677.591426	0.262369
677.794621	0.262542
677.997798	0.263122
678.200956	0.263259
678.404097	0.263407
678.607219	0.263476
678.810323	0.263645
679.013408	0.263822
679.216476	0.263773
679.419525	0.264045
679.622556	0.264203
679.825569	0.264058
680.028563	0.264085
680.231540	0.264122
680.434498	0.264330
680.637438	0.264583
680.840359	0.264746
681.043263	0.264949
681.246148	0.265106
681.449015	0.265123
681.651864	0.265450
681.854694	0.265971
682.057506	0.266465
682.260301	0.266871
682.463076	0.267054
682.665834	0.267279
682.868573	0.267363
683.071295	0.267628
683.273998	0.267806
683.476682	0.267836
683.679349	0.267973
683.881997	0.267927
684.084627	0.267972
684.287239	0.267961
684.489833	0.268045
684.692408	0.268230
684.894965	0.268279
685.097504	0.268556
685.300025	0.268771
685.502527	0.268962
685.705012	0.269100
685.907478	0.268968
686.109925	0.268933
686.312355	0.269021
686.514766	0.269217
686.717159	0.269174
686.919534	0.269251
687.121891	0.269277
687.324230	0.269254
687.526550	0.269467
687.728852	0.269669
687.931136	0.269993
688.133401	0.270131
688.335649	0.270320
688.537878	0.270446
688.740089	0.270552
688.942281	0.270864
689.144456	0.270929
689.346612	0.270980
689.548750	0.271087
689.750870	0.271395
689.952971	0.271623
690.155055	0.271724
690.357120	0.271751
690.559167	0.271884
690.761195	0.271832
690.963206	0.271662
691.165198	0.271933
691.367172	0.272119
691.569128	0.271875
691.771065	0.272139
691.972984	0.272065
692.174885	0.272532
692.376768	0.272720
692.578633	0.272841
692.780479	0.273266
692.982308	0.273249
693.184118	0.273479
693.385909	0.273757
