sample name	sample
index	1250
start time	 04-29-2021  12:43:37 PM
880	0.096723
Peak Time (s)	100.038
Peak Height 	0.09672
calc peak height	100,103
Baseline Time (s)	9.037
Baseline Value 	-0.003602
subtract baseline	10,4
Abs	0.044388
Peak Time (s)	102.536
Peak Height 	0.04439
calc peak height	100,103
Baseline Time (s)	8.537
Baseline Value 	0.003106
subtract baseline	10,3
PK_550	0.031035
Peak Time (s)	102.536
Peak Height 	0.03103
calc peak height	100,103
Baseline Time (s)	9.037
Baseline Value 	4.0048E-4
subtract baseline	10,2
PK_880	0.039858
Peak Time (s)	101.535
Peak Height 	0.03986
calc peak height	100,103
Baseline Time (s)	8.537
Baseline Value 	0.001207
subtract baseline	10,1


Time (s)	A880-A510	A880-A775	A880-A975	A880	I510	I775	I975	I880	
0.034500	-0.002458	0.000001	-0.002508	0.001325	6197.708719	44110.661744	3910.306910	22801.108278
0.535000	-0.002337	-0.000385	-0.004038	0.003848	6179.756406	43835.971575	3901.079503	22686.019710
1.035000	-0.002786	-0.001064	-0.005264	0.002264	6188.229955	43921.264125	3901.892441	22758.206087
1.539000	-0.000807	-0.000086	-0.002814	0.000582	6215.694829	44172.891830	3911.306927	22835.116476
2.036000	-0.000080	-0.000274	-0.002982	-0.000058	6226.005286	44215.681047	3912.388158	22864.441928
2.536000	-0.000439	0.000321	-0.004011	0.001588	6210.882841	44115.991671	3906.275377	22789.057768
3.036000	-0.001570	-0.000813	-0.001197	-0.001701	6227.156256	44320.628646	3920.275508	22939.955975
3.537000	0.002938	0.000818	-0.000431	0.000787	6242.466947	44239.177804	3916.305496	22825.713116
4.037000	0.000777	-0.000588	-0.005569	0.000110	6231.215852	44170.010956	3906.093100	22856.752208
4.537000	0.001527	-0.000281	-0.005112	0.001401	6227.128686	44076.782136	3904.195850	22797.632010
5.034500	0.001435	-0.000553	-0.004457	-0.000411	6240.149592	44222.794306	3909.819227	22880.647533
5.535000	0.002005	-0.000535	-0.001671	-0.000085	6242.000185	44193.501542	3915.459645	22865.682004
6.038000	0.001070	-0.000385	-0.003269	0.000121	6233.348024	44188.163869	3911.320526	22856.233498
6.535500	0.000748	0.000255	0.000058	0.000480	6228.196551	44214.963964	3918.140759	22839.795908
7.036000	-0.001761	-0.001174	-0.000687	-0.000626	6217.608665	44184.282610	3918.973682	22890.540481
7.536000	0.000380	0.000042	0.003608	-0.000337	6231.597087	44272.324417	3928.259013	22877.274624
8.036500	0.001165	0.000150	0.001761	0.000140	6233.921656	44237.189026	3922.860964	22855.349877
8.536500	0.000000	0.000669	0.000000	0.000598	6221.651710	44243.014459	3917.733395	22834.354111
9.037000	0.000930	0.000000	0.001836	0.000000	6233.203356	44236.252930	3923.358717	22861.784666
9.537500	-0.002435	-0.000608	-0.006056	-0.000530	6211.802530	44228.797426	3906.441644	22886.095470
10.035000	0.000224	0.000250	-0.004137	0.000641	6223.019286	44199.179244	3908.147529	22832.413848
10.535500	-0.000895	-0.000271	0.000092	-0.000097	6220.141194	44219.704251	3919.549723	22866.226431
11.035500	-0.000573	0.000668	0.001045	0.000723	6216.387634	44231.006609	3919.855509	22828.642430
11.535500	0.001624	-0.000120	-0.001776	-0.000706	6243.823357	44291.935520	3916.645846	22894.194676
12.036000	-0.001978	0.000193	-0.004180	0.003557	6184.603671	43917.864198	3901.416033	22699.261288
12.536000	-0.000434	-0.000123	-0.001622	-0.000641	6227.736459	44285.502648	3916.853358	22891.223102
13.036500	-0.001311	-0.000589	-0.001422	-0.001525	6227.792241	44325.337291	3919.350922	22931.880561
13.536500	-0.001582	0.000286	-0.004291	-0.000355	6216.911463	44297.230803	3910.071306	22878.084725
14.034500	-0.005683	-0.000118	-0.002010	0.003113	6160.362254	43930.466596	3907.362237	22719.496224
14.537500	-0.000724	-0.000097	-0.001775	0.001589	6208.734314	44076.345152	3911.381153	22789.028859
15.040500	-0.000313	-0.000244	-0.000249	-0.001026	6231.564972	44310.571579	3920.907597	22908.905518
15.535500	0.000278	-0.000996	0.002418	-0.001426	6239.067892	44277.084937	3928.022048	22927.295821
16.035500	-0.003089	-0.000097	0.002779	0.002450	6184.571605	43994.910314	3919.872413	22749.684538
16.536000	-0.000768	0.000513	-0.001891	0.000019	6220.229339	44283.222548	3914.716441	22860.926525
17.036000	0.002961	0.000005	-0.000838	-0.003938	6278.725092	44612.521422	3926.291445	23043.257636
17.542000	0.000024	0.000115	-0.002041	0.000565	6222.085368	44193.584764	3913.118074	22835.894660
18.036500	0.000695	0.000336	-0.002630	0.001840	6217.525560	44093.596484	3908.851676	22777.543838
18.537000	0.000095	-0.000104	0.000559	0.000573	6222.563345	44171.964834	3919.081491	22835.512877
19.037500	-0.000522	-0.000312	0.001030	0.000308	6219.903737	44177.334861	3920.780697	22847.647341
19.537500	-0.000178	-0.000028	-0.000457	0.000947	6217.674033	44143.666321	3915.876494	22818.367279
20.038000	-0.003210	-0.001084	-0.006659	0.000853	6195.607329	44052.613323	3901.928125	22822.686467
20.535000	-0.000095	0.000508	0.001358	0.001225	6216.205564	44168.167620	3919.419742	22805.652470
21.035500	-0.000194	-0.000253	-0.003635	0.000562	6220.466401	44158.919738	3909.475571	22836.039347
21.536000	-0.000174	0.000108	-0.000215	0.000471	6221.305801	44201.808658	3917.532115	22840.208012
22.036000	0.000893	-0.000316	-0.002558	0.001320	6222.941764	44081.076357	3910.204127	22801.307261
22.536500	0.000080	-0.000165	-0.000101	0.000614	6222.138531	44162.360517	3917.466152	22833.654977
23.037000	0.000350	0.000752	-0.003593	0.001020	6221.113355	44210.807275	3908.525595	22815.060307
23.537500	-0.001948	-0.000054	-0.002860	0.000501	6207.712597	44183.541174	3911.387091	22838.809745
24.037500	0.000554	0.000103	-0.004532	0.001968	6215.500555	44059.395397	3904.224476	22771.692343
24.540000	0.000504	0.000232	-0.002971	0.000515	6226.091405	44209.408028	3911.101515	22838.188340
25.035500	-0.000604	0.000150	-0.003795	0.000890	6214.892436	44166.004158	3908.359396	22820.973285
25.535500	-0.000474	0.000242	0.000764	0.000573	6218.267824	44204.778741	3919.553407	22835.504484
26.036000	-0.000467	-0.000208	-0.005094	0.000163	6221.406891	44201.010129	3907.054730	22854.291973
26.539000	0.000336	0.000686	0.002471	0.001104	6220.370548	44196.615969	3922.273268	22811.216363
27.036000	0.002370	-0.000169	-0.001875	-0.001945	6258.947778	44405.411298	3919.274888	22951.231457
27.536500	-0.000250	-0.000582	-0.000820	-0.002489	6243.135690	44417.846995	3922.973594	22976.317649
28.037000	-0.002235	0.000116	-0.002495	-0.001199	6218.347717	44361.373420	3916.126834	22916.874777
28.537000	-0.004842	-0.000180	-0.001330	0.004657	6155.159198	43779.248499	3905.393240	22649.282747
29.040000	0.002077	0.000627	-0.000331	-0.000408	6245.000514	44334.726403	3919.291035	22880.498125
29.538000	0.001325	0.000349	0.002820	-0.000928	6243.241918	44357.695245	3927.798372	22904.393511
30.035500	0.001187	0.000348	0.006778	-0.001002	6242.757617	44364.749763	3937.228488	22907.831430
30.536000	-0.001657	-0.000537	-0.006113	0.002872	6192.120130	43913.620955	3898.591649	22730.452162
31.036000	0.000758	0.000071	-0.004679	0.001193	6222.878373	44129.738230	3905.652152	22807.108944
31.536500	0.001766	0.000951	0.003334	-0.000213	6241.158611	44347.027627	3927.330519	22871.553588
32.037000	0.001929	0.000106	0.000781	-0.000653	6245.740998	44308.402184	3922.426850	22891.761876
32.537000	-0.001240	0.000098	-0.003650	0.003486	6190.645337	43915.570236	3902.779983	22702.495527
33.037500	0.000580	-0.000199	0.004631	-0.001154	6239.301496	44327.140857	3932.553366	22914.810012
33.537000	0.000939	0.000256	-0.002786	0.001421	6222.525449	44125.713140	3909.451679	22796.692742
34.035000	0.000336	0.000558	-0.001469	0.001219	6219.508865	44173.493116	3912.930616	22805.945512
34.535000	-0.000749	-0.000215	-0.003930	0.002679	6200.368871	43962.244925	3903.978491	22739.270572
35.035500	-0.000325	0.000283	-0.000970	0.001325	6213.726594	44137.401304	3913.830707	22801.094445
35.536000	0.000269	-0.000069	-0.002349	0.001106	6219.851167	44124.792681	3911.171765	22811.118961
36.036500	0.001007	0.000552	-0.004048	0.001488	6222.534935	44147.464871	3906.419404	22793.642234
36.536000	-0.001462	-0.000638	-0.005343	0.002234	6198.352116	43964.269079	3901.779364	22759.544040
37.036500	-0.000105	-0.000223	-0.004159	0.000937	6218.303496	44126.178890	3907.421521	22818.822039
37.537000	-0.000653	-0.000805	-0.003575	0.000236	6219.457579	44137.525817	3910.358448	22850.974859
38.037500	-0.000918	0.000981	-0.002042	0.003259	6194.746535	44020.374243	3906.953892	22712.807645
38.537500	-0.001760	-0.000132	-0.001604	0.000595	6208.417557	44167.257140	3914.051146	22834.500815
39.035000	-0.001627	0.000662	0.000557	0.001378	6203.538917	44168.261682	3917.220907	22798.678579
39.535000	-0.001521	-0.000805	0.000853	0.000111	6213.858119	44149.306138	3920.825694	22856.682331
40.035500	-0.000521	0.000043	-0.002916	0.002283	6205.041971	44023.962732	3907.186880	22757.311064
40.536000	-0.001083	-0.000488	-0.001291	0.000446	6214.638279	44147.631187	3915.112840	22841.348639
41.036500	-0.001661	-0.000682	-0.001554	0.000481	6210.025258	44125.939936	3914.428678	22839.745852
41.536500	-0.000156	-0.000197	-0.001624	0.000691	6219.774386	44151.967375	3913.785176	22830.097132
42.036500	-0.000362	0.000445	-0.002329	0.002659	6203.414852	44026.371685	3907.668177	22740.142125
42.534000	-0.001787	0.000036	-0.004765	0.001005	6205.134612	44144.255980	3905.884314	22815.708421
43.037500	-0.001479	0.000302	0.001114	0.001211	6205.896935	44149.896163	3918.889231	22806.279680
43.535000	0.000752	0.000011	0.000567	-0.003581	6259.084393	44578.973604	3928.731823	23026.769539
44.035500	-0.002184	0.000204	-0.000376	0.002922	6187.804301	43978.761779	3911.531498	22728.170970
44.536000	-0.000567	0.000468	0.002718	-0.000286	6224.048168	44307.990597	3926.068371	22874.912061
45.036000	0.001132	-0.000362	0.002954	-0.000895	6241.527544	44286.920884	3928.033168	22902.880068
45.535500	0.000649	0.000422	-0.000584	-0.000248	6232.957697	44299.994946	3918.339940	22873.184199
46.036500	0.002506	0.000575	0.002716	0.003564	6218.179975	43953.195586	3917.158851	22698.933588
46.536500	-0.003119	-0.000530	0.000724	0.003577	6175.953239	43847.868682	3912.551947	22698.354777
47.037000	0.000678	-0.000331	0.001806	0.001479	6220.121629	44064.684198	3919.868952	22794.064059
47.540000	0.000049	0.000297	0.002648	0.002061	6210.999692	44068.992573	3920.467992	22767.437648
48.037500	-0.002654	-0.000113	-0.004241	0.002689	6186.032366	43970.815897	3903.247681	22738.779473
48.537500	-0.002349	-0.000263	-0.005614	0.005290	6168.942476	43712.041021	3894.264228	22620.571269
49.035500	0.001563	-0.000614	0.001108	-0.000822	6244.251185	44256.068581	3923.578710	22899.553872
49.535500	0.003894	0.000334	0.005717	-0.003185	6280.111839	44571.944391	3939.868048	23008.445745
50.035500	-0.003500	-0.000030	-0.003512	0.008794	6134.553255	43406.293085	3891.113316	22462.371318
50.536000	0.008256	-0.008263	0.005611	0.038540	6005.082310	40020.379827	3845.932645	21169.768570
51.035500	0.023015	-0.018657	-0.016092	0.434105	4217.616238	17519.694885	3272.349888	10269.937330
51.537000	-0.016547	-0.021922	-0.041164	-0.031079	6337.862019	45115.569500	3896.109182	24339.933930
52.037000	-0.011809	-0.029442	-0.024456	-0.098247	6948.995064	51320.170037	4104.716815	27919.816333
52.534500	-0.016168	-0.020785	-0.016647	-0.132826	7237.628568	56381.335834	4226.495525	29990.383679
53.035000	-0.001120	-0.014458	-0.000296	-0.132563	7386.314707	57132.307348	4275.917583	29974.005563
53.535000	0.009566	-0.012585	0.007540	-0.118057	7347.413555	55579.549934	4255.204736	29085.841995
54.036000	0.001323	-0.008475	0.001165	-0.052207	6656.733151	48607.955582	4050.163126	25406.903996
54.536000	-0.002997	-0.007406	0.001917	-0.071722	6788.937075	50823.006737	4104.299674	26439.615265
55.036000	0.000940	-0.005177	-0.003361	-0.074993	6853.291139	51432.954441	4098.828518	26617.343886
55.536500	0.007996	-0.000950	0.004294	-0.085873	7018.120947	53148.332267	4150.362327	27218.076951
56.036500	0.012943	0.002355	0.002267	-0.081573	7024.193838	53033.472550	4132.522407	26978.829923
56.534500	0.012215	0.004094	0.005283	-0.080060	7003.193023	53059.498744	4136.735167	26895.215313
57.037000	0.014399	0.004904	0.008570	-0.071032	6939.724655	52120.653132	4120.717496	26402.313184
57.534500	0.017381	0.008510	0.008365	-0.054540	6817.337300	50683.715063	4075.314509	25527.939659
58.035000	0.016730	0.008904	0.015849	-0.044667	6724.601490	49653.670223	4068.959942	25020.153726
58.535000	0.016787	0.009628	0.009237	-0.004256	6389.127093	45576.723588	3950.737029	23057.993050
59.036000	0.021933	0.011255	0.012779	-0.007223	6454.088831	46029.796826	3966.348076	23195.925812
59.536000	0.022613	0.012369	0.015822	0.006780	6348.037789	44770.653558	3940.196607	22553.117658
60.036000	0.025161	0.014520	0.019567	0.024941	6227.828062	43257.808919	3906.787245	21749.732011
60.536500	0.028199	0.015236	0.018111	0.054254	6035.044336	40690.603263	3839.085282	20521.873692
61.036500	0.027361	0.015202	0.019901	0.060447	5985.405690	40153.588383	3829.782600	20272.891609
61.539500	0.026924	0.014662	0.023947	0.060363	5982.928598	40114.610533	3838.504283	20276.228635
62.034500	0.030141	0.013453	0.028875	0.073820	5912.113291	38881.184411	3820.583217	19747.190556
62.535000	0.029933	0.011877	0.030224	0.091914	5789.623513	37291.088284	3786.405105	19061.218684
63.034500	0.030625	0.011411	0.028566	0.107813	5691.703817	36021.872256	3751.954637	18481.592780
63.535500	0.024842	0.006962	0.025346	0.128756	5527.697896	34144.939681	3706.764946	17749.759021
64.035500	0.021433	0.010253	0.026302	0.148637	5392.785845	32976.541260	3673.084140	17086.934825
64.536000	0.025724	0.012838	0.029134	0.153788	5387.937986	32799.767572	3669.057253	16920.091869
65.054000	0.027535	0.015599	0.031881	0.156389	5383.496907	32810.736620	3669.310985	16836.596558
65.537500	0.031493	0.017920	0.028865	0.157221	5401.121693	32913.220114	3662.674371	16809.990485
66.040500	0.023834	0.018732	0.026709	0.156946	5359.692903	32988.232573	3659.450128	16818.776076
66.537000	0.028980	0.022232	0.030411	0.151401	5419.898782	33619.959145	3675.429774	16997.148694
67.034500	0.028934	0.022474	0.029967	0.145532	5453.328541	34054.295322	3684.965531	17188.468917
67.540000	0.029499	0.023812	0.023524	0.144129	5464.721586	34251.068464	3676.102747	17234.564379
68.035500	0.024581	0.021910	0.033329	0.144611	5433.573263	34079.854393	3692.577133	17218.715078
68.535500	0.030347	0.023912	0.029890	0.133677	5531.172990	35020.375267	3706.078908	17582.842911
69.035500	0.029192	0.023528	0.020987	0.126464	5567.519033	35528.286862	3703.012757	17828.121011
69.535500	0.030097	0.023230	0.026964	0.120445	5609.682427	35960.072856	3725.029375	18035.949120
70.036500	0.030284	0.022740	0.027439	0.115252	5642.916775	36319.266587	3735.646966	18217.590873
70.538500	0.025265	0.022994	0.024110	0.115132	5612.632606	36347.914943	3729.617946	18221.789287
71.037000	0.031129	0.023368	0.029953	0.108780	5688.772117	36868.889779	3752.762686	18447.012813
71.534500	0.029573	0.024021	0.029489	0.106623	5692.576272	37088.951248	3756.026520	18524.238178
72.035000	0.028252	0.023507	0.024935	0.103893	5701.506652	37263.493084	3752.509488	18622.518898
72.535000	0.027254	0.024313	0.027387	0.103136	5699.971581	37387.105783	3758.706050	18649.872176
73.035500	0.025331	0.023933	0.028518	0.101740	5696.630285	37467.685292	3763.618670	18700.460964
73.535500	0.025649	0.022999	0.028170	0.099695	5711.649318	37556.058943	3766.934421	18774.863621
74.036000	0.027031	0.024332	0.027210	0.100136	5717.657386	37627.184650	3764.196967	18758.821172
74.541000	0.025799	0.023974	0.025821	0.099407	5714.441735	37656.820519	3762.909119	18785.384802
75.036000	0.025200	0.024112	0.020188	0.099492	5710.084700	37661.038054	3751.845691	18782.296182
75.537000	0.024783	0.023628	0.026146	0.099320	5708.525468	37636.165744	3763.714018	18788.577019
76.037000	0.023598	0.025219	0.025287	0.106132	5658.086405	37221.939710	3748.887953	18541.875685
76.537500	0.025642	0.025084	0.026423	0.102957	5690.895297	37462.465412	3757.188139	18656.371549
77.038000	0.024636	0.025167	0.023884	0.101910	5691.159929	37552.391699	3754.306210	18694.320575
77.543000	0.028545	0.024498	0.028690	0.103161	5708.024170	37399.806142	3761.188430	18648.986455
78.035500	0.027638	0.025939	0.024509	0.110145	5658.248663	36963.156539	3739.759714	18398.336374
78.536000	0.030367	0.026430	0.028332	0.107790	5690.211287	37186.662979	3751.549218	18482.405318
79.036000	0.031252	0.026747	0.032303	0.106858	5701.726668	37285.202865	3761.024641	18515.798999
79.536000	0.029456	0.027110	0.034808	0.107753	5684.688114	37243.185791	3764.159699	18483.725345
80.036500	0.028168	0.026466	0.030158	0.113354	5641.560365	36753.929280	3744.396450	18284.514555
80.536500	0.030897	0.027165	0.027784	0.110761	5674.824754	37010.973100	3744.814641	18376.427987
81.037000	0.030750	0.028050	0.030143	0.109433	5682.256921	37184.855367	3751.872597	18423.708870
81.534500	0.032166	0.028387	0.033073	0.109122	5693.165319	37235.901547	3758.125653	18434.780618
82.035500	0.029258	0.027690	0.030206	0.113525	5647.270994	36835.905876	3744.162187	18278.469162
82.535000	0.034190	0.028997	0.033693	0.109828	5701.523698	37228.332736	3757.959230	18409.612788
83.035500	0.033098	0.028717	0.034499	0.107792	5707.525095	37367.123614	3763.480203	18482.322357
83.536000	0.030894	0.028056	0.033052	0.105294	5709.393081	37512.905179	3765.532222	18571.996077
84.038500	0.029625	0.028708	0.030049	0.110848	5666.288949	37125.283113	3748.976087	18373.335731
84.536000	0.031063	0.028948	0.036770	0.105231	5710.877558	37589.003186	3772.954421	18574.288161
85.036000	0.035870	0.029687	0.027745	0.103679	5751.687259	37772.099662	3758.349398	18630.259998
85.537000	0.033528	0.029841	0.034822	0.102406	5744.783367	37886.652566	3774.683440	18676.333233
86.036500	0.033036	0.030705	0.037189	0.101959	5744.491560	37992.164151	3780.258051	18692.531047
86.538000	0.030444	0.029102	0.035497	0.100995	5734.015338	37940.651013	3778.812731	18727.545381
87.035000	0.032202	0.029793	0.033144	0.099151	5757.252084	38145.391442	3777.803178	18794.731545
87.535000	0.032803	0.028876	0.033947	0.097730	5770.382330	38186.286585	3782.224655	18846.720226
88.035500	0.032877	0.029650	0.029035	0.097875	5769.916804	38237.267029	3772.204520	18841.379498
88.536000	0.033517	0.029988	0.034233	0.097497	5776.551223	38295.474241	3783.257343	18855.230184
89.039000	0.032803	0.030085	0.033402	0.097062	5774.731806	38338.817887	3782.468230	18871.205856
89.536500	0.033227	0.029791	0.034147	0.096656	5780.150628	38347.911079	3784.765786	18886.101874
90.037000	0.033443	0.028542	0.035412	0.095062	5791.993390	38376.025826	3790.499073	18944.758796
90.537000	0.032438	0.029781	0.036549	0.096177	5778.122066	38386.070662	3790.539870	18903.682618
91.034500	0.033693	0.029675	0.033208	0.094872	5794.878102	38484.027023	3786.455817	18951.743792
91.535000	0.031260	0.028504	0.027628	0.094708	5780.019745	38401.728819	3775.679171	18957.784098
92.035500	0.033891	0.028436	0.035191	0.093960	5802.174841	38457.257635	3792.271007	18985.405066
92.535500	0.031610	0.026685	0.033807	0.093165	5792.410644	38379.257167	3791.084961	19014.817840
93.035500	0.034195	0.029235	0.032213	0.094401	5801.273334	38486.549741	3785.406138	18969.112706
93.536500	0.036427	0.028786	0.036563	0.093993	5818.698213	38483.240763	3794.975101	18984.203675
94.036500	0.033756	0.029290	0.036642	0.093478	5804.461860	38566.707482	3796.176020	19003.255060
94.537500	0.034546	0.028533	0.035553	0.093109	5812.100505	38534.781276	3794.719133	19016.878335
95.037000	0.035820	0.029057	0.033100	0.093078	5820.736707	38580.332366	3789.837462	19018.038697
95.537500	0.035581	0.028825	0.040827	0.092821	5820.854744	38582.380525	3806.033416	19027.560449
96.037500	0.037049	0.028395	0.040301	0.092122	5835.249254	38604.394905	3806.388416	19053.475691
96.538000	0.036056	0.029263	0.034483	0.092853	5823.791335	38615.645407	3793.076043	19026.363870
97.035000	0.037536	0.029530	0.038438	0.092677	5834.796673	38652.082137	3801.450473	19032.901445
