sample name	sample
index	1467
start time	 05-10-2021  02:10:53 PM
880	0.374266
Peak Time (s)	92.539
Peak Height 	0.3743
calc peak height	90,93
Baseline Time (s)	9.535
Baseline Value 	-0.004442
subtract baseline	10,4
Abs	0.250867
Peak Time (s)	90.535
Peak Height 	0.2509
calc peak height	90,93
Baseline Time (s)	11.036
Baseline Value 	4.6847E-4
subtract baseline	10,3
PK_550	0.136735
Peak Time (s)	90.535
Peak Height 	0.1367
calc peak height	90,93
Baseline Time (s)	11.036
Baseline Value 	6.493E-4
subtract baseline	10,2
PK_880	0.233319
Peak Time (s)	91.535
Peak Height 	0.2333
calc peak height	90,93
Baseline Time (s)	11.036
Baseline Value 	0.002172
subtract baseline	10,1


Time (s)	A880-A510	A880-A775	A880-A975	A880	I510	I775	I975	I880	
0.035000	-0.003537	-0.001125	-0.004139	0.007557	6411.731855	43295.805207	3922.768027	22358.354857
0.541000	-0.002459	-0.000749	-0.003797	0.004304	6447.425459	43634.421580	3931.975449	22504.967567
1.038000	-0.001892	-0.000371	-0.000871	0.004214	6452.868986	43678.302846	3939.758052	22509.044001
1.537000	-0.000945	-0.000485	0.003919	0.001998	6479.198948	43876.000036	3958.044498	22609.548012
2.039000	-0.001799	0.000014	0.001213	0.002797	6465.416312	43847.754716	3948.858714	22573.262203
2.536500	-0.000073	-0.000259	0.001563	0.001578	6490.016088	43936.938505	3952.962081	22628.682273
3.036500	-0.000356	-0.000041	0.000023	-0.000680	6506.601073	44171.246432	3954.842874	22731.715519
3.536500	0.001774	-0.000300	0.002833	0.000791	6512.147122	44007.388950	3958.362608	22664.520273
4.034500	0.000067	0.000567	0.002284	0.001361	6493.002286	44035.496006	3955.421240	22638.545527
4.535000	-0.000771	-0.000179	-0.000804	0.000414	6493.917330	44054.527082	3949.813200	22681.724917
5.035000	0.000458	-0.000247	-0.000842	-0.000015	6507.856690	44088.709126	3950.835750	22701.316246
5.536000	0.000234	0.000730	0.002243	0.000664	6500.263352	44116.972794	3957.146283	22670.345473
6.036000	-0.000362	0.000692	0.003023	0.000740	6494.620413	44106.157592	3958.998226	22666.881630
6.536500	-0.002613	-0.000371	-0.000721	-0.000223	6483.822788	44096.668687	3951.695646	22710.815833
7.036000	-0.002584	-0.000080	-0.002514	-0.000091	6482.964415	44111.833737	3946.671756	22704.820582
7.537000	-0.000208	0.000541	0.000492	0.000745	6495.866592	44091.319589	3952.338030	22666.623960
8.034500	0.000783	0.000319	-0.000421	0.000332	6507.668790	44109.480321	3951.031315	22685.481052
8.537500	0.000998	0.000280	0.000686	0.000371	6509.148869	44102.067353	3953.824525	22683.683222
9.035000	-0.000332	0.000157	-0.001388	0.000288	6498.663753	44098.357994	3948.619873	22687.499074
9.535000	-0.001860	0.000245	0.003862	0.000000	6488.258432	44133.946866	3963.162978	22700.640247
10.035500	-0.000578	-0.000560	-0.001511	-0.000603	6504.086924	44114.809863	3950.625312	22728.215550
10.536000	0.000025	-0.000339	-0.000400	0.000892	6496.588648	43994.209052	3949.622058	22659.924489
11.036000	0.000000	0.000000	0.000000	-0.000284	6506.268801	44137.681952	3953.746323	22713.642147
11.539000	0.000362	-0.000135	0.003764	-0.000149	6508.169643	44112.019829	3963.297848	22707.435097
12.039500	-0.000615	-0.000434	0.002036	-0.000314	6501.347324	44099.307805	3959.173222	22714.996436
12.537000	-0.001894	-0.000360	-0.002347	0.000842	6480.929083	43996.860749	3944.677282	22662.191490
13.034500	-0.000301	-0.000243	-0.001214	0.000161	6499.992346	44072.461220	3949.406508	22693.302292
13.534500	-0.000336	0.001017	0.001433	0.001587	6487.731688	44056.750822	3952.597235	22628.274195
14.035000	-0.002201	0.000019	-0.000993	0.002420	6465.206029	43883.724561	3944.093805	22590.370109
14.535500	-0.004335	-0.000402	-0.002911	0.002604	6445.961141	43826.741473	3938.643839	22582.021833
15.036000	-0.002378	0.000540	0.002752	0.001066	6475.015485	44060.885960	3957.427212	22652.006907
15.538500	0.001165	0.001021	0.003084	0.000780	6507.112302	44133.543391	3959.051280	22665.021447
16.036500	-0.000037	0.000482	0.000147	0.001093	6494.387353	44052.888404	3950.525902	22650.786597
16.536500	-0.001942	0.000499	0.001150	0.001921	6471.522851	43976.123906	3950.983685	22613.067265
17.036500	-0.001240	0.000005	0.000932	0.000078	6492.808703	44103.799250	3955.240478	22697.090069
17.534500	-0.000767	-0.000649	-0.001282	-0.000629	6502.708033	44108.808062	3951.291054	22729.379159
18.034500	-0.000262	-0.000720	-0.000226	0.000079	6501.004479	44034.986365	3952.201439	22697.019681
18.535000	0.000375	-0.000063	0.001165	0.001240	6496.604755	43987.330426	3952.803249	22644.059546
19.034500	0.000122	0.000443	0.005454	0.001349	6493.564999	44024.883796	3963.804914	22639.109147
19.535000	-0.002301	-0.000639	0.004412	0.000322	6481.880344	44019.693708	3963.765614	22685.939150
20.035500	-0.000273	0.000208	0.002479	0.000941	6493.674883	44041.250430	3957.036374	22657.702739
20.536000	-0.001435	-0.000155	0.003424	0.000614	6486.675534	44037.844955	3960.385777	22672.607540
21.036500	-0.000644	0.000527	0.002618	0.000990	6490.154877	44066.850992	3957.273630	22655.479838
21.536500	-0.002001	0.000651	0.002256	0.000872	6479.785574	44089.811430	3956.632228	22660.843036
22.037000	-0.002919	-0.001044	-0.001565	-0.000338	6482.231886	44043.837106	3949.790668	22716.106925
22.537500	-0.001241	-0.000256	0.007114	0.000951	6485.475550	43996.442186	3969.259458	22657.219851
23.034500	-0.002001	-0.000859	-0.003115	-0.000043	6487.434546	44033.379237	3944.981502	22702.585231
23.535000	-0.001569	-0.000717	0.000758	-0.000226	6492.587601	44064.149343	3955.579468	22710.954350
24.035000	-0.001705	-0.000346	0.003439	0.000322	6486.865608	44047.432902	3961.197665	22685.950491
24.535500	-0.001044	0.000114	-0.001130	0.000480	6491.078617	44076.016732	3948.791546	22678.711949
25.038000	-0.002888	-0.000133	0.001582	0.000461	6475.808688	44054.398797	3955.940631	22679.595027
25.536000	-0.000832	-0.000397	0.003293	0.000030	6496.632819	44070.233176	3961.581738	22699.271247
26.036500	-0.001124	0.000602	0.000191	0.000939	6486.564908	44078.784483	3951.044243	22657.805191
26.536500	-0.001737	0.000001	0.002710	0.000709	6483.357509	44043.677016	3958.255091	22668.270481
27.037000	-0.002399	0.000304	-0.000916	0.000579	6478.909711	44084.703757	3949.091547	22674.213933
27.537500	-0.002791	0.000026	-0.001361	0.002977	6455.672817	43831.877728	3941.692794	22565.080122
28.040000	-0.001199	0.000048	0.002346	0.000099	6492.973184	44105.868082	3958.903792	22696.122015
28.535500	-0.001568	0.000976	-0.000352	0.000163	6489.341416	44187.865369	3951.651321	22693.193395
29.035500	0.000137	0.000556	-0.000031	0.000087	6504.298293	44155.269963	3952.692961	22696.684763
29.535500	-0.004691	-0.000014	-0.001868	0.002620	6442.882154	43861.704981	3941.302402	22581.286933
30.036500	-0.000895	0.000217	-0.002535	-0.000347	6499.273898	44164.236922	3947.284308	22716.520740
30.536500	-0.000235	0.000658	-0.000504	0.000464	6497.996344	44129.054894	3950.466928	22679.436019
31.036500	-0.001541	0.000195	-0.001525	0.002799	6467.548830	43864.652652	3941.730509	22573.183153
31.537000	-0.004007	-0.001090	0.002260	0.002745	6447.514444	43748.787587	3951.731933	22575.635865
32.040000	-0.000758	0.000510	0.000272	0.000532	6493.033265	44108.602672	3952.317666	22676.329924
32.535000	-0.000550	-0.000500	-0.000503	-0.000372	6502.371858	44098.494170	3952.656364	22717.622445
33.035000	0.000769	0.000416	0.000943	0.000426	6506.758192	44109.711768	3954.356688	22681.177056
33.535000	-0.003717	-0.000802	0.003471	0.003088	6447.069175	43743.592866	3954.002739	22560.040263
34.038000	-0.000081	0.000456	0.004170	-0.001647	6517.071267	44310.492714	3968.342394	22776.015411
34.535500	-0.002690	-0.000470	0.001546	0.001059	6472.470702	43965.991546	3954.277798	22652.319629
35.036000	-0.001422	0.000478	0.002511	0.001643	6478.186272	44000.400002	3955.278796	22625.725074
35.536500	-0.001576	-0.000669	0.002115	0.002427	6470.361703	43818.288074	3952.184001	22590.082300
36.037500	-0.002239	0.000105	-0.002284	0.001777	6470.248755	43952.558008	3942.411589	22619.624363
36.537000	-0.003524	0.000019	0.002419	0.001996	6457.733545	43923.671613	3954.110256	22609.655672
37.037000	-0.002096	-0.000694	0.000705	0.000699	6480.438359	43978.887519	3953.018197	22668.746870
37.535000	-0.003017	-0.000620	0.002759	0.000994	6470.283835	43958.000473	3957.634277	22655.273996
38.037500	-0.002434	-0.000224	0.000741	0.000979	6475.270679	43996.837586	3952.378069	22655.952706
38.535500	-0.003945	-0.000303	-0.001232	0.002152	6452.934996	43878.580908	3944.169235	22602.542746
39.036000	-0.003230	-0.000037	0.001591	0.001501	6464.292665	43965.145117	3953.236537	22632.173336
39.535500	-0.001517	-0.000002	0.002471	0.001398	6479.435812	43978.235274	3955.816365	22636.871480
40.036000	-0.002495	0.000058	0.002176	0.001206	6472.876593	44002.002663	3955.545592	22645.625123
40.536500	-0.002347	0.000501	0.000376	0.002142	6466.312186	43955.501761	3948.385008	22603.029660
41.037000	-0.001496	-0.000054	-0.001492	0.001569	6478.182813	43957.145602	3945.010955	22629.097142
41.537500	-0.000681	0.000565	0.000171	0.001844	6482.700426	43989.669066	3948.626552	22616.577345
42.037000	-0.001068	-0.000300	-0.000686	0.001143	6485.321198	43974.137161	3948.220238	22648.480948
42.535000	-0.002423	-0.000338	-0.000507	0.001590	6470.277165	43928.424168	3947.521204	22628.148732
43.035500	-0.000323	-0.000359	-0.001374	0.001305	6490.204779	43953.244677	3946.004877	22641.106593
43.535500	-0.000913	-0.001026	-0.000941	0.002620	6474.272629	43766.501117	3943.709129	22581.277218
44.036000	-0.000947	-0.000298	0.004266	-0.000376	6499.074832	44118.118164	3965.226048	22717.830876
44.539000	-0.002459	-0.000702	0.002685	0.001473	6470.945710	43904.987433	3956.179111	22633.446231
45.036500	0.000138	-0.000083	0.002259	0.000197	6503.379395	44084.132373	3958.415127	22691.637594
45.536500	-0.001184	0.000057	0.005134	0.000208	6492.181858	44096.333437	3965.977291	22691.125414
46.036500	-0.000098	0.000069	0.001580	0.000153	6501.767790	44102.751604	3956.746132	22693.673183
46.537000	-0.001548	-0.000912	-0.000062	0.001399	6479.173700	43892.284693	3949.180284	22636.840410
47.035000	-0.003357	-0.000515	-0.002788	-0.000102	6476.592059	44071.502454	3945.985047	22705.289991
47.535000	-0.004005	-0.001154	-0.003202	0.004319	6434.520367	43595.146420	3933.468864	22504.294332
48.037500	-0.000965	-0.000162	-0.003960	0.002139	6477.849158	43893.085859	3937.133675	22603.131905
48.538500	-0.003192	-0.000650	0.004180	0.001922	6461.104189	43867.638520	3958.931282	22613.022447
49.039500	0.000312	-0.000197	-0.000762	0.000485	6502.424873	44046.096717	3949.740317	22678.500814
49.536500	-0.004398	0.000177	0.001744	0.006173	6416.016012	43546.156547	3941.455071	22420.582319
50.037000	0.002175	0.000817	0.004462	-0.001913	6538.422092	44370.278893	3969.823484	22788.222669
50.537000	-0.000459	0.000889	0.002493	0.002361	6480.232721	43971.432729	3953.347359	22593.066957
51.037500	-0.002024	-0.000834	0.003949	0.002927	6462.458870	43755.662258	3955.680755	22567.337012
51.537500	0.011046	-0.008823	0.058878	0.257487	4921.803185	25238.684970	3535.431270	13825.782393
52.035000	-0.006648	-0.023050	-0.000458	0.050705	6051.898152	37680.293985	3826.561886	20514.144714
52.535500	-0.014378	-0.066848	-0.035756	-0.234314	8912.777666	63481.608753	4612.477421	36891.796530
53.035500	-0.016142	-0.103840	-0.030565	-0.285791	9648.006757	65535.000000	4862.967928	41174.596426
53.535500	-0.008693	-0.062130	-0.018114	-0.229092	8919.248840	63411.429269	4664.617172	36485.041591
54.041500	0.006764	-0.026469	0.000704	-0.146498	8049.979954	57217.212389	4412.038583	30661.240822
54.536000	-0.002602	-0.024245	-0.001291	-0.119079	7627.703109	54157.934735	4307.469958	28960.147927
55.036500	-0.001520	-0.023648	-0.001580	-0.141822	7897.109561	56985.838290	4386.650304	30363.477679
55.537000	0.004816	-0.019612	0.003029	-0.145212	8011.407369	57917.949564	4415.864326	30579.048185
56.039500	0.020988	-0.011663	0.031988	-0.103180	7713.071427	53768.226186	4368.399473	28021.900570
56.537500	0.033172	-0.000751	0.045506	-0.034451	7119.431940	47432.678242	4182.989031	24338.784337
57.038000	0.050833	0.012715	0.066082	0.028874	6693.359339	42607.016994	4054.774987	21424.338307
57.538000	0.062949	0.020914	0.078664	0.078901	6372.116109	38964.849380	3952.382132	19404.280996
58.038000	0.080289	0.032077	0.099593	0.124112	6153.204254	36248.312360	3890.545537	17768.408048
58.537000	0.099627	0.041994	0.117170	0.158645	6039.645054	34412.960130	3849.372885	16628.744627
59.038500	0.119666	0.055249	0.131571	0.188877	5965.659800	33206.357413	3812.356722	15702.763874
59.536500	0.129686	0.062270	0.149392	0.214473	5855.916859	31939.168030	3794.665632	14967.649133
60.036500	0.146195	0.071578	0.160322	0.231316	5853.607557	31440.377331	3781.422838	14507.015725
60.537000	0.158813	0.082201	0.175434	0.260073	5744.046538	30274.881044	3751.538322	13760.668510
61.039500	0.163932	0.082066	0.190405	0.299270	5525.669135	27908.050203	3700.740436	12819.783353
61.535000	0.167467	0.083043	0.192674	0.290459	5602.810996	28477.173152	3723.621771	13023.933926
62.035000	0.171220	0.088621	0.190068	0.262522	5811.168118	30525.928337	3778.179281	13699.362238
62.535500	0.178439	0.099739	0.193085	0.285360	5706.576404	29791.424366	3735.220065	13143.997386
63.035500	0.184189	0.102973	0.194800	0.292230	5699.221116	29567.575334	3724.365733	12982.572612
63.536000	0.190357	0.106745	0.197219	0.290773	5749.681128	29890.145034	3732.516642	13016.606466
64.035500	0.192373	0.109843	0.206582	0.291867	5755.841966	30014.747204	3750.146124	12991.039226
64.539500	0.193553	0.110910	0.207778	0.294020	5749.335269	29947.145388	3748.087632	12940.919634
65.039500	0.196501	0.113306	0.202725	0.292633	5778.418022	30183.458261	3740.246881	12973.184115
65.537000	0.199431	0.116785	0.206637	0.295543	5778.551524	30219.088773	3742.382748	12905.625464
66.039500	0.204267	0.117667	0.212938	0.299072	5787.376713	30053.366586	3748.321000	12824.319029
66.535000	0.204535	0.119903	0.215907	0.305682	5744.798041	29781.696836	3740.531252	12673.785763
67.038000	0.206417	0.119602	0.213580	0.306373	5752.749985	29720.415500	3734.122980	12658.183302
67.535500	0.207653	0.122036	0.218322	0.314442	5707.442336	29375.202852	3727.110021	12477.777806
68.035500	0.213991	0.124732	0.223797	0.312940	5759.488014	29631.973880	3741.878006	12511.119384
68.536500	0.214928	0.125720	0.224771	0.318934	5725.807952	29326.017367	3731.227589	12378.793408
69.039000	0.219689	0.128087	0.225919	0.320800	5745.047801	29356.531013	3729.717649	12337.995744
69.537000	0.217627	0.128183	0.225311	0.327696	5685.944076	28946.154488	3714.050708	12188.649518
70.037000	0.221375	0.129690	0.223785	0.328651	5704.240224	28979.156812	3708.930489	12168.148639
70.535000	0.221294	0.129649	0.234548	0.332554	5678.180329	28743.780933	3723.160149	12084.861546
71.034500	0.220886	0.129742	0.234654	0.335702	5655.118143	28562.889429	3716.822194	12018.217134
71.535000	0.221897	0.130647	0.233559	0.341370	5625.207897	28283.466811	3702.893741	11899.464498
72.041000	0.224171	0.130929	0.236704	0.341636	5638.063185	28284.364949	3708.796153	11893.921632
72.535500	0.223487	0.130021	0.238444	0.343447	5622.095411	28126.210090	3708.649647	11856.325632
73.035500	0.226663	0.131641	0.238910	0.346951	5620.003952	28017.184740	3702.421912	11784.018719
73.536000	0.222592	0.131567	0.236116	0.351928	5562.900924	27727.254337	3686.689748	11682.318043
74.041500	0.226575	0.133443	0.235062	0.350607	5596.229296	27910.356067	3687.224391	11709.192257
74.536500	0.226079	0.133717	0.241177	0.352128	5583.512845	27838.781145	3696.498981	11678.258389
75.041500	0.228305	0.133962	0.236039	0.352684	5594.041441	27820.936473	3685.019100	11666.972741
75.534500	0.224991	0.134230	0.237641	0.356687	5548.202305	27607.858917	3680.224136	11586.148081
76.035000	0.228143	0.132964	0.237591	0.352221	5595.944209	27790.326311	3689.064990	11676.368877
76.535000	0.227181	0.134548	0.244025	0.353772	5580.096597	27792.161444	3698.944025	11644.915550
77.035500	0.229849	0.135273	0.241068	0.354590	5591.752890	27786.885295	3691.297100	11628.400501
77.538500	0.227252	0.135594	0.241189	0.357683	5556.073417	27628.788242	3685.323233	11566.158932
78.036500	0.227638	0.135562	0.242644	0.355039	5575.015827	27777.708038	3693.571968	11619.332217
78.536000	0.228972	0.135679	0.244123	0.355584	5579.968283	27753.220399	3695.462230	11608.336663
79.036500	0.227130	0.135364	0.241647	0.355308	5570.138125	27751.042417	3691.015878	11613.901158
79.539500	0.228767	0.135882	0.243922	0.355368	5580.034095	27777.173549	3695.492130	11612.686561
80.036500	0.231028	0.137422	0.241980	0.357786	5579.054770	27727.087948	3686.702142	11564.097894
80.535000	0.225871	0.137186	0.242720	0.359832	5534.170946	27597.196206	3684.084754	11523.180571
81.035000	0.231931	0.137499	0.241432	0.358022	5583.241494	27717.969779	3685.128339	11559.353397
81.538000	0.229733	0.136921	0.247265	0.357441	5573.087020	27718.187054	3698.071958	11571.013793
82.035500	0.228478	0.135527	0.247075	0.357077	5567.508954	27659.420927	3698.425081	11578.312856
82.536000	0.228200	0.135876	0.248984	0.361126	5540.569588	27449.752948	3694.083389	11497.393321
83.036500	0.226162	0.136154	0.244621	0.358421	5544.707941	27618.676811	3690.735638	11551.374332
83.536500	0.229336	0.135764	0.246730	0.358212	5565.772148	27608.369932	3695.421278	11555.551750
84.037000	0.229574	0.136763	0.240893	0.360130	5555.290243	27556.216103	3679.842473	11517.220125
84.537000	0.228009	0.136884	0.249511	0.363033	5527.606441	27399.064339	3691.296497	11459.543622
85.037500	0.228094	0.135943	0.249513	0.359821	5548.006993	27527.283235	3697.802459	11523.386894
85.535000	0.230285	0.137040	0.240297	0.363164	5540.860406	27400.454522	3672.646721	11456.949768
86.035500	0.230179	0.136222	0.242936	0.362456	5544.593264	27394.289994	3679.280098	11470.974981
86.535000	0.228375	0.136687	0.244235	0.365882	5512.344071	27228.126630	3675.058094	11403.297298
87.036000	0.230593	0.135705	0.243303	0.363006	5543.751739	27334.296430	3678.917663	11460.078784
87.536000	0.227345	0.135927	0.241854	0.364221	5516.211666	27278.571176	3673.635462	11436.043461
88.036500	0.230711	0.134946	0.243217	0.364313	5536.384890	27218.513378	3676.149930	11434.227974
88.536500	0.230789	0.135697	0.250066	0.368978	5508.163029	27000.695992	3680.490708	11342.604939
89.037000	0.229507	0.135516	0.244252	0.365520	5521.511612	27182.873894	3675.809492	11410.421803
89.537000	0.231398	0.136387	0.250547	0.367803	5519.110311	27104.247328	3683.796768	11365.596495
90.037000	0.232809	0.136386	0.247687	0.368246	5525.062548	27079.554701	3677.215152	11356.915646
90.535000	0.232291	0.136735	0.250867	0.367963	5523.616461	27114.716862	3684.117891	11362.463508
91.035500	0.230787	0.135117	0.249107	0.367911	5514.690380	27027.668794	3680.706569	11363.472232
91.535500	0.233319	0.133995	0.248063	0.369378	5521.236160	26884.509904	3675.717984	11334.796430
92.036000	0.233024	0.135838	0.249989	0.370329	5513.581407	26933.748490	3677.650023	11316.251962
92.539000	0.230843	0.134916	0.250074	0.374266	5476.326495	26666.758822	3670.034806	11239.922369
93.036000	0.232686	0.135302	0.251061	0.371551	5504.035052	26836.804196	3677.352724	11292.492297
93.536000	0.231788	0.134430	0.246403	0.372292	5494.037251	26748.242183	3666.702978	11278.111262
94.037000	0.234011	0.134601	0.246624	0.372944	5503.614487	26721.870247	3665.858040	11265.474960
94.540000	0.232397	0.134766	0.247549	0.373559	5490.030868	26697.194099	3666.465256	11253.574582
95.037500	0.231502	0.134880	0.252434	0.374669	5477.877970	26642.831581	3673.897146	11232.158197
95.535000	0.232867	0.133916	0.250363	0.376614	5474.369822	26484.554901	3665.992153	11194.734708
96.035500	0.230099	0.133490	0.251339	0.376174	5460.340885	26485.322228	3668.770851	11203.174399
96.536500	0.234727	0.133886	0.257445	0.377471	5480.439699	26436.566659	3678.276174	11178.307468
