sample name	sample
index	1050
start time	 04-19-2021  02:34:26 PM


Wavelength (nm)	Absorbance
494.344910	-0.082560
494.563924	-0.082560
494.782919	-0.082560
495.001897	-0.206340
495.220856	-0.059820
495.439797	-0.036038
495.658719	-0.030926
495.877624	-0.022379
496.096510	-0.004103
496.315378	0.012738
496.534227	-0.018861
496.753059	-0.005621
496.971872	0.020218
497.190667	0.061976
497.409444	0.061923
497.628203	0.061076
497.846943	0.062453
498.065665	0.064582
498.284369	0.064246
498.503055	0.064097
498.721723	0.064554
498.940372	0.063428
499.159003	0.062617
499.377616	0.062573
499.596210	0.062739
499.814787	0.063527
500.033345	0.063215
500.251885	0.063636
500.470406	0.063951
500.688910	0.063104
500.907395	0.063536
501.125862	0.063887
501.344311	0.063636
501.562742	0.064739
501.781154	0.063830
501.999548	0.064042
502.217924	0.063225
502.436282	0.062577
502.654621	0.063753
502.872942	0.064345
503.091245	0.064061
503.309530	0.063940
503.527797	0.063546
503.746045	0.063495
503.964275	0.062831
504.182487	0.063460
504.400681	0.064060
504.618856	0.064074
504.837013	0.064168
505.055152	0.064061
505.273273	0.065145
505.491376	0.064735
505.709460	0.064325
505.927526	0.064317
506.145574	0.063587
506.363604	0.063534
506.581615	0.062273
506.799608	0.062295
507.017583	0.063130
507.235540	0.063482
507.453478	0.063862
507.671399	0.064661
507.889301	0.064513
508.107185	0.065288
508.325050	0.065639
508.542898	0.066088
508.760727	0.066681
508.978538	0.066080
509.196330	0.065221
509.414105	0.064994
509.631861	0.065787
509.849599	0.066461
510.067319	0.065992
510.285021	0.066028
510.502704	0.066326
510.720369	0.065243
510.938016	0.065735
511.155645	0.065967
511.373255	0.065498
511.590848	0.065186
511.808422	0.064972
512.025977	0.065971
512.243515	0.066231
512.461034	0.066866
512.678536	0.066989
512.896018	0.067058
513.113483	0.066853
513.330930	0.067809
513.548358	0.068063
513.765768	0.069237
513.983160	0.068189
514.200533	0.067787
514.417889	0.066882
514.635226	0.066632
514.852545	0.066693
515.069845	0.066998
515.287128	0.066948
515.504392	0.066938
515.721638	0.065918
515.938866	0.066755
516.156075	0.066377
516.373267	0.065984
516.590440	0.067547
516.807594	0.068055
517.024731	0.067959
517.241850	0.067360
517.458950	0.066776
517.676032	0.066686
517.893095	0.066561
518.110141	0.067606
518.327168	0.068020
518.544177	0.067137
518.761168	0.066667
518.978141	0.067228
519.195095	0.067950
519.412031	0.069055
519.628949	0.068887
519.845849	0.068274
520.062731	0.068484
520.279594	0.069536
520.496439	0.070239
520.713266	0.070036
520.930074	0.069408
521.146865	0.069912
521.363637	0.069701
521.580391	0.070162
521.797127	0.070955
522.013844	0.071073
522.230543	0.071269
522.447224	0.071394
522.663887	0.071923
522.880532	0.072437
523.097158	0.072909
523.313766	0.073021
523.530356	0.073072
523.746928	0.073418
523.963481	0.073534
524.180017	0.073865
524.396534	0.073514
524.613032	0.074075
524.829513	0.074409
525.045975	0.074075
525.262420	0.073639
525.478845	0.074493
525.695253	0.074562
525.911643	0.074665
526.128014	0.074664
526.344367	0.074902
526.560702	0.074827
526.777018	0.074969
526.993316	0.074751
527.209597	0.075451
527.425858	0.075001
527.642102	0.075475
527.858328	0.075186
528.074535	0.075103
528.290724	0.075027
528.506894	0.075431
528.723047	0.075045
528.939181	0.075980
529.155297	0.075878
529.371395	0.076516
529.587475	0.076161
529.803536	0.076945
530.019579	0.077285
530.235604	0.078025
530.451611	0.077675
530.667600	0.078090
530.883570	0.077836
531.099522	0.078264
531.315456	0.077574
531.531372	0.077713
531.747269	0.077838
531.963148	0.077411
532.179009	0.077510
532.394852	0.078269
532.610676	0.078373
532.826482	0.078533
533.042271	0.078144
533.258040	0.078603
533.473792	0.079107
533.689525	0.079214
533.905240	0.079999
534.120937	0.079956
534.336616	0.079950
534.552277	0.080543
534.767919	0.080891
534.983543	0.081388
535.199149	0.081827
535.414736	0.081560
535.630306	0.081491
535.845857	0.081330
536.061390	0.081617
536.276904	0.081557
536.492401	0.081502
536.707879	0.081547
536.923339	0.081981
537.138781	0.082349
537.354204	0.082909
537.569610	0.083164
537.784997	0.083243
538.000366	0.082790
538.215716	0.082902
538.431049	0.083642
538.646363	0.083365
538.861659	0.082782
539.076937	0.082808
539.292196	0.082680
539.507438	0.082942
539.722661	0.083098
539.937866	0.083269
540.153052	0.083391
540.368221	0.083255
540.583371	0.083297
540.798503	0.083737
541.013617	0.083940
541.228712	0.083809
541.443789	0.084001
541.658848	0.083939
541.873889	0.084394
542.088912	0.084335
542.303916	0.084367
542.518902	0.084923
542.733870	0.085038
542.948820	0.085004
543.163752	0.085408
543.378665	0.085297
543.593560	0.085983
543.808437	0.086063
544.023295	0.086761
544.238136	0.086861
544.452958	0.087082
544.667762	0.087209
544.882548	0.087441
545.097315	0.087847
545.312064	0.088075
545.526795	0.087853
545.741508	0.088289
545.956203	0.088210
546.170879	0.088263
546.385537	0.087937
546.600177	0.088406
546.814799	0.088340
547.029402	0.088344
547.243988	0.088483
547.458555	0.088720
547.673103	0.088685
547.887634	0.088816
548.102146	0.089250
548.316640	0.089147
548.531116	0.089043
548.745574	0.089396
548.960013	0.089851
549.174435	0.089732
549.388838	0.089810
549.603222	0.089797
549.817589	0.090061
550.031937	0.090043
550.246267	0.091155
550.460579	0.091469
550.674873	0.091497
550.889148	0.091318
551.103405	0.091421
551.317644	0.091418
551.531865	0.091913
551.746068	0.091742
551.960252	0.091506
552.174418	0.090653
552.388566	0.090595
552.602696	0.090303
552.816807	0.090245
553.030900	0.090155
553.244975	0.090229
553.459032	0.089912
553.673070	0.089871
553.887091	0.089760
554.101093	0.089922
554.315077	0.089499
554.529042	0.089649
554.742990	0.089659
554.956919	0.089625
555.170830	0.089327
555.384722	0.089123
555.598597	0.089099
555.812453	0.089480
556.026291	0.089860
556.240111	0.090169
556.453913	0.090697
556.667696	0.090777
556.881461	0.091109
557.095208	0.091941
557.308937	0.092487
557.522647	0.092820
557.736339	0.093021
557.950013	0.092921
558.163669	0.093004
558.377307	0.092554
558.590926	0.092459
558.804527	0.092271
559.018110	0.092133
559.231675	0.092336
559.445221	0.092168
559.658749	0.091902
559.872259	0.091998
560.085751	0.092398
560.299225	0.092966
560.512680	0.093422
560.726117	0.093535
560.939536	0.093257
561.152937	0.092966
561.366319	0.093245
561.579683	0.092786
561.793029	0.092632
562.006357	0.092381
562.219667	0.092040
562.432958	0.091642
562.646231	0.091745
562.859486	0.092001
563.072723	0.091742
563.285941	0.091411
563.499141	0.091989
563.712323	0.092141
563.925487	0.092077
564.138632	0.091986
564.351760	0.092296
564.564869	0.092441
564.777960	0.092184
564.991032	0.092502
565.204087	0.092796
565.417123	0.092701
565.630141	0.092497
565.843140	0.092345
566.056122	0.092417
566.269085	0.092318
566.482030	0.092359
566.694957	0.092488
566.907866	0.091906
567.120756	0.092158
567.333628	0.092094
567.546482	0.092266
567.759318	0.092608
567.972135	0.092759
568.184935	0.092811
568.397716	0.092586
568.610478	0.092884
568.823223	0.093693
569.035949	0.093166
569.248657	0.093320
569.461347	0.093550
569.674019	0.093439
569.886672	0.093650
570.099308	0.093887
570.311925	0.094309
570.524523	0.094177
570.737104	0.094098
570.949666	0.094474
571.162210	0.094513
571.374736	0.094464
571.587244	0.094597
571.799733	0.094230
572.012205	0.093936
572.224658	0.093757
572.437092	0.093773
572.649509	0.093815
572.861907	0.093755
573.074287	0.093563
573.286649	0.093476
573.498993	0.093544
573.711318	0.093773
573.923625	0.093665
574.135914	0.093584
574.348185	0.093830
574.560438	0.093681
574.772672	0.093753
574.984888	0.094096
575.197086	0.094442
575.409266	0.094432
575.621427	0.094640
575.833570	0.095008
576.045695	0.095381
576.257802	0.095050
576.469890	0.095383
576.681961	0.095270
576.894013	0.095372
577.106046	0.095413
577.318062	0.095557
577.530059	0.095678
577.742039	0.095866
577.954000	0.095926
578.165942	0.096204
578.377867	0.096196
578.589773	0.096403
578.801661	0.096278
579.013531	0.096270
579.225382	0.096439
579.437216	0.096160
579.649031	0.096195
579.860828	0.096055
580.072606	0.096251
580.284367	0.096196
580.496109	0.096235
580.707833	0.096522
580.919539	0.096435
581.131227	0.096729
581.342896	0.097070
581.554547	0.096925
581.766180	0.096985
581.977795	0.096915
582.189391	0.097100
582.400969	0.096926
582.612529	0.096901
582.824071	0.097014
583.035595	0.096859
583.247100	0.096885
583.458587	0.097139
583.670056	0.097233
583.881506	0.097286
584.092939	0.097106
584.304353	0.097394
584.515749	0.097740
584.727127	0.098116
584.938486	0.098057
585.149828	0.098006
585.361151	0.098134
585.572456	0.098141
585.783742	0.098180
585.995011	0.098469
586.206261	0.098534
586.417493	0.098443
586.628706	0.098349
586.839902	0.098360
587.051079	0.098359
587.262238	0.098307
587.473379	0.098349
587.684502	0.098377
587.895606	0.098777
588.106692	0.098781
588.317760	0.098861
588.528810	0.098806
588.739841	0.099022
588.950855	0.099318
589.161850	0.099016
589.372827	0.099170
589.583785	0.099323
589.794726	0.099063
590.005648	0.099272
590.216552	0.099057
590.427437	0.099467
590.638305	0.099554
590.849154	0.099346
591.059985	0.099669
591.270798	0.099735
591.481592	0.099779
591.692369	0.099793
591.903127	0.100205
592.113867	0.100706
592.324588	0.100468
592.535292	0.100425
592.745977	0.100918
592.956644	0.101004
593.167293	0.101190
593.377923	0.101568
593.588536	0.101631
593.799130	0.101505
594.009706	0.101744
594.220263	0.102145
594.430803	0.102004
594.641324	0.101877
594.851827	0.102332
595.062312	0.102524
595.272778	0.102435
595.483227	0.102891
595.693657	0.103252
595.904069	0.103228
596.114462	0.103183
596.324838	0.103867
596.535195	0.104237
596.745534	0.104187
596.955855	0.104564
597.166157	0.104604
597.376441	0.104382
597.586707	0.104183
597.796955	0.104290
598.007185	0.104365
598.217396	0.104538
598.427589	0.104468
598.637764	0.104762
598.847921	0.104572
599.058060	0.104439
599.268180	0.104822
599.478282	0.104983
599.688366	0.104965
599.898431	0.104978
600.108479	0.104622
600.318508	0.104577
600.528519	0.104659
600.738511	0.104846
600.948486	0.105113
601.158442	0.104880
601.368380	0.105224
601.578300	0.105430
601.788202	0.105660
601.998085	0.106033
602.207950	0.106271
602.417797	0.106126
602.627626	0.106094
602.837436	0.106298
603.047228	0.106433
603.257002	0.106162
603.466758	0.106187
603.676496	0.106076
603.886215	0.106219
604.095916	0.106366
604.305599	0.106350
604.515264	0.106657
604.724910	0.106356
604.934538	0.106414
605.144148	0.106304
605.353740	0.106144
605.563314	0.106370
605.772869	0.106261
605.982406	0.106051
606.191925	0.106052
606.401425	0.105767
606.610908	0.105915
606.820372	0.106094
607.029818	0.106305
607.239246	0.106091
607.448655	0.106042
607.658047	0.105889
607.867420	0.106313
608.076775	0.106621
608.286111	0.106528
608.495430	0.106917
608.704730	0.106540
608.914012	0.106603
609.123275	0.107202
609.332521	0.107238
609.541748	0.107495
609.750957	0.107474
609.960148	0.107339
610.169321	0.107745
610.378475	0.107796
610.587611	0.108137
610.796729	0.108499
611.005829	0.108417
611.214910	0.108486
611.423974	0.108353
611.633019	0.108285
611.842045	0.108243
612.051054	0.108266
612.260044	0.108121
612.469017	0.108021
612.677970	0.107799
612.886906	0.107860
613.095824	0.107932
613.304723	0.108063
613.513604	0.107978
613.722467	0.108128
613.931311	0.108119
614.140138	0.108413
614.348946	0.108883
614.557736	0.108721
614.766507	0.108754
614.975261	0.109012
615.183996	0.109206
615.392713	0.109246
615.601412	0.109227
615.810092	0.109497
616.018754	0.109610
616.227399	0.109531
616.436024	0.109902
616.644632	0.110028
616.853222	0.109935
617.061793	0.109877
617.270346	0.110290
617.478880	0.110740
617.687397	0.110545
617.895895	0.110512
618.104375	0.110682
618.312837	0.110577
618.521281	0.110474
618.729706	0.110418
618.938113	0.110574
619.146502	0.110331
619.354873	0.110084
619.563226	0.110262
619.771560	0.110407
619.979876	0.110408
620.188174	0.110562
620.396453	0.110654
620.604715	0.110690
620.812958	0.110828
621.021183	0.110913
621.229390	0.111064
621.437578	0.111191
621.645748	0.111081
621.853900	0.111177
622.062034	0.111213
622.270150	0.111455
622.478247	0.111646
622.686326	0.111653
622.894387	0.111869
623.102430	0.111917
623.310454	0.111743
623.518461	0.111900
623.726449	0.111675
623.934418	0.111957
624.142370	0.112095
624.350303	0.112107
624.558218	0.112041
624.766115	0.112118
624.973994	0.112179
625.181855	0.112381
625.389697	0.112239
625.597521	0.112580
625.805327	0.112524
626.013114	0.112573
626.220883	0.112551
626.428634	0.112687
626.636367	0.112779
626.844082	0.112553
627.051778	0.112438
627.259457	0.112711
627.467117	0.112776
627.674758	0.112888
627.882382	0.112788
628.089987	0.113225
628.297574	0.113022
628.505143	0.112928
628.712694	0.113429
628.920226	0.113830
629.127740	0.113864
629.335236	0.113929
629.542714	0.113821
629.750174	0.113997
629.957615	0.113864
630.165038	0.114178
630.372443	0.114340
630.579829	0.114174
630.787198	0.114268
630.994548	0.114479
631.201880	0.114709
631.409194	0.115048
631.616489	0.115128
631.823766	0.115304
632.031025	0.115540
632.238266	0.115474
632.445489	0.115528
632.652693	0.115509
632.859879	0.115572
633.067047	0.115571
633.274197	0.115488
633.481329	0.115467
633.688442	0.115316
633.895537	0.115388
634.102614	0.115722
634.309672	0.116171
634.516713	0.116397
634.723735	0.116603
634.930739	0.116640
635.137724	0.116903
635.344692	0.116968
635.551641	0.117256
635.758572	0.117342
635.965485	0.117359
636.172379	0.117085
636.379256	0.117008
636.586114	0.116812
636.792954	0.117013
636.999775	0.117132
637.206579	0.117262
637.413364	0.117340
637.620131	0.117427
637.826880	0.117771
638.033610	0.118011
638.240323	0.117885
638.447017	0.118000
638.653692	0.117915
638.860350	0.117796
639.066990	0.117825
639.273611	0.117746
639.480214	0.117722
639.686798	0.117495
639.893365	0.117539
640.099913	0.117759
640.306443	0.118093
640.512955	0.118295
640.719449	0.118211
640.925924	0.118360
641.132381	0.118567
641.338820	0.118444
641.545241	0.118620
641.751644	0.118661
641.958028	0.118832
642.164394	0.118897
642.370742	0.118899
642.577071	0.119227
642.783383	0.119352
642.989676	0.119686
643.195951	0.119858
643.402207	0.119804
643.608446	0.120011
643.814666	0.120096
644.020868	0.120073
644.227052	0.119963
644.433218	0.120098
644.639365	0.120210
644.845494	0.120130
645.051605	0.120180
645.257698	0.119994
645.463772	0.120285
645.669828	0.120298
645.875866	0.120464
646.081886	0.120530
646.287888	0.120432
646.493871	0.120332
646.699836	0.120361
646.905783	0.120598
647.111712	0.121032
647.317622	0.120896
647.523514	0.121133
647.729388	0.120995
647.935244	0.121166
648.141082	0.121285
648.346901	0.121450
648.552702	0.121596
648.758485	0.121751
648.964250	0.121790
649.169996	0.121838
649.375724	0.121702
649.581434	0.121889
649.787126	0.121977
649.992800	0.122164
650.198455	0.122308
650.404092	0.122413
650.609711	0.122609
650.815311	0.122867
651.020894	0.122946
651.226458	0.123184
651.432004	0.123233
651.637532	0.123315
651.843041	0.123307
652.048532	0.123257
652.254006	0.123253
652.459460	0.123115
652.664897	0.123074
652.870315	0.123192
653.075716	0.123322
653.281097	0.123529
653.486461	0.123975
653.691807	0.124442
653.897134	0.124630
654.102443	0.124927
654.307734	0.125301
654.513006	0.125530
654.718261	0.125747
654.923497	0.125893
655.128715	0.126128
655.333915	0.125864
655.539096	0.125761
655.744259	0.125898
655.949404	0.125943
656.154531	0.125799
656.359640	0.125823
656.564730	0.126101
656.769802	0.126268
656.974856	0.126216
657.179892	0.126466
657.384909	0.126706
657.589908	0.126871
657.794889	0.127014
657.999852	0.127167
658.204797	0.127356
658.409723	0.127225
658.614631	0.126935
658.819521	0.127068
659.024393	0.127296
659.229246	0.127270
659.434081	0.127416
659.638898	0.127429
659.843697	0.127500
660.048478	0.127546
660.253240	0.127653
660.457984	0.128039
660.662710	0.128155
660.867417	0.128231
661.072107	0.128299
661.276778	0.128461
661.481431	0.128269
661.686066	0.128567
661.890682	0.128559
662.095281	0.128709
662.299861	0.128702
662.504422	0.128698
662.708966	0.128883
662.913491	0.128943
663.117999	0.128973
663.322488	0.129246
663.526958	0.129034
663.731411	0.129132
663.935845	0.129074
664.140261	0.129271
664.344659	0.129425
664.549038	0.129359
664.753400	0.129550
664.957743	0.129722
665.162068	0.130042
665.366375	0.130319
665.570663	0.130446
665.774933	0.130866
665.979185	0.130934
666.183419	0.130923
666.387635	0.131095
666.591832	0.131096
666.796011	0.131101
667.000172	0.130848
667.204315	0.130886
667.408439	0.130954
667.612545	0.130780
667.816634	0.130945
668.020703	0.131030
668.224755	0.131246
668.428788	0.131483
668.632803	0.131567
668.836800	0.131884
669.040779	0.131973
669.244739	0.132011
669.448681	0.132199
669.652605	0.132307
669.856511	0.132215
670.060399	0.132211
670.264268	0.132063
670.468119	0.132100
670.671952	0.132033
670.875767	0.132218
671.079563	0.132499
671.283341	0.132497
671.487101	0.132466
671.690843	0.132809
671.894567	0.132667
672.098272	0.132862
672.301959	0.133076
672.505628	0.133434
672.709278	0.133394
672.912911	0.133373
673.116525	0.133508
673.320121	0.133710
673.523699	0.133829
673.727258	0.134091
673.930799	0.134106
674.134322	0.134380
674.337827	0.134253
674.541314	0.134676
674.744782	0.134992
674.948232	0.135224
675.151664	0.135272
675.355078	0.135371
675.558474	0.135359
675.761851	0.135654
675.965210	0.135609
676.168551	0.135980
676.371873	0.135871
676.575178	0.135869
676.778464	0.135729
676.981732	0.135867
677.184981	0.135919
677.388213	0.136278
677.591426	0.136238
677.794621	0.136248
677.997798	0.136212
678.200956	0.136251
678.404097	0.136347
678.607219	0.136386
678.810323	0.136334
679.013408	0.136556
679.216476	0.136623
679.419525	0.136765
679.622556	0.136945
679.825569	0.137173
680.028563	0.137328
680.231540	0.137309
680.434498	0.137644
680.637438	0.137992
680.840359	0.137991
681.043263	0.137983
681.246148	0.138126
681.449015	0.138167
681.651864	0.138069
681.854694	0.138131
682.057506	0.138245
682.260301	0.138270
682.463076	0.138330
682.665834	0.138384
682.868573	0.138525
683.071295	0.138510
683.273998	0.138392
683.476682	0.138542
683.679349	0.138740
683.881997	0.138719
684.084627	0.138656
684.287239	0.138468
684.489833	0.138485
684.692408	0.138365
684.894965	0.138230
685.097504	0.138341
685.300025	0.138389
685.502527	0.138562
685.705012	0.138703
685.907478	0.138745
686.109925	0.138897
686.312355	0.139133
686.514766	0.139327
686.717159	0.139553
686.919534	0.139876
687.121891	0.140002
687.324230	0.139919
687.526550	0.140164
687.728852	0.140301
687.931136	0.140448
688.133401	0.140372
688.335649	0.140417
688.537878	0.140536
688.740089	0.140550
688.942281	0.140715
689.144456	0.140829
689.346612	0.140765
689.548750	0.140756
689.750870	0.140673
689.952971	0.140576
690.155055	0.140746
690.357120	0.140761
690.559167	0.140796
690.761195	0.140718
690.963206	0.140618
691.165198	0.140615
691.367172	0.140867
691.569128	0.140937
691.771065	0.141144
691.972984	0.141057
692.174885	0.141185
692.376768	0.141203
692.578633	0.141238
692.780479	0.141245
692.982308	0.141525
693.184118	0.141696
693.385909	0.141793
