sample name	sample
index	628
start time	 03-19-2021  02:53:31 PM


Wavelength (nm)	Absorbance
494.344910	-0.133672
494.563924	-0.133672
494.782919	-0.133672
495.001897	NaN
495.220856	0.089358
495.439797	0.182808
495.658719	0.314004
495.877624	0.244962
496.096510	0.113354
496.315378	0.144928
496.534227	0.082970
496.753059	0.241050
496.971872	0.446252
497.190667	0.107761
497.409444	0.093649
497.628203	0.090710
497.846943	0.092528
498.065665	0.092392
498.284369	0.092617
498.503055	0.092878
498.721723	0.091814
498.940372	0.090112
499.159003	0.089184
499.377616	0.088429
499.596210	0.088085
499.814787	0.087804
500.033345	0.087588
500.251885	0.086797
500.470406	0.085914
500.688910	0.085866
500.907395	0.086160
501.125862	0.086493
501.344311	0.087009
501.562742	0.087530
501.781154	0.086806
501.999548	0.086806
502.217924	0.087228
502.436282	0.087031
502.654621	0.087221
502.872942	0.087960
503.091245	0.088282
503.309530	0.089348
503.527797	0.088895
503.746045	0.088798
503.964275	0.089444
504.182487	0.089268
504.400681	0.089403
504.618856	0.090169
504.837013	0.089576
505.055152	0.089795
505.273273	0.089125
505.491376	0.089829
505.709460	0.090121
505.927526	0.089999
506.145574	0.090000
506.363604	0.091389
506.581615	0.091655
506.799608	0.091798
507.017583	0.091344
507.235540	0.091937
507.453478	0.091890
507.671399	0.092909
507.889301	0.093198
508.107185	0.093665
508.325050	0.093562
508.542898	0.092970
508.760727	0.093254
508.978538	0.093339
509.196330	0.093076
509.414105	0.093025
509.631861	0.092462
509.849599	0.090835
510.067319	0.090381
510.285021	0.089649
510.502704	0.089798
510.720369	0.089761
510.938016	0.090233
511.155645	0.089844
511.373255	0.089679
511.590848	0.089967
511.808422	0.091035
512.025977	0.091868
512.243515	0.091912
512.461034	0.091944
512.678536	0.092227
512.896018	0.092323
513.113483	0.093159
513.330930	0.093598
513.548358	0.093712
513.765768	0.093869
513.983160	0.093299
514.200533	0.093469
514.417889	0.093219
514.635226	0.093536
514.852545	0.093291
515.069845	0.093245
515.287128	0.092364
515.504392	0.091656
515.721638	0.092550
515.938866	0.092687
516.156075	0.093343
516.373267	0.093406
516.590440	0.093275
516.807594	0.093678
517.024731	0.094011
517.241850	0.095313
517.458950	0.095691
517.676032	0.095211
517.893095	0.096234
518.110141	0.096001
518.327168	0.096541
518.544177	0.096634
518.761168	0.096574
518.978141	0.096052
519.195095	0.095947
519.412031	0.096643
519.628949	0.096949
519.845849	0.096136
520.062731	0.096031
520.279594	0.096103
520.496439	0.096643
520.713266	0.096646
520.930074	0.097076
521.146865	0.097577
521.363637	0.097536
521.580391	0.097598
521.797127	0.097537
522.013844	0.098126
522.230543	0.098028
522.447224	0.097432
522.663887	0.098081
522.880532	0.098199
523.097158	0.097757
523.313766	0.097606
523.530356	0.097304
523.746928	0.097779
523.963481	0.097517
524.180017	0.097907
524.396534	0.098416
524.613032	0.098145
524.829513	0.098122
525.045975	0.097953
525.262420	0.098473
525.478845	0.098925
525.695253	0.099079
525.911643	0.100066
526.128014	0.100460
526.344367	0.100931
526.560702	0.102117
526.777018	0.102755
526.993316	0.103451
527.209597	0.103399
527.425858	0.103525
527.642102	0.103337
527.858328	0.103289
528.074535	0.103161
528.290724	0.103323
528.506894	0.102638
528.723047	0.102392
528.939181	0.102235
529.155297	0.102272
529.371395	0.102603
529.587475	0.103494
529.803536	0.103580
530.019579	0.103831
530.235604	0.103624
530.451611	0.104078
530.667600	0.104209
530.883570	0.104876
531.099522	0.105285
531.315456	0.105314
531.531372	0.105298
531.747269	0.105117
531.963148	0.105368
532.179009	0.105816
532.394852	0.105450
532.610676	0.105532
532.826482	0.105588
533.042271	0.106006
533.258040	0.106620
533.473792	0.106974
533.689525	0.107208
533.905240	0.107229
534.120937	0.107448
534.336616	0.107699
534.552277	0.107851
534.767919	0.107747
534.983543	0.107777
535.199149	0.108093
535.414736	0.108048
535.630306	0.108123
535.845857	0.108619
536.061390	0.108565
536.276904	0.108612
536.492401	0.109182
536.707879	0.109508
536.923339	0.109671
537.138781	0.109318
537.354204	0.109744
537.569610	0.109597
537.784997	0.109698
538.000366	0.109680
538.215716	0.109724
538.431049	0.109696
538.646363	0.109939
538.861659	0.109692
539.076937	0.110005
539.292196	0.109779
539.507438	0.110451
539.722661	0.109869
539.937866	0.110141
540.153052	0.110156
540.368221	0.110265
540.583371	0.110036
540.798503	0.110314
541.013617	0.110440
541.228712	0.110516
541.443789	0.110720
541.658848	0.111831
541.873889	0.111939
542.088912	0.112807
542.303916	0.113146
542.518902	0.113687
542.733870	0.114366
542.948820	0.114579
543.163752	0.115173
543.378665	0.115104
543.593560	0.114781
543.808437	0.115306
544.023295	0.115249
544.238136	0.115284
544.452958	0.115345
544.667762	0.115036
544.882548	0.114957
545.097315	0.114646
545.312064	0.115021
545.526795	0.114731
545.741508	0.114541
545.956203	0.114624
546.170879	0.114696
546.385537	0.114559
546.600177	0.114727
546.814799	0.114969
547.029402	0.115195
547.243988	0.114838
547.458555	0.115344
547.673103	0.115651
547.887634	0.115371
548.102146	0.115523
548.316640	0.115571
548.531116	0.115243
548.745574	0.115346
548.960013	0.115085
549.174435	0.115494
549.388838	0.115557
549.603222	0.115435
549.817589	0.115926
550.031937	0.115936
550.246267	0.116539
550.460579	0.116890
550.674873	0.116991
550.889148	0.117334
551.103405	0.117750
551.317644	0.118022
551.531865	0.118528
551.746068	0.118450
551.960252	0.118863
552.174418	0.118873
552.388566	0.119337
552.602696	0.119754
552.816807	0.119802
553.030900	0.119546
553.244975	0.119674
553.459032	0.119515
553.673070	0.119628
553.887091	0.119466
554.101093	0.119198
554.315077	0.119022
554.529042	0.118884
554.742990	0.119168
554.956919	0.119287
555.170830	0.119602
555.384722	0.119771
555.598597	0.120126
555.812453	0.120404
556.026291	0.121016
556.240111	0.121400
556.453913	0.121533
556.667696	0.121786
556.881461	0.121958
557.095208	0.121635
557.308937	0.121746
557.522647	0.121869
557.736339	0.122193
557.950013	0.122398
558.163669	0.122268
558.377307	0.122065
558.590926	0.122124
558.804527	0.122825
559.018110	0.123491
559.231675	0.123356
559.445221	0.123761
559.658749	0.123525
559.872259	0.123241
560.085751	0.123421
560.299225	0.123840
560.512680	0.123838
560.726117	0.123481
560.939536	0.123352
561.152937	0.123503
561.366319	0.123265
561.579683	0.123438
561.793029	0.123960
562.006357	0.124224
562.219667	0.124338
562.432958	0.124537
562.646231	0.124558
562.859486	0.124273
563.072723	0.124415
563.285941	0.124672
563.499141	0.125167
563.712323	0.124699
563.925487	0.124787
564.138632	0.124599
564.351760	0.124970
564.564869	0.125036
564.777960	0.125208
564.991032	0.125354
565.204087	0.125257
565.417123	0.124925
565.630141	0.125139
565.843140	0.125188
566.056122	0.125351
566.269085	0.125042
566.482030	0.125247
566.694957	0.125419
566.907866	0.125832
567.120756	0.126113
567.333628	0.126278
567.546482	0.126580
567.759318	0.126272
567.972135	0.126540
568.184935	0.126641
568.397716	0.126405
568.610478	0.126681
568.823223	0.126592
569.035949	0.126780
569.248657	0.126888
569.461347	0.127033
569.674019	0.127645
569.886672	0.127756
570.099308	0.127938
570.311925	0.128187
570.524523	0.127992
570.737104	0.128164
570.949666	0.128156
571.162210	0.128158
571.374736	0.128465
571.587244	0.128623
571.799733	0.128618
572.012205	0.128503
572.224658	0.128500
572.437092	0.128790
572.649509	0.128922
572.861907	0.129062
573.074287	0.129339
573.286649	0.128994
573.498993	0.129032
573.711318	0.128924
573.923625	0.129342
574.135914	0.129693
574.348185	0.129698
574.560438	0.129646
574.772672	0.129528
574.984888	0.129554
575.197086	0.129362
575.409266	0.129151
575.621427	0.129645
575.833570	0.129834
576.045695	0.129817
576.257802	0.129891
576.469890	0.129946
576.681961	0.130053
576.894013	0.130402
577.106046	0.131166
577.318062	0.131525
577.530059	0.131403
577.742039	0.131124
577.954000	0.131356
578.165942	0.131720
578.377867	0.131951
578.589773	0.132139
578.801661	0.132113
579.013531	0.132095
579.225382	0.132131
579.437216	0.132006
579.649031	0.132219
579.860828	0.132338
580.072606	0.132187
580.284367	0.132095
580.496109	0.132278
580.707833	0.131994
580.919539	0.132052
581.131227	0.131949
581.342896	0.132146
581.554547	0.132359
581.766180	0.132579
581.977795	0.132973
582.189391	0.133358
582.400969	0.133299
582.612529	0.133588
582.824071	0.133767
583.035595	0.133725
583.247100	0.133955
583.458587	0.134049
583.670056	0.133940
583.881506	0.133751
584.092939	0.133546
584.304353	0.133797
584.515749	0.133680
584.727127	0.133385
584.938486	0.133755
585.149828	0.133843
585.361151	0.133777
585.572456	0.133632
585.783742	0.133713
585.995011	0.134185
586.206261	0.134466
586.417493	0.134477
586.628706	0.134740
586.839902	0.134684
587.051079	0.134787
587.262238	0.134938
587.473379	0.135126
587.684502	0.135399
587.895606	0.135194
588.106692	0.134928
588.317760	0.135232
588.528810	0.135318
588.739841	0.135586
588.950855	0.135441
589.161850	0.135658
589.372827	0.136002
589.583785	0.135568
589.794726	0.135283
590.005648	0.135499
590.216552	0.135456
590.427437	0.135386
590.638305	0.135494
590.849154	0.135795
591.059985	0.135858
591.270798	0.135586
591.481592	0.135945
591.692369	0.136056
591.903127	0.136275
592.113867	0.136659
592.324588	0.136834
592.535292	0.137016
592.745977	0.137332
592.956644	0.137146
593.167293	0.137421
593.377923	0.137791
593.588536	0.138075
593.799130	0.137974
594.009706	0.138024
594.220263	0.138433
594.430803	0.138565
594.641324	0.138600
594.851827	0.138739
595.062312	0.138949
595.272778	0.139048
595.483227	0.139242
595.693657	0.139226
595.904069	0.139158
596.114462	0.139072
596.324838	0.138691
596.535195	0.138749
596.745534	0.139244
596.955855	0.139368
597.166157	0.139119
597.376441	0.139113
597.586707	0.139306
597.796955	0.139362
598.007185	0.139245
598.217396	0.139585
598.427589	0.139505
598.637764	0.139440
598.847921	0.139262
599.058060	0.139657
599.268180	0.139774
599.478282	0.139768
599.688366	0.139802
599.898431	0.139831
600.108479	0.139742
600.318508	0.139695
600.528519	0.139574
600.738511	0.139661
600.948486	0.139648
601.158442	0.139895
601.368380	0.139899
601.578300	0.139937
601.788202	0.140132
601.998085	0.140176
602.207950	0.140428
602.417797	0.140448
602.627626	0.140282
602.837436	0.139927
603.047228	0.139762
603.257002	0.140063
603.466758	0.140391
603.676496	0.140533
603.886215	0.140625
604.095916	0.140697
604.305599	0.140972
604.515264	0.141307
604.724910	0.141585
604.934538	0.141729
605.144148	0.141629
605.353740	0.141418
605.563314	0.141565
605.772869	0.141702
605.982406	0.141754
606.191925	0.141499
606.401425	0.141567
606.610908	0.141587
606.820372	0.141668
607.029818	0.141682
607.239246	0.141902
607.448655	0.142056
607.658047	0.142303
607.867420	0.142328
608.076775	0.142628
608.286111	0.142375
608.495430	0.142592
608.704730	0.142887
608.914012	0.143288
609.123275	0.143454
609.332521	0.143219
609.541748	0.143329
609.750957	0.143455
609.960148	0.143484
610.169321	0.143868
610.378475	0.144145
610.587611	0.143879
610.796729	0.143704
611.005829	0.143683
611.214910	0.143900
611.423974	0.143753
611.633019	0.143865
611.842045	0.143799
612.051054	0.143917
612.260044	0.143863
612.469017	0.144093
612.677970	0.144393
612.886906	0.144495
613.095824	0.144239
613.304723	0.144489
613.513604	0.144609
613.722467	0.144890
613.931311	0.144873
614.140138	0.144812
614.348946	0.144951
614.557736	0.144686
614.766507	0.144615
614.975261	0.144956
615.183996	0.145032
615.392713	0.145025
615.601412	0.145246
615.810092	0.145597
616.018754	0.145978
616.227399	0.145851
616.436024	0.146062
616.644632	0.146267
616.853222	0.146461
617.061793	0.146657
617.270346	0.146637
617.478880	0.146717
617.687397	0.146329
617.895895	0.146051
618.104375	0.146184
618.312837	0.146289
618.521281	0.146490
618.729706	0.146383
618.938113	0.146102
619.146502	0.146230
619.354873	0.145915
619.563226	0.146417
619.771560	0.146644
619.979876	0.146774
620.188174	0.146836
620.396453	0.146557
620.604715	0.146821
620.812958	0.147122
621.021183	0.147150
621.229390	0.147252
621.437578	0.147314
621.645748	0.147414
621.853900	0.147408
622.062034	0.147465
622.270150	0.147939
622.478247	0.148099
622.686326	0.148241
622.894387	0.148269
623.102430	0.148439
623.310454	0.148315
623.518461	0.148332
623.726449	0.148265
623.934418	0.148332
624.142370	0.148379
624.350303	0.148215
624.558218	0.147968
624.766115	0.148100
624.973994	0.148216
625.181855	0.148089
625.389697	0.147969
625.597521	0.148282
625.805327	0.148457
626.013114	0.148374
626.220883	0.148470
626.428634	0.148568
626.636367	0.148535
626.844082	0.148347
627.051778	0.148408
627.259457	0.148400
627.467117	0.148546
627.674758	0.148607
627.882382	0.148809
628.089987	0.148977
628.297574	0.148719
628.505143	0.148823
628.712694	0.149187
628.920226	0.149688
629.127740	0.150189
629.335236	0.150066
629.542714	0.149858
629.750174	0.149792
629.957615	0.149674
630.165038	0.150206
630.372443	0.150239
630.579829	0.150403
630.787198	0.150234
630.994548	0.150205
631.201880	0.150319
631.409194	0.150442
631.616489	0.150628
631.823766	0.150879
632.031025	0.150958
632.238266	0.151232
632.445489	0.151066
632.652693	0.151112
632.859879	0.151212
633.067047	0.151110
633.274197	0.151308
633.481329	0.151375
633.688442	0.151230
633.895537	0.151370
634.102614	0.151622
634.309672	0.151908
634.516713	0.152072
634.723735	0.152298
634.930739	0.152607
635.137724	0.152741
635.344692	0.152793
635.551641	0.152978
635.758572	0.153002
635.965485	0.152895
636.172379	0.152917
636.379256	0.152787
636.586114	0.152561
636.792954	0.152785
636.999775	0.152890
637.206579	0.152985
637.413364	0.153233
637.620131	0.153411
637.826880	0.153522
638.033610	0.153781
638.240323	0.154239
638.447017	0.154487
638.653692	0.154333
638.860350	0.154427
639.066990	0.154370
639.273611	0.154462
639.480214	0.154611
639.686798	0.154588
639.893365	0.154602
640.099913	0.154588
640.306443	0.154600
640.512955	0.154556
640.719449	0.154480
640.925924	0.154634
641.132381	0.154592
641.338820	0.154660
641.545241	0.154695
641.751644	0.154806
641.958028	0.154931
642.164394	0.154980
642.370742	0.155396
642.577071	0.155703
642.783383	0.155816
642.989676	0.155947
643.195951	0.155689
643.402207	0.155748
643.608446	0.155622
643.814666	0.155619
644.020868	0.155901
644.227052	0.155879
644.433218	0.155720
644.639365	0.155801
644.845494	0.156024
645.051605	0.156414
645.257698	0.156617
645.463772	0.156704
645.669828	0.156881
645.875866	0.156767
646.081886	0.156829
646.287888	0.156940
646.493871	0.156884
646.699836	0.156769
646.905783	0.156615
647.111712	0.156465
647.317622	0.156876
647.523514	0.156982
647.729388	0.157010
647.935244	0.157044
648.141082	0.157182
648.346901	0.157339
648.552702	0.157462
648.758485	0.157640
648.964250	0.158056
649.169996	0.158009
649.375724	0.157958
649.581434	0.158242
649.787126	0.158591
649.992800	0.158756
650.198455	0.158834
650.404092	0.158941
650.609711	0.159125
650.815311	0.159072
651.020894	0.159210
651.226458	0.159464
651.432004	0.159351
651.637532	0.159451
651.843041	0.159440
652.048532	0.159667
652.254006	0.159877
652.459460	0.159950
652.664897	0.160126
652.870315	0.160091
653.075716	0.160087
653.281097	0.160305
653.486461	0.159995
653.691807	0.160232
653.897134	0.160212
654.102443	0.160241
654.307734	0.160227
654.513006	0.160020
654.718261	0.160271
654.923497	0.160059
655.128715	0.159958
655.333915	0.160138
655.539096	0.160241
655.744259	0.160364
655.949404	0.160329
656.154531	0.160527
656.359640	0.160801
656.564730	0.160892
656.769802	0.161303
656.974856	0.161701
657.179892	0.162080
657.384909	0.162098
657.589908	0.162489
657.794889	0.162827
657.999852	0.163033
658.204797	0.163265
658.409723	0.163365
658.614631	0.163517
658.819521	0.163648
659.024393	0.163706
659.229246	0.163899
659.434081	0.163608
659.638898	0.163656
659.843697	0.163575
660.048478	0.163774
660.253240	0.163867
660.457984	0.163658
660.662710	0.163526
660.867417	0.163385
661.072107	0.163438
661.276778	0.163829
661.481431	0.163844
661.686066	0.163916
661.890682	0.163869
662.095281	0.163801
662.299861	0.164074
662.504422	0.164265
662.708966	0.164497
662.913491	0.164502
663.117999	0.164564
663.322488	0.164647
663.526958	0.164877
663.731411	0.164974
663.935845	0.165229
664.140261	0.165642
664.344659	0.165753
664.549038	0.165933
664.753400	0.166375
664.957743	0.166327
665.162068	0.166672
665.366375	0.166981
665.570663	0.167139
665.774933	0.167182
665.979185	0.166960
666.183419	0.167281
666.387635	0.167481
666.591832	0.167169
666.796011	0.167311
667.000172	0.167314
667.204315	0.167221
667.408439	0.167112
667.612545	0.167245
667.816634	0.167577
668.020703	0.167445
668.224755	0.167357
668.428788	0.167762
668.632803	0.167934
668.836800	0.168030
669.040779	0.168114
669.244739	0.168454
669.448681	0.168572
669.652605	0.168498
669.856511	0.168712
670.060399	0.168868
670.264268	0.168881
670.468119	0.168784
670.671952	0.168701
670.875767	0.168776
671.079563	0.168788
671.283341	0.168797
671.487101	0.168966
671.690843	0.169092
671.894567	0.169178
672.098272	0.169212
672.301959	0.169371
672.505628	0.169620
672.709278	0.169698
672.912911	0.170011
673.116525	0.170225
673.320121	0.170432
673.523699	0.170500
673.727258	0.170707
673.930799	0.170747
674.134322	0.171010
674.337827	0.170945
674.541314	0.171197
674.744782	0.171131
674.948232	0.170998
675.151664	0.171070
675.355078	0.171182
675.558474	0.171222
675.761851	0.171509
675.965210	0.171592
676.168551	0.171896
676.371873	0.171932
676.575178	0.172034
676.778464	0.172207
676.981732	0.172406
677.184981	0.172431
677.388213	0.172460
677.591426	0.172514
677.794621	0.172775
677.997798	0.172831
678.200956	0.172961
678.404097	0.173176
678.607219	0.173357
678.810323	0.173454
679.013408	0.173649
679.216476	0.173879
679.419525	0.174014
679.622556	0.173904
679.825569	0.173999
680.028563	0.174120
680.231540	0.174176
680.434498	0.174316
680.637438	0.174363
680.840359	0.174277
681.043263	0.174227
681.246148	0.174135
681.449015	0.174206
681.651864	0.174224
681.854694	0.174338
682.057506	0.174303
682.260301	0.174462
682.463076	0.174413
682.665834	0.174583
682.868573	0.174736
683.071295	0.174881
683.273998	0.175260
683.476682	0.175273
683.679349	0.175303
683.881997	0.175775
684.084627	0.175711
684.287239	0.175623
684.489833	0.175652
684.692408	0.175780
684.894965	0.175938
685.097504	0.175743
685.300025	0.175860
685.502527	0.175774
685.705012	0.175835
685.907478	0.175889
686.109925	0.176135
686.312355	0.176177
686.514766	0.176144
686.717159	0.176196
686.919534	0.176204
687.121891	0.176496
687.324230	0.176697
687.526550	0.176661
687.728852	0.176724
687.931136	0.176822
688.133401	0.177051
688.335649	0.177084
688.537878	0.177100
688.740089	0.177419
688.942281	0.177205
689.144456	0.177468
689.346612	0.177041
689.548750	0.177409
689.750870	0.177505
689.952971	0.177399
690.155055	0.177692
690.357120	0.177906
690.559167	0.177831
690.761195	0.178160
690.963206	0.178117
691.165198	0.178721
691.367172	0.178654
691.569128	0.178710
691.771065	0.179118
691.972984	0.179295
692.174885	0.179467
692.376768	0.179645
692.578633	0.179797
692.780479	0.180155
692.982308	0.179954
693.184118	0.180043
693.385909	0.180191
