sample name	sample
index	443
start time	 03-11-2021  10:46:08 AM


Wavelength (nm)	Absorbance
494.344910	-0.086886
494.563924	-0.086886
494.782919	-0.086886
495.001897	-0.023335
495.220856	-0.029059
495.439797	-0.008855
495.658719	-0.002301
495.877624	-0.000858
496.096510	0.005810
496.315378	-0.003678
496.534227	-0.009749
496.753059	-0.013751
496.971872	-0.006420
497.190667	0.054571
497.409444	0.060671
497.628203	0.062533
497.846943	0.065363
498.065665	0.064332
498.284369	0.066124
498.503055	0.066524
498.721723	0.066911
498.940372	0.067923
499.159003	0.068470
499.377616	0.069478
499.596210	0.069643
499.814787	0.069126
500.033345	0.069963
500.251885	0.069738
500.470406	0.070602
500.688910	0.070348
500.907395	0.069994
501.125862	0.070362
501.344311	0.069689
501.562742	0.070173
501.781154	0.071179
501.999548	0.071203
502.217924	0.071524
502.436282	0.070565
502.654621	0.071672
502.872942	0.071579
503.091245	0.070598
503.309530	0.071143
503.527797	0.070998
503.746045	0.070419
503.964275	0.070373
504.182487	0.070423
504.400681	0.070951
504.618856	0.069921
504.837013	0.069942
505.055152	0.069456
505.273273	0.069111
505.491376	0.069034
505.709460	0.068837
505.927526	0.068826
506.145574	0.069023
506.363604	0.069277
506.581615	0.069324
506.799608	0.069263
507.017583	0.069707
507.235540	0.070090
507.453478	0.071115
507.671399	0.070853
507.889301	0.071188
508.107185	0.071617
508.325050	0.071863
508.542898	0.073399
508.760727	0.073911
508.978538	0.074627
509.196330	0.074409
509.414105	0.073774
509.631861	0.074018
509.849599	0.074338
510.067319	0.073571
510.285021	0.073041
510.502704	0.072794
510.720369	0.072814
510.938016	0.072164
511.155645	0.072975
511.373255	0.073240
511.590848	0.074383
511.808422	0.074592
512.025977	0.075179
512.243515	0.075839
512.461034	0.075084
512.678536	0.074947
512.896018	0.075395
513.113483	0.074469
513.330930	0.073702
513.548358	0.072770
513.765768	0.072762
513.983160	0.072137
514.200533	0.071712
514.417889	0.071666
514.635226	0.071842
514.852545	0.071164
515.069845	0.071453
515.287128	0.072374
515.504392	0.073749
515.721638	0.073688
515.938866	0.074103
516.156075	0.074362
516.373267	0.074787
516.590440	0.074612
516.807594	0.075789
517.024731	0.076203
517.241850	0.076565
517.458950	0.075869
517.676032	0.076171
517.893095	0.076356
518.110141	0.076965
518.327168	0.076524
518.544177	0.077833
518.761168	0.077532
518.978141	0.077205
519.195095	0.077219
519.412031	0.077761
519.628949	0.078205
519.845849	0.078806
520.062731	0.078719
520.279594	0.079292
520.496439	0.078682
520.713266	0.079222
520.930074	0.080107
521.146865	0.079638
521.363637	0.078969
521.580391	0.078635
521.797127	0.078943
522.013844	0.079153
522.230543	0.079877
522.447224	0.080485
522.663887	0.080178
522.880532	0.079488
523.097158	0.080574
523.313766	0.081110
523.530356	0.081056
523.746928	0.081195
523.963481	0.081478
524.180017	0.081478
524.396534	0.080962
524.613032	0.080843
524.829513	0.081462
525.045975	0.081392
525.262420	0.082092
525.478845	0.082330
525.695253	0.081856
525.911643	0.081591
526.128014	0.081493
526.344367	0.081218
526.560702	0.081568
526.777018	0.081854
526.993316	0.081775
527.209597	0.082124
527.425858	0.082055
527.642102	0.082886
527.858328	0.083038
528.074535	0.082982
528.290724	0.083784
528.506894	0.084158
528.723047	0.083820
528.939181	0.083863
529.155297	0.083177
529.371395	0.083537
529.587475	0.083414
529.803536	0.083743
530.019579	0.083933
530.235604	0.084056
530.451611	0.084261
530.667600	0.084598
530.883570	0.084569
531.099522	0.084903
531.315456	0.084883
531.531372	0.084683
531.747269	0.084656
531.963148	0.084991
532.179009	0.084892
532.394852	0.085270
532.610676	0.085452
532.826482	0.085744
533.042271	0.085681
533.258040	0.086186
533.473792	0.086380
533.689525	0.086677
533.905240	0.086561
534.120937	0.086893
534.336616	0.086312
534.552277	0.086713
534.767919	0.087326
534.983543	0.087931
535.199149	0.088013
535.414736	0.087972
535.630306	0.088073
535.845857	0.088766
536.061390	0.089047
536.276904	0.089366
536.492401	0.089001
536.707879	0.088942
536.923339	0.088963
537.138781	0.089321
537.354204	0.089951
537.569610	0.090011
537.784997	0.089583
538.000366	0.089476
538.215716	0.089724
538.431049	0.090241
538.646363	0.090226
538.861659	0.090381
539.076937	0.090560
539.292196	0.090566
539.507438	0.090565
539.722661	0.090696
539.937866	0.090914
540.153052	0.091098
540.368221	0.091312
540.583371	0.091927
540.798503	0.092245
541.013617	0.091943
541.228712	0.092042
541.443789	0.092328
541.658848	0.092936
541.873889	0.093152
542.088912	0.093171
542.303916	0.093006
542.518902	0.092551
542.733870	0.092215
542.948820	0.092472
543.163752	0.092491
543.378665	0.092636
543.593560	0.092312
543.808437	0.092608
544.023295	0.092725
544.238136	0.092709
544.452958	0.092968
544.667762	0.093170
544.882548	0.093139
545.097315	0.093392
545.312064	0.093685
545.526795	0.093973
545.741508	0.093717
545.956203	0.094131
546.170879	0.094115
546.385537	0.093629
546.600177	0.093731
546.814799	0.093917
547.029402	0.094060
547.243988	0.093823
547.458555	0.094481
547.673103	0.094408
547.887634	0.094246
548.102146	0.094712
548.316640	0.095356
548.531116	0.095673
548.745574	0.095978
548.960013	0.095681
549.174435	0.096058
549.388838	0.095764
549.603222	0.095873
549.817589	0.096424
550.031937	0.096096
550.246267	0.095737
550.460579	0.095894
550.674873	0.095504
550.889148	0.095554
551.103405	0.095661
551.317644	0.095728
551.531865	0.096086
551.746068	0.095773
551.960252	0.096139
552.174418	0.096879
552.388566	0.096851
552.602696	0.097161
552.816807	0.097134
553.030900	0.097038
553.244975	0.097091
553.459032	0.097145
553.673070	0.097379
553.887091	0.097484
554.101093	0.097644
554.315077	0.097569
554.529042	0.097666
554.742990	0.098090
554.956919	0.098251
555.170830	0.097923
555.384722	0.098011
555.598597	0.097763
555.812453	0.098020
556.026291	0.097961
556.240111	0.098093
556.453913	0.098503
556.667696	0.098405
556.881461	0.098430
557.095208	0.098858
557.308937	0.099375
557.522647	0.099971
557.736339	0.100234
557.950013	0.100442
558.163669	0.100778
558.377307	0.100657
558.590926	0.101133
558.804527	0.101493
559.018110	0.101455
559.231675	0.101371
559.445221	0.101067
559.658749	0.100877
559.872259	0.100789
560.085751	0.100406
560.299225	0.100734
560.512680	0.100840
560.726117	0.100647
560.939536	0.101111
561.152937	0.100797
561.366319	0.100851
561.579683	0.100722
561.793029	0.100774
562.006357	0.101024
562.219667	0.100992
562.432958	0.100519
562.646231	0.100573
562.859486	0.100308
563.072723	0.100649
563.285941	0.100834
563.499141	0.101192
563.712323	0.101098
563.925487	0.100941
564.138632	0.100820
564.351760	0.100916
564.564869	0.100644
564.777960	0.100516
564.991032	0.100482
565.204087	0.100398
565.417123	0.100326
565.630141	0.100199
565.843140	0.100686
566.056122	0.100703
566.269085	0.101008
566.482030	0.101145
566.694957	0.101237
566.907866	0.101296
567.120756	0.101449
567.333628	0.101440
567.546482	0.102004
567.759318	0.101790
567.972135	0.101793
568.184935	0.101878
568.397716	0.102313
568.610478	0.102365
568.823223	0.102488
569.035949	0.102483
569.248657	0.102396
569.461347	0.102248
569.674019	0.102391
569.886672	0.102555
570.099308	0.102956
570.311925	0.102966
570.524523	0.103259
570.737104	0.102952
570.949666	0.103051
571.162210	0.103236
571.374736	0.103240
571.587244	0.103351
571.799733	0.103495
572.012205	0.103197
572.224658	0.103349
572.437092	0.103682
572.649509	0.104113
572.861907	0.104271
573.074287	0.104576
573.286649	0.104355
573.498993	0.104497
573.711318	0.104562
573.923625	0.104886
574.135914	0.104734
574.348185	0.104370
574.560438	0.104397
574.772672	0.104235
574.984888	0.103961
575.197086	0.104155
575.409266	0.103937
575.621427	0.104093
575.833570	0.103937
576.045695	0.103788
576.257802	0.103756
576.469890	0.103611
576.681961	0.104105
576.894013	0.103981
577.106046	0.103941
577.318062	0.104016
577.530059	0.103815
577.742039	0.103613
577.954000	0.103641
578.165942	0.103895
578.377867	0.104165
578.589773	0.103923
578.801661	0.104276
579.013531	0.104361
579.225382	0.104238
579.437216	0.104320
579.649031	0.104545
579.860828	0.104880
580.072606	0.104822
580.284367	0.104565
580.496109	0.104490
580.707833	0.104464
580.919539	0.104594
581.131227	0.104838
581.342896	0.104813
581.554547	0.104842
581.766180	0.104743
581.977795	0.104675
582.189391	0.105061
582.400969	0.105068
582.612529	0.105298
582.824071	0.105331
583.035595	0.105321
583.247100	0.105447
583.458587	0.105568
583.670056	0.105542
583.881506	0.105664
584.092939	0.105416
584.304353	0.105703
584.515749	0.105740
584.727127	0.105815
584.938486	0.105869
585.149828	0.105624
585.361151	0.105738
585.572456	0.105950
585.783742	0.106218
585.995011	0.106246
586.206261	0.106028
586.417493	0.105724
586.628706	0.105800
586.839902	0.106189
587.051079	0.106540
587.262238	0.106622
587.473379	0.106568
587.684502	0.106686
587.895606	0.106863
588.106692	0.107245
588.317760	0.107276
588.528810	0.107313
588.739841	0.106980
588.950855	0.107084
589.161850	0.106998
589.372827	0.107287
589.583785	0.107255
589.794726	0.107335
590.005648	0.107152
590.216552	0.107446
590.427437	0.107501
590.638305	0.107870
590.849154	0.107581
591.059985	0.107611
591.270798	0.107842
591.481592	0.107791
591.692369	0.107991
591.903127	0.108117
592.113867	0.108332
592.324588	0.108378
592.535292	0.108491
592.745977	0.108904
592.956644	0.109228
593.167293	0.109007
593.377923	0.109105
593.588536	0.109198
593.799130	0.109348
594.009706	0.109417
594.220263	0.109578
594.430803	0.109412
594.641324	0.109485
594.851827	0.109374
595.062312	0.109739
595.272778	0.109922
595.483227	0.110255
595.693657	0.110482
595.904069	0.110789
596.114462	0.110968
596.324838	0.111239
596.535195	0.111600
596.745534	0.111780
596.955855	0.112059
597.166157	0.112236
597.376441	0.111934
597.586707	0.111999
597.796955	0.111918
598.007185	0.112052
598.217396	0.112281
598.427589	0.112298
598.637764	0.112661
598.847921	0.112440
599.058060	0.112428
599.268180	0.112601
599.478282	0.112617
599.688366	0.112599
599.898431	0.112693
600.108479	0.112508
600.318508	0.112478
600.528519	0.112260
600.738511	0.112187
600.948486	0.112406
601.158442	0.112420
601.368380	0.112388
601.578300	0.112577
601.788202	0.112207
601.998085	0.112243
602.207950	0.112373
602.417797	0.112267
602.627626	0.112623
602.837436	0.112354
603.047228	0.112351
603.257002	0.112390
603.466758	0.112050
603.676496	0.112444
603.886215	0.112425
604.095916	0.112032
604.305599	0.112335
604.515264	0.112150
604.724910	0.112577
604.934538	0.112608
605.144148	0.112852
605.353740	0.113367
605.563314	0.113495
605.772869	0.113521
605.982406	0.113719
606.191925	0.113576
606.401425	0.113686
606.610908	0.113460
606.820372	0.113840
607.029818	0.113950
607.239246	0.114072
607.448655	0.114447
607.658047	0.114985
607.867420	0.115105
608.076775	0.115387
608.286111	0.115629
608.495430	0.115596
608.704730	0.115583
608.914012	0.115526
609.123275	0.115431
609.332521	0.115129
609.541748	0.114941
609.750957	0.115128
609.960148	0.115031
610.169321	0.114841
610.378475	0.115087
610.587611	0.115033
610.796729	0.115073
611.005829	0.114807
611.214910	0.114799
611.423974	0.115095
611.633019	0.115007
611.842045	0.115158
612.051054	0.115441
612.260044	0.115532
612.469017	0.115505
612.677970	0.115388
612.886906	0.115968
613.095824	0.115881
613.304723	0.115759
613.513604	0.115923
613.722467	0.116042
613.931311	0.115966
614.140138	0.115953
614.348946	0.116062
614.557736	0.116455
614.766507	0.116254
614.975261	0.116624
615.183996	0.116559
615.392713	0.116486
615.601412	0.116194
615.810092	0.116151
616.018754	0.115837
616.227399	0.116051
616.436024	0.116200
616.644632	0.116023
616.853222	0.115908
617.061793	0.115877
617.270346	0.116164
617.478880	0.116515
617.687397	0.116648
617.895895	0.117141
618.104375	0.117106
618.312837	0.116916
618.521281	0.117145
618.729706	0.117309
618.938113	0.117731
619.146502	0.117932
619.354873	0.118093
619.563226	0.118105
619.771560	0.118256
619.979876	0.118368
620.188174	0.118756
620.396453	0.119150
620.604715	0.119161
620.812958	0.118973
621.021183	0.118926
621.229390	0.119045
621.437578	0.119339
621.645748	0.119521
621.853900	0.119577
622.062034	0.119349
622.270150	0.119148
622.478247	0.119061
622.686326	0.119159
622.894387	0.119120
623.102430	0.118774
623.310454	0.118576
623.518461	0.118410
623.726449	0.118226
623.934418	0.118061
624.142370	0.117998
624.350303	0.118067
624.558218	0.118098
624.766115	0.118053
624.973994	0.118353
625.181855	0.118359
625.389697	0.118431
625.597521	0.118497
625.805327	0.118712
626.013114	0.118871
626.220883	0.119064
626.428634	0.119258
626.636367	0.119361
626.844082	0.119471
627.051778	0.119550
627.259457	0.119564
627.467117	0.119662
627.674758	0.119858
627.882382	0.119974
628.089987	0.120142
628.297574	0.120046
628.505143	0.119975
628.712694	0.119699
628.920226	0.119678
629.127740	0.119531
629.335236	0.119559
629.542714	0.119487
629.750174	0.119503
629.957615	0.119578
630.165038	0.119639
630.372443	0.119985
630.579829	0.120007
630.787198	0.120062
630.994548	0.120210
631.201880	0.120319
631.409194	0.120160
631.616489	0.120207
631.823766	0.119859
632.031025	0.119770
632.238266	0.119580
632.445489	0.119748
632.652693	0.119847
632.859879	0.119977
633.067047	0.120105
633.274197	0.120379
633.481329	0.120196
633.688442	0.120430
633.895537	0.120674
634.102614	0.120530
634.309672	0.120530
634.516713	0.120641
634.723735	0.120454
634.930739	0.120372
635.137724	0.120453
635.344692	0.120925
635.551641	0.121311
635.758572	0.121514
635.965485	0.121721
636.172379	0.121891
636.379256	0.121886
636.586114	0.122202
636.792954	0.122500
636.999775	0.122648
637.206579	0.122415
637.413364	0.122183
637.620131	0.122128
637.826880	0.122355
638.033610	0.122580
638.240323	0.122673
638.447017	0.122738
638.653692	0.122635
638.860350	0.122481
639.066990	0.122702
639.273611	0.122608
639.480214	0.122707
639.686798	0.122618
639.893365	0.122575
640.099913	0.122754
640.306443	0.122750
640.512955	0.123052
640.719449	0.123282
640.925924	0.123203
641.132381	0.123356
641.338820	0.123246
641.545241	0.123317
641.751644	0.123331
641.958028	0.123328
642.164394	0.123297
642.370742	0.123317
642.577071	0.123376
642.783383	0.123352
642.989676	0.123615
643.195951	0.123790
643.402207	0.124051
643.608446	0.124227
643.814666	0.124257
644.020868	0.124547
644.227052	0.124513
644.433218	0.124515
644.639365	0.124727
644.845494	0.124594
645.051605	0.124429
645.257698	0.124401
645.463772	0.124452
645.669828	0.124598
645.875866	0.124655
646.081886	0.124977
646.287888	0.125173
646.493871	0.125312
646.699836	0.125652
646.905783	0.125834
647.111712	0.125813
647.317622	0.125889
647.523514	0.125816
647.729388	0.125687
647.935244	0.125416
648.141082	0.125294
648.346901	0.125489
648.552702	0.125408
648.758485	0.125685
648.964250	0.126032
649.169996	0.126207
649.375724	0.126447
649.581434	0.126653
649.787126	0.126886
649.992800	0.127011
650.198455	0.126853
650.404092	0.127013
650.609711	0.127135
650.815311	0.127164
651.020894	0.127088
651.226458	0.127154
651.432004	0.127205
651.637532	0.127137
651.843041	0.127187
652.048532	0.127363
652.254006	0.127256
652.459460	0.127243
652.664897	0.127157
652.870315	0.127166
653.075716	0.127154
653.281097	0.127281
653.486461	0.127312
653.691807	0.127433
653.897134	0.127539
654.102443	0.127797
654.307734	0.127933
654.513006	0.128092
654.718261	0.128102
654.923497	0.128317
655.128715	0.128454
655.333915	0.128550
655.539096	0.128646
655.744259	0.128754
655.949404	0.128703
656.154531	0.128846
656.359640	0.128914
656.564730	0.129210
656.769802	0.129263
656.974856	0.129256
657.179892	0.129358
657.384909	0.129112
657.589908	0.129035
657.794889	0.129126
657.999852	0.128629
658.204797	0.128675
658.409723	0.128529
658.614631	0.128594
658.819521	0.128498
659.024393	0.128478
659.229246	0.128825
659.434081	0.128977
659.638898	0.129106
659.843697	0.129565
660.048478	0.129692
660.253240	0.129799
660.457984	0.129650
660.662710	0.129959
660.867417	0.130228
661.072107	0.130233
661.276778	0.130372
661.481431	0.130433
661.686066	0.130447
661.890682	0.130570
662.095281	0.130688
662.299861	0.130799
662.504422	0.130819
662.708966	0.130853
662.913491	0.131156
663.117999	0.131120
663.322488	0.131468
663.526958	0.131462
663.731411	0.131430
663.935845	0.131478
664.140261	0.131519
664.344659	0.131525
664.549038	0.131587
664.753400	0.131390
664.957743	0.131662
665.162068	0.131340
665.366375	0.131538
665.570663	0.131540
665.774933	0.131688
665.979185	0.131844
666.183419	0.131872
666.387635	0.131690
666.591832	0.131783
666.796011	0.131661
667.000172	0.131782
667.204315	0.131779
667.408439	0.131922
667.612545	0.131905
667.816634	0.132106
668.020703	0.132232
668.224755	0.132536
668.428788	0.132843
668.632803	0.133063
668.836800	0.133106
669.040779	0.133221
669.244739	0.133118
669.448681	0.133186
669.652605	0.133055
669.856511	0.133197
670.060399	0.133074
670.264268	0.133005
670.468119	0.132897
670.671952	0.133001
670.875767	0.133160
671.079563	0.133254
671.283341	0.133215
671.487101	0.133172
671.690843	0.133141
671.894567	0.133056
672.098272	0.133079
672.301959	0.133109
672.505628	0.133192
672.709278	0.133198
672.912911	0.133508
673.116525	0.133758
673.320121	0.134115
673.523699	0.134116
673.727258	0.134356
673.930799	0.134393
674.134322	0.134400
674.337827	0.134371
674.541314	0.134351
674.744782	0.134437
674.948232	0.134324
675.151664	0.134541
675.355078	0.134621
675.558474	0.134864
675.761851	0.135023
675.965210	0.135233
676.168551	0.135349
676.371873	0.135465
676.575178	0.135463
676.778464	0.135718
676.981732	0.135621
677.184981	0.136017
677.388213	0.136257
677.591426	0.136482
677.794621	0.136679
677.997798	0.136784
678.200956	0.136753
678.404097	0.136649
678.607219	0.136698
678.810323	0.136587
679.013408	0.136316
679.216476	0.136348
679.419525	0.136091
679.622556	0.136199
679.825569	0.136198
680.028563	0.136335
680.231540	0.136434
680.434498	0.136508
680.637438	0.136603
680.840359	0.136794
681.043263	0.136691
681.246148	0.137038
681.449015	0.136734
681.651864	0.136743
681.854694	0.136930
682.057506	0.137151
682.260301	0.137093
682.463076	0.137258
682.665834	0.137246
682.868573	0.137261
683.071295	0.137293
683.273998	0.137707
683.476682	0.138037
683.679349	0.137943
683.881997	0.137998
684.084627	0.138342
684.287239	0.138287
684.489833	0.138334
684.692408	0.138524
684.894965	0.138462
685.097504	0.138537
685.300025	0.138536
685.502527	0.138628
685.705012	0.138623
685.907478	0.138404
686.109925	0.138612
686.312355	0.138932
686.514766	0.138812
686.717159	0.138848
686.919534	0.138649
687.121891	0.138641
687.324230	0.138780
687.526550	0.138996
687.728852	0.139145
687.931136	0.139113
688.133401	0.138992
688.335649	0.139086
688.537878	0.139120
688.740089	0.139294
688.942281	0.139478
689.144456	0.139452
689.346612	0.139306
689.548750	0.139330
689.750870	0.139475
689.952971	0.139512
690.155055	0.139816
690.357120	0.140086
690.559167	0.140413
690.761195	0.140441
690.963206	0.140678
691.165198	0.140850
691.367172	0.141217
691.569128	0.141188
691.771065	0.141586
691.972984	0.141580
692.174885	0.141802
692.376768	0.141685
692.578633	0.141759
692.780479	0.141700
692.982308	0.141517
693.184118	0.141479
693.385909	0.141757
