sample name	sample
index	1445
start time	 05-10-2021  01:11:37 PM
880	0.205071
Peak Time (s)	92.537
Peak Height 	0.2051
calc peak height	90,93
Baseline Time (s)	10.536
Baseline Value 	-0.00471
subtract baseline	10,4
Abs	0.140305
Peak Time (s)	90.035
Peak Height 	0.1403
calc peak height	90,93
Baseline Time (s)	11.537
Baseline Value 	-0.001395
subtract baseline	10,3
PK_550	0.084251
Peak Time (s)	91.035
Peak Height 	0.08425
calc peak height	90,93
Baseline Time (s)	9.036
Baseline Value 	3.752E-4
subtract baseline	10,2
PK_880	0.131020
Peak Time (s)	92.035
Peak Height 	0.131
calc peak height	90,93
Baseline Time (s)	10.036
Baseline Value 	0.001397
subtract baseline	10,1


Time (s)	A880-A510	A880-A775	A880-A975	A880	I510	I775	I975	I880	
0.035500	-0.002933	-0.000786	0.000400	0.003888	6452.107602	43754.122641	3937.125189	22526.590696
0.536000	-0.000755	0.000865	0.001334	0.005483	6456.951409	43759.317270	3935.419838	22454.490587
1.036000	-0.000287	0.000107	0.001008	0.004194	6471.571913	43809.335580	3937.906866	22512.745243
1.536500	-0.001888	-0.000295	0.000940	0.003267	6465.956692	43858.745701	3940.128682	22554.733560
2.037000	0.000384	-0.000728	-0.001674	0.001758	6497.569356	43960.229780	3937.270869	22623.286470
2.537000	0.000188	-0.000019	0.000486	0.001720	6496.244221	44030.847456	3942.965838	22625.046845
3.037500	-0.002248	-0.000392	0.001756	-0.001599	6503.667792	44310.535507	3954.945658	22776.684436
3.537000	-0.000306	-0.000049	0.000361	0.002819	6482.899097	43924.142875	3939.791412	22575.075857
4.035000	-0.000033	-0.000520	-0.001736	0.000475	6504.849296	44101.244526	3940.428546	22681.754636
4.535500	0.001028	-0.000442	0.000162	0.000355	6514.798973	44120.104964	3945.671516	22687.257947
5.036000	0.000361	-0.000917	0.001646	-0.000334	6514.987515	44140.385725	3951.340716	22718.736966
5.536000	-0.000930	0.001394	-0.000920	0.000981	6493.060439	44234.947158	3941.232911	22658.695548
6.036500	-0.001303	0.000616	-0.001380	0.000174	6496.709105	44237.715843	3942.134275	22695.524194
6.536500	0.000524	0.000482	0.004323	0.000716	6507.506186	44173.462336	3955.604274	22670.758959
7.036500	0.000022	0.000155	0.001028	-0.000238	6511.319481	44233.099153	3949.475776	22714.356770
7.537500	-0.000378	0.000079	0.001443	0.000250	6503.840277	44179.476826	3949.282758	22692.034781
8.037500	-0.000115	-0.000103	0.002959	-0.000300	6510.688288	44214.468917	3954.692908	22717.192982
8.535000	0.001462	-0.000299	0.003040	-0.000306	6524.050211	44196.376465	3954.918908	22717.446383
9.035500	0.000466	0.000000	0.004661	-0.000379	6516.251433	44231.739274	3959.373900	22720.794086
9.535500	-0.000099	-0.000231	0.002319	-0.000278	6510.635471	44200.248441	3952.956521	22716.191420
10.036000	0.000000	0.001029	-0.000993	0.000232	6507.173173	44271.489358	3942.989128	22692.874180
10.536000	0.000914	0.000021	-0.000831	0.000000	6516.834403	44197.712083	3944.011764	22703.465361
11.036000	-0.000469	-0.000365	-0.000424	0.001245	6494.714091	44042.996592	3941.834119	22646.642150
11.537000	-0.000709	0.000613	0.000000	0.000318	6500.487172	44223.781050	3945.346416	22688.959519
12.036500	0.001433	-0.000197	0.000590	0.000281	6518.847798	44150.347631	3946.978523	22690.629595
12.537500	0.000808	-0.000734	-0.000546	-0.000834	6522.982643	44205.171981	3946.922251	22741.606030
13.035000	0.000864	-0.000406	-0.001968	0.002764	6493.158515	43895.739552	3933.920261	22577.586684
13.535000	0.000932	-0.000401	0.001134	0.000236	6514.991666	44135.222736	3948.512803	22692.679558
14.035500	-0.002881	-0.000497	0.004370	0.002226	6466.357642	43937.876433	3951.770406	22602.028848
14.535500	-0.000996	-0.000118	0.001906	0.001851	6485.219911	44009.090598	3946.314949	22619.059629
15.041000	0.001330	-0.000146	0.004867	0.002033	6503.204242	43989.171400	3953.575993	22610.772836
15.536000	0.000843	-0.000106	0.000632	0.000181	6514.707517	44168.450007	3947.347947	22695.187199
16.037000	-0.000583	0.000710	0.002999	0.000786	6497.612341	44188.529955	3951.950117	22667.578328
16.537000	0.000160	0.000566	0.001278	0.000328	6507.714838	44218.369476	3948.649997	22688.502110
17.038000	-0.001155	-0.000091	0.000385	0.000003	6499.384474	44186.818273	3947.168615	22703.332916
17.537500	-0.001432	0.000078	0.002880	0.002126	6479.273752	44001.634105	3948.139092	22606.564585
18.035000	-0.000242	0.000924	0.000969	0.001411	6495.232435	44149.549615	3945.025001	22639.112911
18.535000	-0.000042	0.001024	0.005101	0.001847	6493.240187	44117.597682	3954.677278	22619.228650
19.035500	0.000268	0.000209	0.001782	0.001711	6496.991870	44053.292997	3946.359653	22625.456902
19.535500	-0.001158	0.000140	0.004348	0.001228	6489.079156	44092.497972	3954.326788	22647.440130
20.036500	-0.001593	0.000181	0.005519	0.000987	6487.459695	44119.224953	3958.037061	22658.419257
20.536000	-0.003535	-0.000517	0.004621	0.000640	6474.121093	44085.963111	3956.585579	22674.232675
21.037500	-0.001032	0.000141	-0.001460	0.001393	6488.757754	44076.945358	3938.768484	22639.917414
21.540000	-0.001397	-0.000668	0.000828	0.000421	6493.835658	44092.363554	3947.233149	22684.218391
22.037500	0.000066	0.000188	-0.003561	0.001512	6496.969834	44070.206076	3933.041652	22634.514125
22.535000	-0.001314	0.000160	-0.001048	0.001177	6488.203737	44099.214677	3940.392775	22649.755975
23.035000	0.000832	-0.000238	0.001865	0.001007	6507.650953	44077.573359	3948.408970	22657.503604
23.535000	-0.000644	-0.000985	0.002256	0.000627	6498.436178	44042.886690	3950.423876	22674.854952
24.036000	-0.001169	-0.000654	0.001392	0.000596	6494.286757	44077.146592	3948.247659	22676.248705
24.536000	-0.000335	0.000034	0.001796	0.001517	6493.559613	44055.042436	3946.899787	22634.265864
25.036500	0.000899	0.000553	0.002391	0.001443	6504.545731	44111.272350	3948.644661	22637.649366
25.539000	-0.002296	0.000524	0.000826	0.001412	6478.023323	44111.399371	3944.646935	22639.047152
26.036000	-0.002696	-0.000257	0.000246	0.000988	6478.215176	44077.608809	3944.241516	22658.359430
26.539500	-0.001255	-0.000304	0.005775	0.001112	6489.236472	44061.440608	3958.379891	22652.717626
27.037000	0.001807	0.000493	0.001897	0.001220	6514.077856	44126.703382	3947.938793	22647.805399
27.543000	-0.002254	-0.000023	0.000674	0.004742	6450.652523	43745.521859	3935.627195	22487.940727
28.037000	0.000632	-0.000282	0.004107	-0.000251	6516.571155	44192.820385	3957.579726	22714.953482
28.538000	-0.000300	-0.000725	0.000493	-0.000238	6508.604635	44149.510650	3948.077484	22714.345702
29.035500	0.000098	0.000271	0.004557	-0.000080	6510.626676	44229.101841	3958.313996	22707.136878
29.539000	-0.002914	-0.000534	-0.000539	0.005346	6440.194137	43640.900337	3930.950713	22460.673181
30.039000	-0.001014	-0.000285	0.003376	-0.000182	6502.121208	44185.928410	3955.475859	22711.773234
30.537000	-0.000039	-0.000315	0.002021	0.000647	6503.350787	44104.407457	3949.755345	22673.920258
31.038500	0.000224	-0.000282	0.002971	0.001879	6495.210004	43990.871492	3949.019645	22617.775246
31.545000	-0.004237	-0.000394	0.002187	0.004259	6438.250656	43756.133941	3940.791429	22509.822038
32.037500	-0.000589	-0.001046	0.006494	-0.000543	6508.737050	44147.937049	3964.646391	22728.288856
32.537500	-0.000421	-0.000401	0.004994	-0.000185	6507.137896	44175.159388	3959.737989	22711.907366
33.035500	-0.003239	-0.000712	0.003220	0.001804	6466.885867	43957.404552	3949.865720	22621.186090
33.535500	-0.004139	-0.000949	0.002477	0.003749	6443.276582	43751.868816	3942.867186	22532.898845
34.035500	-0.000900	-0.000565	0.003597	0.001356	6490.163968	44013.569500	3952.024051	22641.585656
34.538500	-0.001498	-0.000591	-0.002908	0.001194	6486.518612	44026.491071	3935.541092	22648.976409
35.036500	-0.001290	0.000143	-0.000593	0.001803	6483.159628	44038.330938	3939.952275	22621.249919
35.536500	-0.002355	-0.000157	-0.004158	0.004055	6455.518712	43797.499356	3924.985643	22519.014257
36.037000	-0.002049	0.000187	0.003772	0.001548	6478.954079	44066.710421	3951.979415	22632.876953
36.536000	-0.001203	-0.000417	0.000544	0.001346	6487.719534	44028.595700	3944.086145	22642.060541
37.035000	0.000374	0.000384	-0.000854	0.002488	6491.356441	43996.306998	3937.503255	22590.092947
37.535500	-0.000123	-0.000105	0.001958	0.001940	6491.780810	44001.837629	3946.217812	22614.996967
38.035500	-0.003480	0.000753	0.004351	0.002099	6462.431300	44068.112342	3952.053882	22607.803248
38.535500	-0.000775	0.000228	-0.000170	0.002272	6483.543482	44001.931233	3939.831159	22599.895832
39.036000	0.001020	-0.000514	0.002605	0.002235	6498.909906	43935.390063	3947.137131	22601.616506
39.536000	0.000634	0.000268	0.001477	0.001574	6501.211401	44071.848196	3945.918482	22631.658025
40.036500	-0.000915	0.000104	-0.000504	0.001603	6487.973543	44053.538031	3940.700145	22630.344497
40.536500	-0.003564	-0.001480	0.000196	0.000466	6475.327252	44011.272041	3945.470235	22682.170741
41.037500	-0.002538	0.000063	0.006349	0.001521	6475.087918	44057.417258	3958.816639	22634.088961
41.535000	-0.000511	0.000197	-0.000285	0.001683	6490.683844	44054.761568	3941.058983	22626.696741
42.034500	-0.002210	-0.000281	-0.000535	0.001304	6479.636904	44045.362166	3941.393687	22643.952100
42.535000	-0.003234	0.000096	-0.001936	0.001559	6468.969274	44056.938488	3937.107683	22632.351385
43.035500	-0.000508	-0.000208	0.001610	0.001945	6488.516641	43991.701936	3945.300438	22614.788902
43.536000	0.000705	-0.001725	-0.000864	-0.002609	6537.150566	44279.747914	3950.726219	22823.037240
44.036000	-0.000920	0.000257	0.003253	-0.001015	6509.931005	44316.803233	3957.342382	22749.916285
44.542000	-0.001686	-0.000084	0.001653	0.000116	6493.974644	44176.730993	3950.181351	22698.158024
45.037000	-0.000962	-0.000192	0.002131	0.001615	6487.479557	44024.380692	3947.516694	22629.792755
45.537000	-0.000334	0.000057	0.001564	0.000190	6504.716684	44183.117336	3949.758805	22694.805325
46.037500	-0.000493	0.000099	0.007507	0.000431	6501.350980	44164.220332	3964.749554	22683.784024
46.537000	0.000438	-0.000329	0.005821	-0.000064	6513.359210	44170.507724	3961.602773	22706.392835
47.035000	-0.002150	-0.000198	0.000868	0.002630	6469.078763	43927.974989	3941.595502	22583.663031
47.535500	-0.004211	-0.001294	0.004291	0.001183	6463.960541	43961.042517	3954.294030	22649.470212
48.035500	-0.000186	-0.000491	0.002961	-0.000077	6508.210108	44156.466803	3954.112735	22706.997636
48.535500	-0.000545	-0.000805	0.001553	-0.000579	6509.418442	44174.257129	3951.738698	22729.951531
49.036500	-0.000772	-0.000663	-0.001035	0.001168	6492.815028	44022.163873	3940.450923	22650.153643
49.536500	-0.002624	0.000006	0.003410	0.003314	6459.441891	43882.697735	3946.421640	22552.604211
50.037000	-0.000771	-0.000186	0.000169	0.000168	6501.225532	44162.111107	3946.176637	22695.810743
50.536500	0.002341	0.000551	0.008261	-0.003629	6559.762937	44594.673949	3977.560557	22869.977699
51.037500	-0.001660	-0.002312	0.008977	0.013521	6383.440575	42718.775359	3934.402005	22095.149785
51.534500	0.024835	-0.018601	0.063018	0.354341	4563.659103	20420.070806	3393.500572	11634.679291
52.038000	-0.006669	-0.021589	-0.012100	-0.037307	6776.555169	45716.181396	4013.754781	24483.565564
52.535000	-0.020208	-0.140862	-0.037471	-0.321918	10179.320447	65535.000000	4992.342696	44504.195851
53.036000	-0.013418	-0.097572	-0.021791	-0.278051	9579.610390	65452.044735	4855.532354	40503.164061
53.536000	-0.014086	-0.041200	-0.014457	-0.184423	8266.262587	60312.977988	4487.870109	33202.635484
54.036500	-0.014703	-0.024705	-0.012510	-0.146182	7802.725929	57510.950040	4353.771160	30644.996533
54.536500	-0.022174	-0.034412	-0.019881	-0.179618	8107.842489	60575.450247	4448.932959	32868.733083
55.037000	-0.010873	-0.046205	-0.005578	-0.207748	8607.528198	62784.939185	4616.610980	34876.937606
55.534500	-0.000727	-0.029454	0.008538	-0.160455	8135.564830	58720.845878	4484.128818	31573.359694
56.037500	0.010119	-0.014058	0.022428	-0.079780	7350.572831	50936.078710	4246.249307	26705.340977
56.537500	0.016556	-0.005616	0.035252	-0.017509	6807.664064	45341.162973	4092.257058	23519.906089
57.035500	0.028612	0.007739	0.042551	0.027990	6514.376777	42316.148645	3984.732795	21464.822140
57.535500	0.032385	0.011522	0.049754	0.057015	6307.405513	40092.780121	3927.422940	20261.939557
58.036000	0.043575	0.017825	0.045040	0.022423	6691.739533	43761.273748	4006.630483	21704.864169
58.536000	0.054950	0.022595	0.058754	0.008511	6922.036873	45555.497777	4084.873022	22318.327739
59.036500	0.060227	0.029808	0.068359	0.055883	6545.904014	41791.553842	3979.131124	20307.341690
59.536500	0.062525	0.033485	0.075854	0.092909	6261.902601	38919.972855	3902.624233	18881.391944
60.036500	0.073656	0.037636	0.082261	0.127947	6079.183871	36449.975149	3833.250038	17639.456369
60.537000	0.078417	0.041425	0.086738	0.142037	6010.564672	35664.477550	3810.964438	17167.602616
61.037500	0.082507	0.042219	0.099349	0.152631	5963.590031	34934.311837	3815.600640	16822.767564
61.535500	0.081460	0.046674	0.099225	0.172212	5819.176784	33839.135989	3771.226141	16207.135449
62.035500	0.088163	0.053212	0.097756	0.168288	5892.718053	34592.500068	3776.646137	16328.280605
62.535500	0.090449	0.058246	0.102539	0.168657	5906.173111	34934.350601	3786.465732	16316.844793
63.037000	0.092953	0.059963	0.096933	0.164858	5950.848777	35343.295891	3782.434043	16435.078354
63.550500	0.094789	0.061358	0.102566	0.167373	5946.009713	35259.879856	3789.402814	16356.698164
64.037000	0.098964	0.062903	0.107313	0.164027	6000.083558	35625.876736	3807.725702	16461.089494
64.536500	0.098992	0.064246	0.111383	0.164388	5997.673858	35699.901242	3816.239271	16449.807634
65.037000	0.101001	0.063950	0.110586	0.165152	6006.703352	35620.066556	3812.648014	16425.913149
65.537000	0.099477	0.064602	0.109314	0.169255	5966.069890	35361.384699	3800.378710	16298.323940
66.035000	0.102653	0.065773	0.109429	0.170653	5978.854525	35344.459260	3797.472664	16255.136729
66.535500	0.104885	0.066391	0.110592	0.172684	5980.299870	35239.176613	3795.512377	16192.631654
67.035500	0.102182	0.067761	0.116102	0.178438	5919.939788	34914.707015	3794.960676	16017.119131
67.536000	0.106838	0.068231	0.115257	0.181216	5933.240049	34745.268676	3786.821781	15933.212861
68.035500	0.108411	0.068880	0.117133	0.181040	5945.686137	34805.748499	3791.423057	15938.516074
68.536500	0.108302	0.069489	0.120004	0.184190	5922.542477	34619.881051	3790.795925	15843.997567
69.036500	0.107270	0.068954	0.115872	0.185973	5902.700784	34451.241606	3777.600314	15790.800460
69.537000	0.108063	0.069479	0.117660	0.188073	5893.522175	34337.170786	3776.909250	15728.401235
70.037500	0.108365	0.070321	0.120763	0.191213	5873.703309	34171.458469	3776.827278	15635.702547
70.537500	0.109929	0.070565	0.121210	0.192397	5876.353183	34103.991804	3775.198029	15600.917670
71.035000	0.110120	0.070410	0.114214	0.195476	5856.289942	33872.721215	3753.183356	15510.876664
71.535500	0.112831	0.071313	0.122479	0.196021	5871.319944	33898.230993	3770.005168	15495.008712
72.035500	0.113111	0.072458	0.120768	0.198665	5854.922218	33791.613497	3760.479929	15418.325971
72.536000	0.114433	0.072399	0.126009	0.199476	5858.461394	33729.880657	3770.172107	15394.893524
73.036500	0.113157	0.071891	0.125540	0.201287	5837.153110	33565.828239	3765.169631	15342.708235
73.536500	0.116157	0.071458	0.127708	0.200510	5863.244281	33590.107338	3771.633212	15365.063317
74.037000	0.117585	0.072618	0.121546	0.201338	5867.411192	33613.562017	3756.365373	15341.258048
74.537500	0.117345	0.072869	0.125320	0.202405	5858.343506	33555.978925	3762.248850	15310.618251
75.034500	0.119272	0.075007	0.132010	0.205464	5850.516960	33491.141673	3770.200131	15223.229848
75.535000	0.119847	0.074768	0.130146	0.206198	5849.415744	33422.793679	3764.504560	15202.344086
76.035500	0.120202	0.074988	0.132462	0.205354	5857.705198	33497.530763	3771.436734	15226.354113
76.535000	0.123536	0.074596	0.131740	0.205899	5877.081266	33431.675347	3768.649618	15210.829984
77.035500	0.123611	0.075124	0.131189	0.206917	5870.510634	33397.257918	3765.210806	15181.909502
77.536000	0.122328	0.076469	0.134213	0.208453	5850.975125	33383.939078	3768.471628	15138.415441
78.037000	0.123620	0.075606	0.131309	0.205624	5879.584792	33522.023585	3768.308373	15218.660810
78.539000	0.125502	0.077016	0.129120	0.206622	5885.753190	33551.050313	3761.339670	15190.283196
79.037000	0.123510	0.076184	0.136004	0.204827	5884.379932	33619.002486	3780.435594	15241.360585
79.537500	0.121958	0.076604	0.133281	0.205984	5865.515093	33566.948047	3771.851397	15208.419739
80.038000	0.124393	0.076515	0.131212	0.204638	5891.878455	33655.788419	3770.260466	15246.764783
80.534500	0.125457	0.077787	0.134320	0.205102	5896.081830	33712.948644	3776.092628	15233.537275
81.035000	0.125693	0.077949	0.136855	0.204397	5902.689617	33774.444948	3783.287175	15253.636460
81.535500	0.128288	0.078996	0.138413	0.205081	5916.147393	33800.261777	3785.238218	15234.127427
82.036000	0.127858	0.078457	0.133615	0.204021	5920.602899	33837.317299	3776.924501	15264.382463
82.536000	0.127654	0.078612	0.138936	0.203995	5919.343329	33850.134005	3788.836688	15265.115737
83.039500	0.127036	0.079126	0.144319	0.205450	5904.728556	33783.294828	3797.683257	15223.616808
83.536500	0.129202	0.080224	0.135971	0.205151	5922.116922	33882.625333	3779.644070	15232.139428
84.037000	0.130302	0.081360	0.137197	0.204215	5936.548488	34030.606816	3784.457144	15258.841430
84.534500	0.129083	0.080485	0.130866	0.202988	5936.604567	34055.832467	3773.132187	15293.909877
85.034500	0.131104	0.080244	0.133611	0.203743	5945.616619	33984.562766	3777.531872	15272.314060
85.535500	0.131549	0.081416	0.140568	0.203330	5951.733237	34098.007654	3793.998977	15284.114514
86.035500	0.129614	0.081414	0.136311	0.201774	5949.030694	34209.776676	3787.932018	15328.730009
86.535500	0.130765	0.082072	0.136224	0.202231	5953.985324	34224.195035	3786.714798	15315.600599
87.036000	0.132167	0.083012	0.138353	0.202693	5960.706504	34258.630207	3790.450014	15302.360909
87.539000	0.131031	0.083797	0.143005	0.203268	5948.478159	34273.816864	3799.648502	15285.894862
88.036500	0.129821	0.083844	0.138129	0.202750	5943.544182	34314.621350	3789.820024	15300.724554
88.537000	0.132167	0.084441	0.138156	0.203049	5958.164538	34336.175985	3789.209951	15292.180152
89.034500	0.127973	0.082956	0.132753	0.201451	5939.636121	34344.297100	3780.713063	15337.994121
89.535000	0.129282	0.084750	0.138204	0.203848	5931.911357	34300.731913	3787.527133	15269.324500
90.035000	0.129949	0.083276	0.140305	0.202181	5948.515166	34314.731452	3795.999234	15317.053704
90.538000	0.130158	0.083278	0.133154	0.202361	5948.722286	34301.784301	3779.582617	15311.872824
91.035500	0.127397	0.084251	0.132980	0.203262	5922.706315	34307.030988	3777.199405	15286.061270
91.535500	0.129882	0.083871	0.138398	0.203988	5935.175427	34227.237354	3787.646889	15265.310932
92.035500	0.131020	0.083766	0.139167	0.203751	5944.952817	34236.735213	3789.901928	15272.074169
92.536500	0.129611	0.083989	0.139724	0.205071	5925.573982	34157.831003	3788.192807	15234.426067
93.037000	0.127947	0.083667	0.137035	0.205021	5914.170610	34138.301657	3782.298278	15235.851439
93.534000	0.128741	0.083761	0.138530	0.206594	5908.674562	34032.199076	3782.123369	15191.087973
94.037000	0.129578	0.082583	0.137169	0.205801	5920.174033	34004.622132	3780.861514	15213.628924
94.535000	0.129092	0.083001	0.137026	0.207153	5907.214690	33937.958024	3777.543060	15175.234464
95.035500	0.129753	0.082577	0.139061	0.208231	5904.278791	33830.853043	3779.665863	15144.686472
95.535500	0.129377	0.083338	0.137675	0.209947	5889.607988	33763.066893	3772.802802	15096.250221
96.035500	0.128351	0.082295	0.134897	0.209710	5884.087286	33705.858584	3767.216314	15102.924603
