sample name	sample
index	1316
start time	 04-29-2021  04:37:20 PM


Wavelength (nm)	Absorbance
494.344910	-0.329856
494.563924	-0.329856
494.782919	-0.329856
495.001897	0.159073
495.220856	-0.106671
495.439797	-0.110956
495.658719	0.003350
495.877624	0.094178
496.096510	0.100615
496.315378	0.207734
496.534227	0.248833
496.753059	0.176059
496.971872	0.047765
497.190667	0.121821
497.409444	0.126950
497.628203	0.123568
497.846943	0.121826
498.065665	0.122354
498.284369	0.120166
498.503055	0.121094
498.721723	0.122698
498.940372	0.124299
499.159003	0.124039
499.377616	0.124381
499.596210	0.125659
499.814787	0.125751
500.033345	0.125926
500.251885	0.127778
500.470406	0.127560
500.688910	0.126403
500.907395	0.126065
501.125862	0.125931
501.344311	0.125418
501.562742	0.125496
501.781154	0.125851
501.999548	0.125799
502.217924	0.124885
502.436282	0.125198
502.654621	0.125950
502.872942	0.125704
503.091245	0.124147
503.309530	0.124699
503.527797	0.124470
503.746045	0.124666
503.964275	0.124398
504.182487	0.124535
504.400681	0.124629
504.618856	0.123697
504.837013	0.124072
505.055152	0.125167
505.273273	0.124714
505.491376	0.123716
505.709460	0.124178
505.927526	0.125329
506.145574	0.125551
506.363604	0.126481
506.581615	0.126799
506.799608	0.127201
507.017583	0.127269
507.235540	0.128042
507.453478	0.128165
507.671399	0.128833
507.889301	0.128278
508.107185	0.128445
508.325050	0.128380
508.542898	0.128679
508.760727	0.128265
508.978538	0.128248
509.196330	0.128308
509.414105	0.129196
509.631861	0.128584
509.849599	0.128829
510.067319	0.129354
510.285021	0.129238
510.502704	0.129986
510.720369	0.130278
510.938016	0.131722
511.155645	0.131987
511.373255	0.133097
511.590848	0.133335
511.808422	0.133482
512.025977	0.133657
512.243515	0.133434
512.461034	0.134621
512.678536	0.134906
512.896018	0.134420
513.113483	0.134345
513.330930	0.133288
513.548358	0.133383
513.765768	0.133631
513.983160	0.133790
514.200533	0.134707
514.417889	0.134067
514.635226	0.134787
514.852545	0.135333
515.069845	0.135209
515.287128	0.135514
515.504392	0.135747
515.721638	0.134472
515.938866	0.134998
516.156075	0.134125
516.373267	0.133603
516.590440	0.133302
516.807594	0.133370
517.024731	0.133441
517.241850	0.133697
517.458950	0.134802
517.676032	0.136509
517.893095	0.135239
518.110141	0.136762
518.327168	0.138617
518.544177	0.138735
518.761168	0.138719
518.978141	0.139667
519.195095	0.140133
519.412031	0.140111
519.628949	0.139882
519.845849	0.140715
520.062731	0.139894
520.279594	0.139567
520.496439	0.140041
520.713266	0.141442
520.930074	0.141406
521.146865	0.141676
521.363637	0.142225
521.580391	0.143404
521.797127	0.144108
522.013844	0.144365
522.230543	0.143969
522.447224	0.144903
522.663887	0.143968
522.880532	0.144175
523.097158	0.144651
523.313766	0.144598
523.530356	0.144548
523.746928	0.144796
523.963481	0.145359
524.180017	0.145794
524.396534	0.145492
524.613032	0.146122
524.829513	0.146637
525.045975	0.147045
525.262420	0.147061
525.478845	0.147266
525.695253	0.147183
525.911643	0.147194
526.128014	0.147985
526.344367	0.149130
526.560702	0.149021
526.777018	0.148960
526.993316	0.148942
527.209597	0.148995
527.425858	0.149204
527.642102	0.149451
527.858328	0.150550
528.074535	0.150222
528.290724	0.149470
528.506894	0.150102
528.723047	0.151253
528.939181	0.151503
529.155297	0.152388
529.371395	0.152270
529.587475	0.153296
529.803536	0.152829
530.019579	0.152857
530.235604	0.153350
530.451611	0.153426
530.667600	0.153391
530.883570	0.153822
531.099522	0.153899
531.315456	0.154613
531.531372	0.154910
531.747269	0.156170
531.963148	0.157087
532.179009	0.157248
532.394852	0.158122
532.610676	0.158911
532.826482	0.159196
533.042271	0.159715
533.258040	0.159802
533.473792	0.160599
533.689525	0.160504
533.905240	0.160907
534.120937	0.161301
534.336616	0.162181
534.552277	0.161854
534.767919	0.162290
534.983543	0.163016
535.199149	0.163481
535.414736	0.162960
535.630306	0.163333
535.845857	0.163472
536.061390	0.164297
536.276904	0.164208
536.492401	0.164586
536.707879	0.164939
536.923339	0.164588
537.138781	0.165370
537.354204	0.166235
537.569610	0.166579
537.784997	0.167564
538.000366	0.167844
538.215716	0.168038
538.431049	0.168342
538.646363	0.168587
538.861659	0.169031
539.076937	0.169129
539.292196	0.169118
539.507438	0.169434
539.722661	0.169210
539.937866	0.169352
540.153052	0.169220
540.368221	0.169845
540.583371	0.170495
540.798503	0.170420
541.013617	0.171215
541.228712	0.171614
541.443789	0.172291
541.658848	0.173095
541.873889	0.173578
542.088912	0.173888
542.303916	0.173904
542.518902	0.173530
542.733870	0.174272
542.948820	0.174165
543.163752	0.174379
543.378665	0.174250
543.593560	0.174444
543.808437	0.174699
544.023295	0.175731
544.238136	0.175641
544.452958	0.176396
544.667762	0.176701
544.882548	0.177027
545.097315	0.177266
545.312064	0.177889
545.526795	0.177594
545.741508	0.177666
545.956203	0.177191
546.170879	0.177645
546.385537	0.177967
546.600177	0.177629
546.814799	0.178339
547.029402	0.178846
547.243988	0.179418
547.458555	0.180090
547.673103	0.180959
547.887634	0.181964
548.102146	0.182671
548.316640	0.182838
548.531116	0.183680
548.745574	0.183575
548.960013	0.183891
549.174435	0.184044
549.388838	0.184362
549.603222	0.184326
549.817589	0.183961
550.031937	0.184073
550.246267	0.184823
550.460579	0.184881
550.674873	0.185141
550.889148	0.185017
551.103405	0.185272
551.317644	0.185703
551.531865	0.185995
551.746068	0.186566
551.960252	0.186559
552.174418	0.186541
552.388566	0.187348
552.602696	0.187043
552.816807	0.187645
553.030900	0.187497
553.244975	0.187441
553.459032	0.187679
553.673070	0.187838
553.887091	0.188012
554.101093	0.188082
554.315077	0.187613
554.529042	0.188213
554.742990	0.188388
554.956919	0.188492
555.170830	0.188717
555.384722	0.189048
555.598597	0.189161
555.812453	0.189821
556.026291	0.189880
556.240111	0.190322
556.453913	0.190605
556.667696	0.190851
556.881461	0.191041
557.095208	0.190956
557.308937	0.191248
557.522647	0.190987
557.736339	0.191240
557.950013	0.191787
558.163669	0.192173
558.377307	0.192626
558.590926	0.192768
558.804527	0.193139
559.018110	0.193457
559.231675	0.193381
559.445221	0.194328
559.658749	0.194437
559.872259	0.194342
560.085751	0.194231
560.299225	0.194214
560.512680	0.194140
560.726117	0.193887
560.939536	0.194478
561.152937	0.194327
561.366319	0.194228
561.579683	0.194354
561.793029	0.194645
562.006357	0.194965
562.219667	0.195024
562.432958	0.195449
562.646231	0.196009
562.859486	0.196183
563.072723	0.196576
563.285941	0.196495
563.499141	0.196825
563.712323	0.196958
563.925487	0.196939
564.138632	0.196916
564.351760	0.196942
564.564869	0.196785
564.777960	0.196796
564.991032	0.197246
565.204087	0.197965
565.417123	0.198260
565.630141	0.198432
565.843140	0.199095
566.056122	0.199440
566.269085	0.199969
566.482030	0.200896
566.694957	0.201040
566.907866	0.200881
567.120756	0.201007
567.333628	0.200838
567.546482	0.201185
567.759318	0.201111
567.972135	0.201258
568.184935	0.201351
568.397716	0.201266
568.610478	0.201448
568.823223	0.201452
569.035949	0.201212
569.248657	0.201706
569.461347	0.201768
569.674019	0.202032
569.886672	0.202248
570.099308	0.202051
570.311925	0.202016
570.524523	0.201764
570.737104	0.202397
570.949666	0.202566
571.162210	0.202535
571.374736	0.202912
571.587244	0.202806
571.799733	0.202694
572.012205	0.202699
572.224658	0.203076
572.437092	0.203647
572.649509	0.203794
572.861907	0.204434
573.074287	0.204296
573.286649	0.203654
573.498993	0.204359
573.711318	0.205004
573.923625	0.205617
574.135914	0.205786
574.348185	0.205664
574.560438	0.205704
574.772672	0.205073
574.984888	0.205746
575.197086	0.206113
575.409266	0.205885
575.621427	0.205800
575.833570	0.205786
576.045695	0.205667
576.257802	0.205991
576.469890	0.205830
576.681961	0.206022
576.894013	0.205645
577.106046	0.206102
577.318062	0.206150
577.530059	0.206163
577.742039	0.206526
577.954000	0.206690
578.165942	0.206794
578.377867	0.207167
578.589773	0.207701
578.801661	0.208011
579.013531	0.208260
579.225382	0.208499
579.437216	0.208618
579.649031	0.208430
579.860828	0.208737
580.072606	0.209205
580.284367	0.209128
580.496109	0.209583
580.707833	0.209382
580.919539	0.209921
581.131227	0.209607
581.342896	0.210169
581.554547	0.210295
581.766180	0.210437
581.977795	0.210381
582.189391	0.210373
582.400969	0.210280
582.612529	0.211033
582.824071	0.210406
583.035595	0.211288
583.247100	0.211323
583.458587	0.212080
583.670056	0.212266
583.881506	0.212001
584.092939	0.212458
584.304353	0.212466
584.515749	0.212639
584.727127	0.212742
584.938486	0.212698
585.149828	0.212848
585.361151	0.212784
585.572456	0.213128
585.783742	0.213686
585.995011	0.213638
586.206261	0.214082
586.417493	0.214426
586.628706	0.215022
586.839902	0.215309
587.051079	0.215419
587.262238	0.215316
587.473379	0.215248
587.684502	0.215713
587.895606	0.216256
588.106692	0.216514
588.317760	0.216445
588.528810	0.216609
588.739841	0.216650
588.950855	0.217374
589.161850	0.218031
589.372827	0.217868
589.583785	0.217732
589.794726	0.217730
590.005648	0.217672
590.216552	0.218022
590.427437	0.218438
590.638305	0.219038
590.849154	0.218361
591.059985	0.218209
591.270798	0.219062
591.481592	0.219076
591.692369	0.219321
591.903127	0.219683
592.113867	0.219461
592.324588	0.219000
592.535292	0.218567
592.745977	0.219154
592.956644	0.219087
593.167293	0.218752
593.377923	0.219128
593.588536	0.219480
593.799130	0.219698
594.009706	0.220040
594.220263	0.220659
594.430803	0.221044
594.641324	0.221093
594.851827	0.221402
595.062312	0.222153
595.272778	0.222001
595.483227	0.222054
595.693657	0.221841
595.904069	0.221750
596.114462	0.221658
596.324838	0.221635
596.535195	0.222153
596.745534	0.222314
596.955855	0.222330
597.166157	0.222956
597.376441	0.223083
597.586707	0.223476
597.796955	0.224240
598.007185	0.224650
598.217396	0.224912
598.427589	0.225018
598.637764	0.225318
598.847921	0.225382
599.058060	0.225589
599.268180	0.225735
599.478282	0.226195
599.688366	0.226103
599.898431	0.226030
600.108479	0.226520
600.318508	0.226837
600.528519	0.226741
600.738511	0.226920
600.948486	0.227122
601.158442	0.227402
601.368380	0.227301
601.578300	0.227287
601.788202	0.227350
601.998085	0.227363
602.207950	0.227657
602.417797	0.228113
602.627626	0.228204
602.837436	0.228224
603.047228	0.228420
603.257002	0.228475
603.466758	0.228375
603.676496	0.229105
603.886215	0.229318
604.095916	0.229185
604.305599	0.229171
604.515264	0.229268
604.724910	0.229352
604.934538	0.229702
605.144148	0.229741
605.353740	0.230465
605.563314	0.230288
605.772869	0.230379
605.982406	0.230527
606.191925	0.230697
606.401425	0.230602
606.610908	0.230771
606.820372	0.230776
607.029818	0.231438
607.239246	0.231251
607.448655	0.231544
607.658047	0.231823
607.867420	0.231996
608.076775	0.232256
608.286111	0.232496
608.495430	0.232743
608.704730	0.232689
608.914012	0.232414
609.123275	0.232786
609.332521	0.232883
609.541748	0.232808
609.750957	0.232847
609.960148	0.233279
610.169321	0.233871
610.378475	0.233992
610.587611	0.234280
610.796729	0.234704
611.005829	0.234970
611.214910	0.234938
611.423974	0.235153
611.633019	0.235237
611.842045	0.235221
612.051054	0.235153
612.260044	0.235178
612.469017	0.235604
612.677970	0.235550
612.886906	0.235716
613.095824	0.235796
613.304723	0.235964
613.513604	0.236321
613.722467	0.236567
613.931311	0.236774
614.140138	0.237169
614.348946	0.237273
614.557736	0.237562
614.766507	0.237650
614.975261	0.237785
615.183996	0.237994
615.392713	0.237877
615.601412	0.237825
615.810092	0.237555
616.018754	0.237494
616.227399	0.237479
616.436024	0.237546
616.644632	0.237581
616.853222	0.237946
617.061793	0.238047
617.270346	0.238181
617.478880	0.238515
617.687397	0.239082
617.895895	0.239379
618.104375	0.239456
618.312837	0.239613
618.521281	0.239651
618.729706	0.239767
618.938113	0.239691
619.146502	0.240083
619.354873	0.239935
619.563226	0.239662
619.771560	0.239717
619.979876	0.239948
620.188174	0.239792
620.396453	0.239747
620.604715	0.239692
620.812958	0.240003
621.021183	0.240002
621.229390	0.240148
621.437578	0.240464
621.645748	0.240538
621.853900	0.240540
622.062034	0.241050
622.270150	0.241438
622.478247	0.241852
622.686326	0.242079
622.894387	0.242164
623.102430	0.242306
623.310454	0.242553
623.518461	0.242578
623.726449	0.242799
623.934418	0.242681
624.142370	0.242867
624.350303	0.242565
624.558218	0.242623
624.766115	0.242510
624.973994	0.242792
625.181855	0.242800
625.389697	0.243413
625.597521	0.243496
625.805327	0.243869
626.013114	0.243951
626.220883	0.244491
626.428634	0.244615
626.636367	0.245088
626.844082	0.245183
627.051778	0.245324
627.259457	0.245079
627.467117	0.245275
627.674758	0.245430
627.882382	0.245693
628.089987	0.245724
628.297574	0.246185
628.505143	0.246108
628.712694	0.246420
628.920226	0.246602
629.127740	0.246733
629.335236	0.246968
629.542714	0.246977
629.750174	0.247068
629.957615	0.247223
630.165038	0.247244
630.372443	0.247567
630.579829	0.247546
630.787198	0.247862
630.994548	0.247960
631.201880	0.247841
631.409194	0.248129
631.616489	0.248226
631.823766	0.248632
632.031025	0.248549
632.238266	0.248731
632.445489	0.248853
632.652693	0.248787
632.859879	0.248965
633.067047	0.249390
633.274197	0.249396
633.481329	0.249596
633.688442	0.249674
633.895537	0.249939
634.102614	0.250100
634.309672	0.250253
634.516713	0.250698
634.723735	0.251041
634.930739	0.251208
635.137724	0.251530
635.344692	0.252023
635.551641	0.252375
635.758572	0.252551
635.965485	0.252731
636.172379	0.253275
636.379256	0.253458
636.586114	0.253551
636.792954	0.253540
636.999775	0.253689
637.206579	0.253586
637.413364	0.253522
637.620131	0.253856
637.826880	0.253990
638.033610	0.253974
638.240323	0.254343
638.447017	0.254778
638.653692	0.254940
638.860350	0.255126
639.066990	0.255138
639.273611	0.255446
639.480214	0.255631
639.686798	0.255799
639.893365	0.256099
640.099913	0.256069
640.306443	0.256160
640.512955	0.256522
640.719449	0.256856
640.925924	0.257130
641.132381	0.257164
641.338820	0.257440
641.545241	0.257866
641.751644	0.257807
641.958028	0.257918
642.164394	0.258074
642.370742	0.258204
642.577071	0.258228
642.783383	0.258693
642.989676	0.259066
643.195951	0.258949
643.402207	0.259089
643.608446	0.259327
643.814666	0.259477
644.020868	0.259618
644.227052	0.259838
644.433218	0.260020
644.639365	0.259740
644.845494	0.259552
645.051605	0.259814
645.257698	0.259956
645.463772	0.260315
645.669828	0.260446
645.875866	0.260617
646.081886	0.260814
646.287888	0.261102
646.493871	0.261373
646.699836	0.261827
646.905783	0.262065
647.111712	0.262257
647.317622	0.262341
647.523514	0.262590
647.729388	0.262558
647.935244	0.262449
648.141082	0.262683
648.346901	0.262969
648.552702	0.262852
648.758485	0.262737
648.964250	0.262837
649.169996	0.262905
649.375724	0.263322
649.581434	0.263722
649.787126	0.264241
649.992800	0.264483
650.198455	0.264644
650.404092	0.265192
650.609711	0.265604
650.815311	0.265694
651.020894	0.266175
651.226458	0.266353
651.432004	0.266552
651.637532	0.266765
651.843041	0.266516
652.048532	0.266697
652.254006	0.266857
652.459460	0.267149
652.664897	0.267349
652.870315	0.267233
653.075716	0.267331
653.281097	0.267616
653.486461	0.267609
653.691807	0.268175
653.897134	0.268224
654.102443	0.268279
654.307734	0.268399
654.513006	0.268661
654.718261	0.268774
654.923497	0.268632
655.128715	0.268567
655.333915	0.268922
655.539096	0.269127
655.744259	0.269536
655.949404	0.269772
656.154531	0.270014
656.359640	0.270158
656.564730	0.270696
656.769802	0.271279
656.974856	0.271610
657.179892	0.271700
657.384909	0.271819
657.589908	0.271900
657.794889	0.272397
657.999852	0.272469
658.204797	0.272771
658.409723	0.272904
658.614631	0.273269
658.819521	0.273658
659.024393	0.274267
659.229246	0.274542
659.434081	0.274888
659.638898	0.274852
659.843697	0.275173
660.048478	0.275630
660.253240	0.275596
660.457984	0.275437
660.662710	0.275619
660.867417	0.275523
661.072107	0.275678
661.276778	0.275775
661.481431	0.276188
661.686066	0.276497
661.890682	0.276455
662.095281	0.276921
662.299861	0.277135
662.504422	0.277416
662.708966	0.277723
662.913491	0.278300
663.117999	0.278708
663.322488	0.278592
663.526958	0.278649
663.731411	0.279102
663.935845	0.279566
664.140261	0.280044
664.344659	0.280142
664.549038	0.280231
664.753400	0.279911
664.957743	0.280279
665.162068	0.280770
665.366375	0.281132
665.570663	0.281007
665.774933	0.280888
665.979185	0.280931
666.183419	0.281321
666.387635	0.281568
666.591832	0.282062
666.796011	0.282254
667.000172	0.282431
667.204315	0.282432
667.408439	0.282760
667.612545	0.282949
667.816634	0.283099
668.020703	0.282781
668.224755	0.283134
668.428788	0.282970
668.632803	0.283107
668.836800	0.282938
669.040779	0.283366
669.244739	0.283524
669.448681	0.283609
669.652605	0.283772
669.856511	0.284249
670.060399	0.284085
670.264268	0.284737
670.468119	0.284911
670.671952	0.285425
670.875767	0.285650
671.079563	0.285985
671.283341	0.286459
671.487101	0.286935
671.690843	0.287399
671.894567	0.288021
672.098272	0.287997
672.301959	0.288108
672.505628	0.288143
672.709278	0.288553
672.912911	0.288892
673.116525	0.288910
673.320121	0.289030
673.523699	0.289174
673.727258	0.289194
673.930799	0.289488
674.134322	0.289775
674.337827	0.290193
674.541314	0.289992
674.744782	0.289789
674.948232	0.289995
675.151664	0.290186
675.355078	0.290332
675.558474	0.290374
675.761851	0.290489
675.965210	0.290693
676.168551	0.290832
676.371873	0.291008
676.575178	0.291601
676.778464	0.291879
676.981732	0.292138
677.184981	0.292347
677.388213	0.292688
677.591426	0.292939
677.794621	0.293080
677.997798	0.293241
678.200956	0.293877
678.404097	0.293957
678.607219	0.294236
678.810323	0.294373
679.013408	0.294571
679.216476	0.294919
679.419525	0.295173
679.622556	0.295384
679.825569	0.295972
680.028563	0.296281
680.231540	0.296916
680.434498	0.297167
680.637438	0.297699
680.840359	0.298145
681.043263	0.298493
681.246148	0.298827
681.449015	0.299222
681.651864	0.299196
681.854694	0.299114
682.057506	0.298906
682.260301	0.299021
682.463076	0.298990
682.665834	0.298802
682.868573	0.298869
683.071295	0.299289
683.273998	0.299507
683.476682	0.299800
683.679349	0.300106
683.881997	0.300590
684.084627	0.300948
684.287239	0.301313
684.489833	0.301626
684.692408	0.301978
684.894965	0.301900
685.097504	0.302016
685.300025	0.302375
685.502527	0.302340
685.705012	0.302130
685.907478	0.302358
686.109925	0.302559
686.312355	0.302811
686.514766	0.303108
686.717159	0.303482
686.919534	0.303737
687.121891	0.304006
687.324230	0.304554
687.526550	0.305047
687.728852	0.305190
687.931136	0.305521
688.133401	0.305867
688.335649	0.305917
688.537878	0.305887
688.740089	0.306261
688.942281	0.306249
689.144456	0.306136
689.346612	0.306265
689.548750	0.306307
689.750870	0.306133
689.952971	0.306295
690.155055	0.306743
690.357120	0.307047
690.559167	0.307156
690.761195	0.307208
690.963206	0.307474
691.165198	0.307554
691.367172	0.307945
691.569128	0.308281
691.771065	0.308640
691.972984	0.308585
692.174885	0.308800
692.376768	0.308868
692.578633	0.309180
692.780479	0.309357
692.982308	0.309573
693.184118	0.309549
693.385909	0.309569
