sample name	sample
index	78
start time	 02-11-2021  04:09:10 PM
880	0.409523
Peak Time (s)	91.036
Peak Height 	0.4095
calc peak height	90,93
Baseline Time (s)	10.036
Baseline Value 	-0.003179
subtract baseline	10,4
Abs	0.322376
Peak Time (s)	91.536
Peak Height 	0.3224
calc peak height	90,93
Baseline Time (s)	11.537
Baseline Value 	0.001758
subtract baseline	10,3
PK_550	0.152708
Peak Time (s)	91.036
Peak Height 	0.1527
calc peak height	90,93
Baseline Time (s)	9.036
Baseline Value 	7.5725E-4
subtract baseline	10,2
PK_880	0.296254
Peak Time (s)	90.038
Peak Height 	0.2963
calc peak height	90,93
Baseline Time (s)	11.037
Baseline Value 	5.5857E-4
subtract baseline	10,1


Time (s)	A880-A510	A880-A775	A880-A975	A880	I510	I775	I975	I880	
0.041000	0.001179	-0.000719	0.002805	0.000114	4618.088590	20384.661414	3321.175094	10999.226719
0.539000	0.001974	-0.000492	0.007557	0.002533	4611.811790	20296.800004	3323.319000	10954.392536
1.036500	-0.001667	0.000106	-0.011064	0.004391	4590.736714	20246.512455	3304.884550	10920.136115
1.536500	0.001549	-0.000962	-0.016371	0.000097	4619.589174	20375.579959	3303.995511	10999.543498
2.036500	0.004887	0.000183	-0.008086	-0.000025	4633.045517	20426.526254	3311.440311	11001.798615
2.537500	0.003376	-0.000483	-0.000835	0.000378	4625.586619	20383.545415	3317.612911	10994.315004
3.035000	0.001444	-0.000485	0.008979	0.000722	4616.762319	20369.675351	3326.310254	10987.938482
3.535000	0.003863	-0.000773	0.003893	-0.000687	4631.630904	20414.676993	3322.909536	11014.107637
4.035000	0.001597	-0.000661	0.000013	-0.000409	4621.736070	20408.017179	3319.101213	11008.948149
4.536000	0.002025	-0.001269	0.004301	-0.000885	4625.247282	20402.695144	3323.468742	11017.806320
5.039000	0.002084	-0.000476	0.001920	-0.000045	4622.210540	20400.820277	3320.510315	11002.177869
5.536000	0.003116	-0.000228	0.008396	0.000824	4622.842968	20375.859142	3325.674188	10986.031793
6.036500	-0.001656	-0.001409	-0.000588	-0.000661	4610.131656	20388.072987	3318.782121	11013.631912
6.536500	0.003056	0.000471	0.005277	0.000383	4624.324135	20421.713091	3323.199312	10994.227530
7.034500	0.002775	0.000145	0.010629	0.000302	4623.549015	20411.852442	3328.236354	10995.732555
7.534500	0.002371	-0.000040	-0.000373	0.000326	4621.884395	20403.427773	3318.080161	10995.280171
8.035000	0.005550	0.000142	-0.001893	0.000273	4634.471791	20412.865261	3316.747385	10996.264593
8.535000	-0.000378	-0.001564	-0.002888	-0.000987	4616.324659	20394.948940	3316.988257	11019.703325
9.035500	0.001198	0.000000	-0.001240	0.000461	4616.816619	20399.587364	3317.169553	10992.766695
9.536000	-0.002286	-0.000922	-0.009180	-0.001469	4610.817890	20440.162710	3311.753240	11028.681911
10.036000	0.001476	0.000308	0.004711	0.000000	4619.679296	20430.550923	3323.030721	11001.337058
10.536500	-0.000425	-0.000733	0.008321	-0.001168	4616.841867	20435.701350	3327.455950	11023.082313
11.037000	0.000000	0.000174	0.010369	0.004234	4597.698612	20255.514735	3324.344338	10923.033633
11.537000	0.002075	0.000538	0.000000	0.000392	4620.483122	20424.024777	3318.359351	10994.060372
12.040000	0.006608	0.000776	0.006738	0.001004	4635.748308	20408.948753	3323.973863	10982.695248
12.534500	0.002209	0.000809	0.008456	0.000386	4621.021476	20435.153898	3326.136171	10994.160150
13.035000	0.000563	0.000635	0.011530	0.004444	4599.049636	20265.526483	3325.224133	10919.169205
13.535000	0.001889	0.000417	0.008079	-0.001035	4625.298716	20476.652450	3327.105306	11020.587938
14.035500	-0.002810	-0.000667	0.004708	-0.001094	4607.356482	20435.312853	3324.036143	11021.690240
14.539000	-0.000646	-0.001440	-0.007440	0.000330	4610.201964	20347.038720	3311.700428	10995.202924
15.036500	-0.000608	-0.000113	-0.005897	0.005434	4590.797931	20196.321841	3308.527053	10900.971569
15.568000	0.001201	0.001082	0.002793	0.000110	4618.189186	20457.320732	3321.167657	10999.300117
16.037000	0.004096	-0.001119	-0.000981	-0.001958	4637.509175	20451.934957	3319.607005	11037.799472
16.537000	0.002381	-0.000122	0.007788	-0.000879	4626.604977	20448.620889	3326.690798	11017.687563
17.034500	0.000459	-0.000812	-0.002635	0.003920	4600.658623	20228.748386	3312.789853	10928.819972
17.537500	-0.000754	-0.000578	-0.018020	-0.000840	4614.301581	20428.717896	3303.371528	11016.969748
18.035500	0.007066	-0.000075	0.014097	-0.003805	4656.481132	20568.897656	3335.364180	11072.364217
18.535500	-0.000688	-0.000032	-0.008376	0.000168	4610.666749	20410.081763	3311.008452	10998.212311
19.035500	0.004100	-0.001108	0.005111	0.001278	4624.903350	20322.403149	3322.223343	10977.627205
19.536000	0.001681	-0.000953	0.010618	-0.000087	4620.811144	20383.325394	3328.589098	11002.952807
20.036500	0.003423	-0.000252	-0.004542	0.000188	4626.508235	20400.437914	3314.431049	10997.848516
20.536000	-0.000986	-0.001021	0.001108	-0.000539	4612.245843	20398.749028	3320.219489	11011.364283
21.037000	-0.000718	-0.000246	0.003316	0.000760	4608.272860	20377.739227	3321.052101	10987.233124
21.537000	0.000504	-0.001025	-0.001572	-0.000152	4616.504160	20383.053352	3317.424247	11004.158529
22.034500	0.001851	-0.000727	-0.003158	-0.000172	4621.798869	20395.819063	3316.004921	11004.527167
22.535000	0.000502	-0.000911	-0.012572	-0.000156	4616.515574	20387.793584	3307.566180	11004.244712
23.035000	0.002774	-0.000462	-0.004198	0.000206	4623.915379	20391.258074	3314.724285	10997.501325
23.535500	0.003433	0.000185	-0.002617	0.000714	4624.499189	20396.865097	3315.692973	10988.070537
24.039000	0.001060	-0.001543	0.002462	-0.000916	4621.617144	20392.927807	3321.804481	11018.373071
24.535500	0.004346	0.000525	0.006792	0.000906	4627.309047	20402.834690	3324.114207	10984.522016
25.036500	0.004134	-0.000394	-0.010468	-0.000267	4631.051837	20413.050602	3309.532095	11006.298586
25.537000	0.002484	-0.000776	-0.009125	-0.000299	4624.750678	20398.948944	3310.757286	11006.894871
26.036500	0.001590	-0.000381	-0.002351	0.000115	4619.673021	20398.210310	3316.476079	10999.198956
26.537500	0.001965	-0.000046	0.012142	0.000850	4618.281629	20382.103852	3329.137426	10985.551615
27.037000	0.004219	-0.000542	0.003521	0.000540	4628.239162	20374.676785	3321.440548	10991.309137
27.535000	0.002785	-0.000640	0.002398	0.000318	4623.521395	20379.619020	3320.614682	10995.420619
28.035500	-0.000277	-0.001678	-0.000687	-0.001407	4618.337461	20407.220701	3319.372141	11027.521823
28.536000	0.003628	0.000028	-0.003299	-0.000988	4631.889754	20459.077934	3316.616199	11019.715538
29.036000	0.000493	0.000691	0.014129	-0.000429	4617.534475	20463.284648	3332.202682	11009.316184
29.536000	0.003829	-0.000515	-0.000887	-0.001488	4634.629750	20457.345305	3319.263797	11029.036442
30.036500	0.002810	0.000518	-0.002598	-0.000559	4627.029050	20461.524314	3316.863233	11011.730393
30.537000	0.004607	-0.000234	0.004025	0.000893	4628.373948	20372.882375	3321.579531	10984.764916
31.037500	0.001251	-0.000378	-0.002727	0.005064	4599.312143	20200.510446	3311.682543	10907.777761
31.569500	0.005318	0.000647	0.003670	0.000004	4634.619621	20444.081763	3322.070451	11001.271000
32.034500	0.001255	0.000296	-0.002527	0.001944	4611.309257	20351.967186	3314.664037	10965.290688
32.535000	0.005043	-0.001265	0.000456	0.001761	4626.692974	20296.783726	3317.529286	10968.673495
33.050000	-0.000332	-0.000416	0.007145	0.005101	4593.118250	20197.499053	3320.581545	10907.082057
33.541000	0.001738	-0.000948	-0.007277	-0.001295	4625.721109	20432.113117	3313.304356	11025.438377
34.036000	0.004559	-0.000486	0.004162	-0.000893	4635.158815	20434.547631	3323.347626	11017.955911
34.536000	-0.000447	-0.001620	-0.001039	0.000212	4611.422847	20344.545520	3317.577295	10997.389998
35.036500	-0.001616	-0.000871	-0.005055	0.004299	4591.281689	20211.328889	3310.286730	10921.838138
35.537000	0.001473	-0.000340	-0.014271	-0.000297	4620.817419	20416.431632	3306.188700	11006.856851
36.037000	0.003730	-0.000245	0.007175	0.001433	4622.860706	20350.718489	3323.981523	10974.744908
36.537000	-0.001140	-0.000726	-0.000628	0.000840	4606.339507	20355.248679	3317.381196	10985.745183
37.035000	0.000759	-0.001435	-0.011332	-0.000003	4616.913855	20360.613030	3308.529531	11001.395715
37.535000	0.002515	0.000403	0.005703	0.001042	4619.668722	20392.440413	3322.985414	10981.998941
38.037500	0.002854	-0.000489	0.008289	0.001379	4619.677616	20343.154494	3325.061549	10975.756161
38.536000	0.004122	-0.000660	0.000793	0.000776	4626.939275	20360.423002	3318.731031	10986.923532
39.036000	0.001311	-0.000888	-0.003417	-0.000214	4619.868975	20391.051713	3315.808529	11005.313835
39.536500	0.003311	-0.000936	-0.002302	0.000662	4624.230061	20353.947247	3316.024906	10989.036728
40.037000	0.002525	-0.000043	0.001680	0.000660	4621.187686	20389.862306	3319.646373	10989.078537
40.537000	0.004200	0.001024	0.009773	0.002051	4622.288457	20376.861194	3325.813482	10963.311533
41.037500	0.003373	-0.000621	0.003597	0.000950	4623.355432	20355.037923	3321.134899	10983.707883
41.535000	0.000549	-0.001214	0.011016	0.000670	4613.504030	20342.504099	3328.253929	10988.894988
42.035500	-0.000681	-0.000097	0.002042	0.000726	4608.545051	20385.043980	3319.916698	10987.852452
42.535000	0.001111	-0.000690	0.014177	0.000873	4614.890579	20355.362333	3331.023091	10985.135631
43.035500	0.001640	-0.000649	0.001550	0.001508	4614.476981	20331.532468	3318.753718	10973.355516
43.536000	-0.001946	-0.000984	-0.007919	0.001147	4602.067850	20332.600805	3310.543009	10980.045387
44.036000	0.001420	-0.001426	0.002130	-0.000239	4620.389789	20370.426858	3320.880273	11005.779395
44.536500	0.002756	-0.000440	0.009450	0.002325	4615.631953	20307.188348	3325.260128	10958.237595
45.037000	0.004579	-0.001630	-0.002675	0.001226	4626.969019	20303.584239	3315.178539	10978.589455
45.537000	0.002245	-0.000792	-0.001752	-0.003125	4634.838402	20512.324160	3319.969062	11059.628863
46.035000	0.003307	-0.000393	0.007550	-0.001454	4632.458298	20460.913983	3327.004038	11028.410554
46.535000	-0.001245	-0.001665	-0.013353	0.003077	4597.363672	20228.339179	3304.028784	10944.361040
47.035500	0.000026	-0.000432	0.005446	0.003855	4599.245146	20246.445804	3320.167417	10930.006020
47.538000	0.004344	-0.001728	0.013881	-0.001828	4637.971342	20422.166628	3333.287666	11035.373469
48.036000	0.004963	0.000311	0.007671	-0.000874	4636.659893	20465.886266	3326.576895	11017.587815
48.536500	0.001871	-0.001087	-0.007386	0.004372	4604.335698	20199.782651	3308.148608	10920.484902
49.043500	0.001219	-0.000778	0.003916	0.003559	4604.960073	20244.466584	3319.041705	10935.469416
49.536000	0.000974	0.000097	-0.004048	0.001559	4611.712479	20359.402658	3313.641246	10972.412879
50.037000	0.001295	0.001034	0.001803	0.002522	4609.236869	20358.369166	3318.061450	10954.603281
50.556000	0.002168	0.000311	-0.000060	0.005387	4601.583450	20215.064359	3313.785584	10901.840266
51.039000	0.001832	-0.001097	0.001475	0.004726	4602.833138	20185.375590	3315.766148	10913.989233
51.535000	0.003200	0.000252	0.015012	0.000166	4625.727631	20421.622398	3332.473765	10998.257282
52.038500	0.001710	-0.000665	0.003060	-0.003687	4634.938799	20540.195595	3324.910309	11070.145050
52.535500	0.004523	-0.000638	0.007885	-0.002549	4641.502268	20495.245534	3328.336125	11048.848567
53.036000	0.000074	-0.003216	-0.002695	0.030706	4499.752087	19104.885125	3289.430682	10450.385452
53.536000	-0.038971	-0.026335	-0.005685	0.138949	4050.228555	14885.504117	3206.656669	8791.361069
54.036500	-0.009053	-0.014988	0.007374	-0.115922	5081.882222	24991.267421	3448.597235	13470.634437
54.537000	-0.012147	-0.017237	0.002173	-0.141700	5196.894673	26218.846815	3474.093857	14115.196236
55.037500	-0.008960	-0.017024	0.005895	-0.101621	5012.844681	24177.129980	3429.846172	13129.192448
55.537500	-0.013446	-0.014428	0.008415	-0.116604	5063.630097	25054.365341	3450.686453	13487.191899
56.035000	-0.016874	-0.016981	0.011357	-0.097155	4954.495473	23961.891050	3431.008549	13024.832104
56.535500	-0.014245	-0.014399	0.001237	-0.098628	4973.646041	24159.111522	3420.996763	13059.137583
57.038000	-0.011266	-0.010723	0.013609	-0.096263	4976.524676	24223.270802	3432.602717	13004.125590
57.536000	-0.012101	-0.015541	0.001950	-0.068044	4844.540718	22664.230482	3387.902069	12370.368007
58.038500	-0.007366	-0.013498	0.014499	-0.052758	4798.748520	22071.854071	3384.981511	12043.867694
58.536500	-0.007284	-0.015170	0.016613	-0.030882	4707.618879	21062.072305	3364.435001	11596.164659
59.036500	-0.000027	-0.013849	0.025306	-0.024205	4709.987570	20839.973609	3366.488827	11463.956478
59.537000	0.015383	-0.009366	0.035756	-0.008572	4709.074255	20386.210773	3361.229022	11162.227686
60.037500	0.018132	-0.012242	0.036146	0.012394	4636.275397	19454.216870	3340.955402	10774.254005
60.534500	0.013762	-0.012293	0.045114	0.029646	4553.738479	18809.182738	3333.060014	10468.755240
61.035000	0.033355	-0.007940	0.057837	0.051979	4543.568391	18165.553950	3324.087836	10090.884679
61.535500	0.051319	-0.001436	0.071204	0.064296	4564.599247	17963.162744	3325.059897	9890.663927
62.036000	0.060351	0.000235	0.093722	0.107058	4442.961864	16606.856809	3306.752640	9237.965414
62.536000	0.066084	0.003733	0.103028	0.105252	4469.330908	16774.759029	3316.694642	9264.240151
63.037000	0.109715	0.021518	0.125701	0.144437	4485.102876	16109.574709	3302.011847	8717.765053
63.536500	0.130567	0.034356	0.149601	0.175981	4447.449930	15554.351232	3295.400641	8312.292358
64.037500	0.147173	0.047150	0.166924	0.238932	4294.552906	14178.400063	3258.270419	7586.046977
64.537000	0.164575	0.059448	0.179482	0.257471	4291.001921	14018.030509	3253.686203	7391.474887
65.037500	0.178667	0.066511	0.186440	0.266562	4306.683620	13966.423784	3252.066043	7299.054354
65.535500	0.190113	0.073008	0.200213	0.280616	4298.484485	13776.218316	3251.854021	7159.939935
66.061500	0.196472	0.081919	0.210168	0.294073	4276.410419	13663.362555	3249.213119	7030.881796
66.538500	0.205098	0.086093	0.204684	0.306828	4263.734433	13453.556019	3235.801647	6912.199311
67.036000	0.215058	0.090569	0.213393	0.308522	4289.232554	13521.135130	3240.893308	6896.697591
67.536000	0.218943	0.099224	0.225488	0.318604	4270.071561	13486.413927	3242.369957	6805.672347
68.036500	0.227618	0.105110	0.241601	0.325238	4276.352463	13468.260812	3249.415071	6746.921604
68.537000	0.230068	0.106856	0.247745	0.327942	4275.569092	13445.072736	3252.009616	6723.228837
69.037000	0.245543	0.113848	0.259010	0.339398	4288.012759	13337.618553	3251.864694	6624.479250
69.537000	0.247962	0.117486	0.251257	0.341028	4290.471817	13385.827383	3244.837843	6610.639784
70.035000	0.253225	0.122460	0.261251	0.345477	4293.009435	13398.446883	3248.972316	6573.129602
70.535000	0.253313	0.121927	0.272505	0.351716	4273.938959	13236.629155	3252.756969	6521.169920
71.038000	0.252942	0.126161	0.261570	0.354801	4263.340500	13263.906207	3242.285058	6495.751339
71.535000	0.253728	0.127768	0.258824	0.350652	4278.501533	13401.664893	3243.318436	6529.981739
72.035500	0.259234	0.130987	0.277110	0.353978	4285.251518	13399.088141	3254.540763	6502.517975
72.536000	0.265161	0.132124	0.262227	0.355664	4298.485819	13385.873489	3242.133595	6488.674630
73.036500	0.264150	0.134576	0.265799	0.362600	4273.793895	13278.557313	3239.672025	6432.288704
73.536500	0.269257	0.137432	0.289259	0.359830	4298.263975	13413.395647	3259.381706	6454.702862
74.037000	0.272008	0.136994	0.269286	0.359892	4306.722652	13401.337626	3244.220179	6454.200276
74.534500	0.274300	0.139960	0.278838	0.363090	4303.866844	13395.739191	3248.953157	6428.342186
75.034500	0.270033	0.138792	0.282478	0.368500	4273.743696	13238.568000	3247.627972	6385.036729
75.535000	0.275165	0.140534	0.292440	0.365319	4299.578388	13355.964918	3257.598807	6410.429923
76.035500	0.276066	0.141499	0.289380	0.366027	4300.184234	13362.123605	3254.709062	6404.760326
76.535500	0.273205	0.142394	0.298212	0.373602	4267.814336	13203.035213	3255.670761	6344.684018
77.036500	0.275528	0.142158	0.290594	0.374199	4273.115023	13183.365278	3249.438653	6339.992855
77.536000	0.282390	0.144025	0.278627	0.370842	4304.928483	13307.328937	3243.032704	6366.451896
78.036500	0.278581	0.144709	0.290031	0.372611	4287.469908	13281.464463	3250.209744	6352.482361
78.537000	0.275337	0.142093	0.294817	0.377776	4261.570738	13097.820370	3249.924392	6312.023495
79.037500	0.278390	0.145213	0.292316	0.380179	4263.555624	13114.624757	3246.255070	6293.366227
79.535000	0.286755	0.143438	0.290484	0.376432	4301.076205	13160.914683	3247.683039	6322.504098
80.035000	0.282036	0.147283	0.287637	0.380480	4273.813708	13156.152606	3242.570945	6291.034648
80.537500	0.284802	0.146734	0.308540	0.388778	4256.889189	12950.130008	3251.978666	6227.423263
81.035500	0.286726	0.146680	0.288715	0.389529	4260.460185	12931.572777	3236.760041	6221.726475
81.535500	0.287191	0.147595	0.314704	0.385180	4275.213746	13053.440010	3259.455260	6254.857339
82.036000	0.289404	0.145848	0.305088	0.384858	4283.049482	13020.309895	3252.333820	6257.324822
82.536500	0.290828	0.149310	0.294205	0.394409	4258.090901	12879.954828	3237.201144	6184.948696
83.037000	0.290346	0.146215	0.307479	0.389523	4271.555841	12921.023427	3250.613511	6221.770002
83.534500	0.292580	0.148910	0.305862	0.393048	4267.595358	12901.954943	3246.758763	6195.161852
84.036500	0.293129	0.148387	0.306478	0.393135	4269.013232	12887.993765	3247.153130	6194.509010
84.538000	0.291970	0.147624	0.302213	0.399731	4245.436853	12720.841661	3239.149932	6145.306881
85.034500	0.293912	0.148186	0.306521	0.395931	4262.851109	12819.569763	3245.105690	6173.558756
85.535500	0.295518	0.148167	0.310648	0.397470	4263.054326	12784.192342	3247.030361	6162.084742
86.035500	0.295052	0.148260	0.303260	0.398550	4258.344515	12761.851135	3240.775273	6154.062479
86.535500	0.291479	0.151946	0.292799	0.407605	4220.470861	12641.154046	3226.816025	6087.538208
87.036500	0.296651	0.150491	0.302693	0.401669	4253.727591	12741.776278	3238.091009	6130.991690
87.536000	0.290288	0.149546	0.288385	0.401513	4235.040327	12724.005581	3227.991691	6132.143537
88.037000	0.292737	0.150095	0.312945	0.402755	4238.651492	12708.375586	3244.809148	6122.993883
88.537500	0.295765	0.152527	0.305704	0.405879	4238.363292	12692.830351	3237.221576	6100.107909
89.037000	0.290618	0.150006	0.304736	0.403745	4229.366359	12684.152847	3238.066893	6115.728509
89.535000	0.290879	0.151519	0.322886	0.405229	4225.732614	12684.811519	3250.389008	6104.861220
90.038000	0.296254	0.149865	0.302831	0.405379	4241.331604	12644.408293	3235.510666	6103.763127
90.535500	0.291820	0.151604	0.312451	0.408673	4218.324805	12609.729406	3240.094348	6079.784354
91.036000	0.295949	0.152708	0.316797	0.409523	4228.034752	12615.348184	3242.655998	6073.620173
91.536000	0.293910	0.149968	0.322376	0.407888	4226.835856	12590.773862	3248.008740	6085.479400
92.036500	0.294267	0.147802	0.304370	0.406489	4232.062825	12573.754911	3235.819154	6095.661211
92.537000	0.291836	0.149121	0.297705	0.409313	4216.482611	12540.424715	3229.060528	6075.141620
93.037000	0.292138	0.149092	0.311309	0.409454	4216.959551	12536.664544	3238.693801	6074.124112
93.537500	0.295276	0.148467	0.288686	0.409816	4225.168864	12514.883846	3222.425946	6071.507009
94.035000	0.294814	0.146271	0.295913	0.407573	4230.459422	12515.906387	3229.023863	6087.766641
94.535500	0.296075	0.150226	0.312014	0.411895	4221.378050	12507.840826	3237.435182	6056.503423
95.035500	0.293947	0.147421	0.311039	0.410300	4219.802167	12481.200913	3237.884324	6068.005743
95.535500	0.296940	0.149036	0.318935	0.412184	4223.079232	12475.290538	3242.271615	6054.418052
96.035500	0.292602	0.149163	0.305515	0.412827	4208.413223	12463.979665	3232.102339	6049.801340
96.538500	0.292700	0.148910	0.312556	0.415323	4201.411946	12403.879148	3235.353487	6031.924240
97.036500	0.295964	0.149588	0.312208	0.413692	4215.746870	12454.324481	3236.276937	6043.594351
97.537000	0.299665	0.150739	0.285901	0.415094	4222.534850	12448.833054	3216.919932	6033.559243
