sample name	sample
index	394
start time	 03-08-2021  10:04:36 AM


Wavelength (nm)	Absorbance
494.344910	-0.011500
494.563924	-0.011500
494.782919	-0.011500
495.001897	0.027623
495.220856	-0.056297
495.439797	-0.067757
495.658719	-0.085519
495.877624	-0.084809
496.096510	-0.092457
496.315378	-0.067454
496.534227	-0.048226
496.753059	-0.058330
496.971872	-0.032000
497.190667	0.054886
497.409444	0.070704
497.628203	0.071950
497.846943	0.073144
498.065665	0.074464
498.284369	0.073161
498.503055	0.074048
498.721723	0.073928
498.940372	0.073394
499.159003	0.072014
499.377616	0.071201
499.596210	0.071500
499.814787	0.070744
500.033345	0.071134
500.251885	0.070687
500.470406	0.071032
500.688910	0.071082
500.907395	0.071982
501.125862	0.071877
501.344311	0.071215
501.562742	0.070915
501.781154	0.072050
501.999548	0.071826
502.217924	0.072827
502.436282	0.072286
502.654621	0.072750
502.872942	0.072430
503.091245	0.072412
503.309530	0.073242
503.527797	0.074323
503.746045	0.073311
503.964275	0.072201
504.182487	0.072551
504.400681	0.072061
504.618856	0.072156
504.837013	0.072588
505.055152	0.072050
505.273273	0.071589
505.491376	0.071095
505.709460	0.071874
505.927526	0.072315
506.145574	0.071800
506.363604	0.072598
506.581615	0.071852
506.799608	0.071403
507.017583	0.072308
507.235540	0.072627
507.453478	0.072310
507.671399	0.071869
507.889301	0.072699
508.107185	0.072572
508.325050	0.072980
508.542898	0.074079
508.760727	0.074374
508.978538	0.074983
509.196330	0.076117
509.414105	0.076749
509.631861	0.077627
509.849599	0.077096
510.067319	0.077292
510.285021	0.077140
510.502704	0.077130
510.720369	0.077311
510.938016	0.076759
511.155645	0.076908
511.373255	0.076768
511.590848	0.076307
511.808422	0.077177
512.025977	0.077551
512.243515	0.077321
512.461034	0.077110
512.678536	0.077576
512.896018	0.078168
513.113483	0.077842
513.330930	0.078379
513.548358	0.079230
513.765768	0.079165
513.983160	0.079547
514.200533	0.080123
514.417889	0.080557
514.635226	0.080206
514.852545	0.080525
515.069845	0.080018
515.287128	0.079529
515.504392	0.079542
515.721638	0.079214
515.938866	0.079180
516.156075	0.078804
516.373267	0.079075
516.590440	0.079213
516.807594	0.078729
517.024731	0.079150
517.241850	0.080744
517.458950	0.080705
517.676032	0.080895
517.893095	0.081006
518.110141	0.081244
518.327168	0.080495
518.544177	0.080814
518.761168	0.081739
518.978141	0.081733
519.195095	0.080888
519.412031	0.081042
519.628949	0.080795
519.845849	0.080603
520.062731	0.081065
520.279594	0.081683
520.496439	0.081706
520.713266	0.081453
520.930074	0.081784
521.146865	0.082823
521.363637	0.082938
521.580391	0.083870
521.797127	0.084513
522.013844	0.084606
522.230543	0.085416
522.447224	0.086083
522.663887	0.086192
522.880532	0.086455
523.097158	0.085768
523.313766	0.086093
523.530356	0.086034
523.746928	0.086277
523.963481	0.086046
524.180017	0.085624
524.396534	0.085794
524.613032	0.085929
524.829513	0.086351
525.045975	0.086669
525.262420	0.085947
525.478845	0.085752
525.695253	0.085952
525.911643	0.085726
526.128014	0.085763
526.344367	0.085397
526.560702	0.085451
526.777018	0.085434
526.993316	0.085663
527.209597	0.086529
527.425858	0.087064
527.642102	0.087351
527.858328	0.088451
528.074535	0.088479
528.290724	0.088480
528.506894	0.089106
528.723047	0.088999
528.939181	0.089434
529.155297	0.089372
529.371395	0.089217
529.587475	0.089512
529.803536	0.089335
530.019579	0.090089
530.235604	0.090629
530.451611	0.090602
530.667600	0.090574
530.883570	0.090468
531.099522	0.091278
531.315456	0.091939
531.531372	0.091901
531.747269	0.091852
531.963148	0.091533
532.179009	0.091597
532.394852	0.091246
532.610676	0.091856
532.826482	0.092140
533.042271	0.091705
533.258040	0.091704
533.473792	0.091579
533.689525	0.091867
533.905240	0.092340
534.120937	0.092723
534.336616	0.093258
534.552277	0.093171
534.767919	0.093062
534.983543	0.093169
535.199149	0.093724
535.414736	0.093826
535.630306	0.094001
535.845857	0.094279
536.061390	0.094397
536.276904	0.094601
536.492401	0.095210
536.707879	0.095619
536.923339	0.095389
537.138781	0.095325
537.354204	0.095728
537.569610	0.095688
537.784997	0.095912
538.000366	0.095792
538.215716	0.096124
538.431049	0.096178
538.646363	0.095937
538.861659	0.096555
539.076937	0.096390
539.292196	0.096596
539.507438	0.096949
539.722661	0.096625
539.937866	0.096798
540.153052	0.097361
540.368221	0.097319
540.583371	0.098055
540.798503	0.098505
541.013617	0.098888
541.228712	0.098630
541.443789	0.098787
541.658848	0.099024
541.873889	0.098930
542.088912	0.098477
542.303916	0.099181
542.518902	0.098522
542.733870	0.098626
542.948820	0.098582
543.163752	0.099217
543.378665	0.099335
543.593560	0.099224
543.808437	0.099485
544.023295	0.099285
544.238136	0.099281
544.452958	0.099394
544.667762	0.099623
544.882548	0.099570
545.097315	0.099342
545.312064	0.099314
545.526795	0.100155
545.741508	0.100604
545.956203	0.100917
546.170879	0.100686
546.385537	0.101091
546.600177	0.100991
546.814799	0.101199
547.029402	0.101113
547.243988	0.101188
547.458555	0.100391
547.673103	0.100256
547.887634	0.100602
548.102146	0.100267
548.316640	0.100422
548.531116	0.100787
548.745574	0.100987
548.960013	0.101469
549.174435	0.101559
549.388838	0.102359
549.603222	0.102548
549.817589	0.102809
550.031937	0.103096
550.246267	0.103101
550.460579	0.103138
550.674873	0.103319
550.889148	0.103474
551.103405	0.103628
551.317644	0.103616
551.531865	0.103840
551.746068	0.103681
551.960252	0.103863
552.174418	0.104357
552.388566	0.104032
552.602696	0.104470
552.816807	0.104479
553.030900	0.104756
553.244975	0.105060
553.459032	0.104667
553.673070	0.104890
553.887091	0.105037
554.101093	0.105014
554.315077	0.105320
554.529042	0.104831
554.742990	0.104737
554.956919	0.104712
555.170830	0.104201
555.384722	0.104663
555.598597	0.104350
555.812453	0.104426
556.026291	0.104329
556.240111	0.104362
556.453913	0.104755
556.667696	0.105108
556.881461	0.105500
557.095208	0.106031
557.308937	0.105946
557.522647	0.106020
557.736339	0.105949
557.950013	0.106011
558.163669	0.106286
558.377307	0.106100
558.590926	0.105916
558.804527	0.105827
559.018110	0.106212
559.231675	0.106308
559.445221	0.107021
559.658749	0.107604
559.872259	0.107198
560.085751	0.107150
560.299225	0.107485
560.512680	0.107760
560.726117	0.108011
560.939536	0.107959
561.152937	0.108132
561.366319	0.107983
561.579683	0.107763
561.793029	0.108457
562.006357	0.108722
562.219667	0.108643
562.432958	0.108647
562.646231	0.108374
562.859486	0.108281
563.072723	0.108381
563.285941	0.108578
563.499141	0.108664
563.712323	0.108845
563.925487	0.108835
564.138632	0.109086
564.351760	0.109197
564.564869	0.109547
564.777960	0.109832
564.991032	0.109908
565.204087	0.109813
565.417123	0.109969
565.630141	0.109679
565.843140	0.109666
566.056122	0.109667
566.269085	0.109817
566.482030	0.109773
566.694957	0.109534
566.907866	0.109338
567.120756	0.109541
567.333628	0.109612
567.546482	0.110138
567.759318	0.110671
567.972135	0.110744
568.184935	0.110820
568.397716	0.111068
568.610478	0.110998
568.823223	0.111163
569.035949	0.111290
569.248657	0.111568
569.461347	0.111655
569.674019	0.111340
569.886672	0.111361
570.099308	0.111397
570.311925	0.111204
570.524523	0.111508
570.737104	0.112029
570.949666	0.111981
571.162210	0.111892
571.374736	0.111927
571.587244	0.112032
571.799733	0.112220
572.012205	0.112297
572.224658	0.112411
572.437092	0.112724
572.649509	0.112605
572.861907	0.112596
573.074287	0.112501
573.286649	0.112342
573.498993	0.112468
573.711318	0.112431
573.923625	0.112658
574.135914	0.113065
574.348185	0.112607
574.560438	0.112623
574.772672	0.112774
574.984888	0.112963
575.197086	0.113104
575.409266	0.113208
575.621427	0.113724
575.833570	0.113657
576.045695	0.113527
576.257802	0.114125
576.469890	0.114554
576.681961	0.114431
576.894013	0.114626
577.106046	0.114741
577.318062	0.114456
577.530059	0.114061
577.742039	0.114185
577.954000	0.114279
578.165942	0.114054
578.377867	0.113858
578.589773	0.114242
578.801661	0.114266
579.013531	0.114262
579.225382	0.114489
579.437216	0.114844
579.649031	0.114924
579.860828	0.114882
580.072606	0.114948
580.284367	0.115232
580.496109	0.115117
580.707833	0.115192
580.919539	0.115510
581.131227	0.115762
581.342896	0.115537
581.554547	0.115435
581.766180	0.115623
581.977795	0.115615
582.189391	0.115572
582.400969	0.115758
582.612529	0.115835
582.824071	0.115671
583.035595	0.115426
583.247100	0.115352
583.458587	0.115440
583.670056	0.115681
583.881506	0.116099
584.092939	0.116154
584.304353	0.116095
584.515749	0.116037
584.727127	0.116398
584.938486	0.116807
585.149828	0.117252
585.361151	0.117503
585.572456	0.117128
585.783742	0.117192
585.995011	0.117387
586.206261	0.117398
586.417493	0.117424
586.628706	0.117366
586.839902	0.117469
587.051079	0.117454
587.262238	0.117443
587.473379	0.117740
587.684502	0.117639
587.895606	0.117606
588.106692	0.117944
588.317760	0.117974
588.528810	0.118175
588.739841	0.118223
588.950855	0.118234
589.161850	0.118484
589.372827	0.118647
589.583785	0.118911
589.794726	0.118888
590.005648	0.118909
590.216552	0.119305
590.427437	0.119302
590.638305	0.119203
590.849154	0.119360
591.059985	0.119425
591.270798	0.119483
591.481592	0.119590
591.692369	0.119662
591.903127	0.119676
592.113867	0.119676
592.324588	0.119903
592.535292	0.119975
592.745977	0.120206
592.956644	0.119790
593.167293	0.119826
593.377923	0.120031
593.588536	0.120048
593.799130	0.120280
594.009706	0.120503
594.220263	0.120345
594.430803	0.120861
594.641324	0.120519
594.851827	0.121313
595.062312	0.121270
595.272778	0.120921
595.483227	0.121353
595.693657	0.121198
595.904069	0.121396
596.114462	0.121369
596.324838	0.121392
596.535195	0.121944
596.745534	0.121745
596.955855	0.122005
597.166157	0.122200
597.376441	0.122238
597.586707	0.122212
597.796955	0.122099
598.007185	0.122376
598.217396	0.122188
598.427589	0.121839
598.637764	0.121898
598.847921	0.121890
599.058060	0.121847
599.268180	0.121624
599.478282	0.121846
599.688366	0.122095
599.898431	0.122211
600.108479	0.122400
600.318508	0.122934
600.528519	0.123061
600.738511	0.123172
600.948486	0.123486
601.158442	0.123856
601.368380	0.123882
601.578300	0.123723
601.788202	0.123815
601.998085	0.123853
602.207950	0.123379
602.417797	0.123191
602.627626	0.123264
602.837436	0.123258
603.047228	0.122841
603.257002	0.123170
603.466758	0.123404
603.676496	0.123571
603.886215	0.123568
604.095916	0.123809
604.305599	0.123947
604.515264	0.124066
604.724910	0.124116
604.934538	0.124757
605.144148	0.124612
605.353740	0.124572
605.563314	0.124336
605.772869	0.124506
605.982406	0.124785
606.191925	0.124869
606.401425	0.125016
606.610908	0.125150
606.820372	0.124919
607.029818	0.125129
607.239246	0.125059
607.448655	0.125098
607.658047	0.124983
607.867420	0.125026
608.076775	0.125014
608.286111	0.124905
608.495430	0.124830
608.704730	0.124946
608.914012	0.125074
609.123275	0.125236
609.332521	0.125317
609.541748	0.125552
609.750957	0.125558
609.960148	0.125812
610.169321	0.125911
610.378475	0.125944
610.587611	0.126214
610.796729	0.126264
611.005829	0.126195
611.214910	0.126235
611.423974	0.126152
611.633019	0.126213
611.842045	0.126165
612.051054	0.126212
612.260044	0.126372
612.469017	0.126246
612.677970	0.126197
612.886906	0.126168
613.095824	0.126178
613.304723	0.126249
613.513604	0.126299
613.722467	0.126573
613.931311	0.126454
614.140138	0.126618
614.348946	0.126427
614.557736	0.126522
614.766507	0.126828
614.975261	0.126920
615.183996	0.126882
615.392713	0.126908
615.601412	0.126758
615.810092	0.126869
616.018754	0.126685
616.227399	0.126920
616.436024	0.126776
616.644632	0.126595
616.853222	0.126791
617.061793	0.126963
617.270346	0.127185
617.478880	0.127203
617.687397	0.127250
617.895895	0.127495
618.104375	0.127511
618.312837	0.127564
618.521281	0.127813
618.729706	0.127658
618.938113	0.127725
619.146502	0.127426
619.354873	0.127529
619.563226	0.127404
619.771560	0.127427
619.979876	0.127441
620.188174	0.127629
620.396453	0.127515
620.604715	0.127529
620.812958	0.127507
621.021183	0.127922
621.229390	0.127987
621.437578	0.128325
621.645748	0.128513
621.853900	0.128573
622.062034	0.128438
622.270150	0.128659
622.478247	0.128940
622.686326	0.128967
622.894387	0.128769
623.102430	0.128893
623.310454	0.128999
623.518461	0.128955
623.726449	0.129015
623.934418	0.129002
624.142370	0.129095
624.350303	0.128861
624.558218	0.128863
624.766115	0.129006
624.973994	0.129020
625.181855	0.128970
625.389697	0.128970
625.597521	0.129060
625.805327	0.129224
626.013114	0.129135
626.220883	0.129417
626.428634	0.129629
626.636367	0.129725
626.844082	0.129887
627.051778	0.129958
627.259457	0.130100
627.467117	0.130260
627.674758	0.130494
627.882382	0.130720
628.089987	0.130821
628.297574	0.130937
628.505143	0.131042
628.712694	0.131083
628.920226	0.131518
629.127740	0.131545
629.335236	0.131477
629.542714	0.131519
629.750174	0.131669
629.957615	0.131940
630.165038	0.131918
630.372443	0.132034
630.579829	0.132040
630.787198	0.131830
630.994548	0.131799
631.201880	0.132097
631.409194	0.132287
631.616489	0.132266
631.823766	0.132200
632.031025	0.132329
632.238266	0.132354
632.445489	0.132536
632.652693	0.132622
632.859879	0.132847
633.067047	0.132844
633.274197	0.132656
633.481329	0.132685
633.688442	0.132578
633.895537	0.132616
634.102614	0.132667
634.309672	0.132806
634.516713	0.132868
634.723735	0.132875
634.930739	0.132812
635.137724	0.133057
635.344692	0.133225
635.551641	0.133509
635.758572	0.133537
635.965485	0.133645
636.172379	0.133461
636.379256	0.133340
636.586114	0.133374
636.792954	0.133536
636.999775	0.133516
637.206579	0.133276
637.413364	0.133075
637.620131	0.133173
637.826880	0.133267
638.033610	0.133437
638.240323	0.133742
638.447017	0.133642
638.653692	0.133892
638.860350	0.134015
639.066990	0.133997
639.273611	0.134350
639.480214	0.134568
639.686798	0.134436
639.893365	0.134392
640.099913	0.134137
640.306443	0.134401
640.512955	0.134117
640.719449	0.134010
640.925924	0.134524
641.132381	0.134436
641.338820	0.134264
641.545241	0.134658
641.751644	0.134849
641.958028	0.135057
642.164394	0.135133
642.370742	0.135259
642.577071	0.135666
642.783383	0.135539
642.989676	0.135402
643.195951	0.135549
643.402207	0.135433
643.608446	0.135400
643.814666	0.135663
644.020868	0.135579
644.227052	0.135677
644.433218	0.135632
644.639365	0.135713
644.845494	0.136161
645.051605	0.136384
645.257698	0.136428
645.463772	0.136601
645.669828	0.136592
645.875866	0.136630
646.081886	0.136807
646.287888	0.136810
646.493871	0.136824
646.699836	0.136683
646.905783	0.136569
647.111712	0.136550
647.317622	0.136444
647.523514	0.136528
647.729388	0.136617
647.935244	0.136513
648.141082	0.136551
648.346901	0.136688
648.552702	0.136822
648.758485	0.137003
648.964250	0.137115
649.169996	0.137384
649.375724	0.137483
649.581434	0.137535
649.787126	0.137771
649.992800	0.137861
650.198455	0.137932
650.404092	0.137924
650.609711	0.137850
650.815311	0.137899
651.020894	0.137715
651.226458	0.137588
651.432004	0.137681
651.637532	0.137748
651.843041	0.137911
652.048532	0.137882
652.254006	0.137880
652.459460	0.138081
652.664897	0.138229
652.870315	0.138720
653.075716	0.139003
653.281097	0.139124
653.486461	0.139230
653.691807	0.139331
653.897134	0.139559
654.102443	0.139718
654.307734	0.139673
654.513006	0.139764
654.718261	0.139590
654.923497	0.139584
655.128715	0.139740
655.333915	0.139632
655.539096	0.139600
655.744259	0.139576
655.949404	0.139827
656.154531	0.140088
656.359640	0.140053
656.564730	0.140190
656.769802	0.140309
656.974856	0.140453
657.179892	0.140716
657.384909	0.140966
657.589908	0.141168
657.794889	0.141254
657.999852	0.141253
658.204797	0.141387
658.409723	0.141526
658.614631	0.141648
658.819521	0.141652
659.024393	0.141519
659.229246	0.141426
659.434081	0.141378
659.638898	0.141533
659.843697	0.141478
660.048478	0.141523
660.253240	0.141317
660.457984	0.141202
660.662710	0.141205
660.867417	0.141453
661.072107	0.141408
661.276778	0.141278
661.481431	0.141141
661.686066	0.141374
661.890682	0.141609
662.095281	0.141753
662.299861	0.141964
662.504422	0.142203
662.708966	0.142428
662.913491	0.142674
663.117999	0.142826
663.322488	0.143142
663.526958	0.143273
663.731411	0.143329
663.935845	0.143393
664.140261	0.143449
664.344659	0.143522
664.549038	0.143369
664.753400	0.143257
664.957743	0.143625
665.162068	0.143531
665.366375	0.143476
665.570663	0.143338
665.774933	0.143493
665.979185	0.143646
666.183419	0.143694
666.387635	0.144058
666.591832	0.144260
666.796011	0.144388
667.000172	0.144477
667.204315	0.144686
667.408439	0.144737
667.612545	0.144925
667.816634	0.145074
668.020703	0.145114
668.224755	0.144623
668.428788	0.144817
668.632803	0.144830
668.836800	0.144887
669.040779	0.144988
669.244739	0.145167
669.448681	0.145315
669.652605	0.145299
669.856511	0.145387
670.060399	0.145797
670.264268	0.145881
670.468119	0.145997
670.671952	0.146122
670.875767	0.146350
671.079563	0.146648
671.283341	0.146597
671.487101	0.146706
671.690843	0.146935
671.894567	0.146972
672.098272	0.147050
672.301959	0.147055
672.505628	0.147090
672.709278	0.146974
672.912911	0.146931
673.116525	0.147035
673.320121	0.147004
673.523699	0.147053
673.727258	0.147201
673.930799	0.147314
674.134322	0.147497
674.337827	0.147626
674.541314	0.147622
674.744782	0.147876
674.948232	0.148096
675.151664	0.148279
675.355078	0.148376
675.558474	0.148549
675.761851	0.148599
675.965210	0.148503
676.168551	0.148473
676.371873	0.148646
676.575178	0.148448
676.778464	0.148446
676.981732	0.148474
677.184981	0.148363
677.388213	0.148497
677.591426	0.148572
677.794621	0.148784
677.997798	0.148912
678.200956	0.148846
678.404097	0.149118
678.607219	0.149169
678.810323	0.149191
679.013408	0.149221
679.216476	0.149246
679.419525	0.149015
679.622556	0.148989
679.825569	0.149073
680.028563	0.149275
680.231540	0.149205
680.434498	0.149030
680.637438	0.149122
680.840359	0.149491
681.043263	0.149352
681.246148	0.149636
681.449015	0.149782
681.651864	0.149806
681.854694	0.149758
682.057506	0.149778
682.260301	0.149937
682.463076	0.150062
682.665834	0.149949
682.868573	0.150049
683.071295	0.150097
683.273998	0.150230
683.476682	0.150331
683.679349	0.150611
683.881997	0.150969
684.084627	0.151384
684.287239	0.151253
684.489833	0.151235
684.692408	0.151436
684.894965	0.151496
685.097504	0.151602
685.300025	0.151816
685.502527	0.151882
685.705012	0.151668
685.907478	0.151475
686.109925	0.151775
686.312355	0.151748
686.514766	0.151784
686.717159	0.152033
686.919534	0.151855
687.121891	0.151728
687.324230	0.151840
687.526550	0.152098
687.728852	0.152066
687.931136	0.151991
688.133401	0.152151
688.335649	0.152188
688.537878	0.151947
688.740089	0.152143
688.942281	0.152360
689.144456	0.152268
689.346612	0.152162
689.548750	0.152323
689.750870	0.152425
689.952971	0.152399
690.155055	0.152529
690.357120	0.152810
690.559167	0.152476
690.761195	0.152530
690.963206	0.152725
691.165198	0.152861
691.367172	0.152919
691.569128	0.153099
691.771065	0.153366
691.972984	0.153498
692.174885	0.153579
692.376768	0.153920
692.578633	0.153911
692.780479	0.153834
692.982308	0.154079
693.184118	0.154256
693.385909	0.154142
