sample name	sample
index	1264
start time	 04-29-2021  01:26:17 PM


Wavelength (nm)	Absorbance
494.344910	0.097685
494.563924	0.097685
494.782919	0.097685
495.001897	-0.001047
495.220856	0.043096
495.439797	0.004650
495.658719	-0.030149
495.877624	-0.051074
496.096510	-0.061606
496.315378	-0.073543
496.534227	-0.063982
496.753059	-0.064537
496.971872	-0.079884
497.190667	0.064964
497.409444	0.099632
497.628203	0.107620
497.846943	0.109257
498.065665	0.109716
498.284369	0.109270
498.503055	0.111376
498.721723	0.112689
498.940372	0.113523
499.159003	0.113695
499.377616	0.113084
499.596210	0.112758
499.814787	0.112756
500.033345	0.112180
500.251885	0.112188
500.470406	0.111625
500.688910	0.110813
500.907395	0.111101
501.125862	0.110219
501.344311	0.110403
501.562742	0.110234
501.781154	0.110725
501.999548	0.111393
502.217924	0.112498
502.436282	0.112421
502.654621	0.112380
502.872942	0.111572
503.091245	0.112558
503.309530	0.111970
503.527797	0.113142
503.746045	0.113252
503.964275	0.113044
504.182487	0.112659
504.400681	0.111329
504.618856	0.111573
504.837013	0.110688
505.055152	0.110650
505.273273	0.110479
505.491376	0.108260
505.709460	0.107703
505.927526	0.107033
506.145574	0.107000
506.363604	0.108235
506.581615	0.108847
506.799608	0.110009
507.017583	0.108785
507.235540	0.108642
507.453478	0.110248
507.671399	0.110655
507.889301	0.112832
508.107185	0.112349
508.325050	0.111597
508.542898	0.111122
508.760727	0.110854
508.978538	0.111453
509.196330	0.111555
509.414105	0.111301
509.631861	0.110986
509.849599	0.109293
510.067319	0.110013
510.285021	0.109957
510.502704	0.109723
510.720369	0.109560
510.938016	0.108777
511.155645	0.108862
511.373255	0.109178
511.590848	0.108773
511.808422	0.109311
512.025977	0.108399
512.243515	0.109279
512.461034	0.109985
512.678536	0.110130
512.896018	0.110775
513.113483	0.111370
513.330930	0.111402
513.548358	0.111433
513.765768	0.112425
513.983160	0.112914
514.200533	0.112837
514.417889	0.112729
514.635226	0.111821
514.852545	0.112662
515.069845	0.112298
515.287128	0.111656
515.504392	0.112533
515.721638	0.111522
515.938866	0.111112
516.156075	0.110582
516.373267	0.111014
516.590440	0.111360
516.807594	0.111318
517.024731	0.112222
517.241850	0.111718
517.458950	0.111329
517.676032	0.111766
517.893095	0.112240
518.110141	0.112948
518.327168	0.112976
518.544177	0.113549
518.761168	0.113456
518.978141	0.112767
519.195095	0.113615
519.412031	0.113714
519.628949	0.113879
519.845849	0.114057
520.062731	0.114506
520.279594	0.114232
520.496439	0.114786
520.713266	0.114737
520.930074	0.115018
521.146865	0.114822
521.363637	0.114435
521.580391	0.114490
521.797127	0.114723
522.013844	0.114506
522.230543	0.114838
522.447224	0.114179
522.663887	0.114355
522.880532	0.114583
523.097158	0.115207
523.313766	0.115647
523.530356	0.115177
523.746928	0.114781
523.963481	0.114307
524.180017	0.114722
524.396534	0.115129
524.613032	0.115462
524.829513	0.114955
525.045975	0.114423
525.262420	0.114737
525.478845	0.114996
525.695253	0.115427
525.911643	0.116138
526.128014	0.114904
526.344367	0.115400
526.560702	0.114370
526.777018	0.114765
526.993316	0.115421
527.209597	0.115383
527.425858	0.115504
527.642102	0.116070
527.858328	0.115442
528.074535	0.116319
528.290724	0.115747
528.506894	0.116155
528.723047	0.116181
528.939181	0.116344
529.155297	0.116321
529.371395	0.116977
529.587475	0.116230
529.803536	0.117126
530.019579	0.117398
530.235604	0.117820
530.451611	0.118370
530.667600	0.118504
530.883570	0.118403
531.099522	0.118623
531.315456	0.118376
531.531372	0.118793
531.747269	0.118544
531.963148	0.118206
532.179009	0.118733
532.394852	0.119244
532.610676	0.119182
532.826482	0.119401
533.042271	0.119562
533.258040	0.119316
533.473792	0.119332
533.689525	0.119515
533.905240	0.120230
534.120937	0.119502
534.336616	0.119496
534.552277	0.119567
534.767919	0.119601
534.983543	0.120171
535.199149	0.121096
535.414736	0.121753
535.630306	0.121969
535.845857	0.121557
536.061390	0.121803
536.276904	0.121925
536.492401	0.122381
536.707879	0.122447
536.923339	0.122351
537.138781	0.122343
537.354204	0.121965
537.569610	0.122150
537.784997	0.122465
538.000366	0.122704
538.215716	0.123147
538.431049	0.122740
538.646363	0.122512
538.861659	0.121810
539.076937	0.121756
539.292196	0.121858
539.507438	0.121767
539.722661	0.121658
539.937866	0.122365
540.153052	0.121368
540.368221	0.122058
540.583371	0.122892
540.798503	0.122968
541.013617	0.122957
541.228712	0.123417
541.443789	0.123628
541.658848	0.123790
541.873889	0.123819
542.088912	0.124600
542.303916	0.124440
542.518902	0.124376
542.733870	0.124742
542.948820	0.124274
543.163752	0.123975
543.378665	0.123955
543.593560	0.123974
543.808437	0.123664
544.023295	0.123684
544.238136	0.124300
544.452958	0.123905
544.667762	0.123992
544.882548	0.124241
545.097315	0.124093
545.312064	0.124610
545.526795	0.124682
545.741508	0.124389
545.956203	0.124466
546.170879	0.123988
546.385537	0.124280
546.600177	0.124341
546.814799	0.124689
547.029402	0.125264
547.243988	0.124726
547.458555	0.124865
547.673103	0.125421
547.887634	0.125618
548.102146	0.126057
548.316640	0.126214
548.531116	0.126057
548.745574	0.125952
548.960013	0.126076
549.174435	0.126446
549.388838	0.126367
549.603222	0.126188
549.817589	0.126172
550.031937	0.125981
550.246267	0.125529
550.460579	0.125894
550.674873	0.126372
550.889148	0.126830
551.103405	0.126360
551.317644	0.126475
551.531865	0.126610
551.746068	0.126467
551.960252	0.126437
552.174418	0.127032
552.388566	0.126970
552.602696	0.126559
552.816807	0.126106
553.030900	0.126827
553.244975	0.126964
553.459032	0.127049
553.673070	0.127360
553.887091	0.127676
554.101093	0.127269
554.315077	0.127719
554.529042	0.128227
554.742990	0.128192
554.956919	0.128045
555.170830	0.127962
555.384722	0.127791
555.598597	0.127750
555.812453	0.127453
556.026291	0.128025
556.240111	0.127758
556.453913	0.127539
556.667696	0.127721
556.881461	0.127695
557.095208	0.128146
557.308937	0.128552
557.522647	0.128610
557.736339	0.129516
557.950013	0.129439
558.163669	0.129863
558.377307	0.130204
558.590926	0.130634
558.804527	0.131216
559.018110	0.131206
559.231675	0.131131
559.445221	0.131214
559.658749	0.130802
559.872259	0.130882
560.085751	0.131032
560.299225	0.130791
560.512680	0.130583
560.726117	0.130352
560.939536	0.130348
561.152937	0.130419
561.366319	0.130440
561.579683	0.130416
561.793029	0.130824
562.006357	0.130423
562.219667	0.130744
562.432958	0.130567
562.646231	0.130659
562.859486	0.130524
563.072723	0.130649
563.285941	0.130853
563.499141	0.131077
563.712323	0.130730
563.925487	0.131153
564.138632	0.131100
564.351760	0.131152
564.564869	0.131469
564.777960	0.131730
564.991032	0.131842
565.204087	0.131934
565.417123	0.131969
565.630141	0.132362
565.843140	0.132513
566.056122	0.132773
566.269085	0.132950
566.482030	0.132416
566.694957	0.132552
566.907866	0.132381
567.120756	0.132554
567.333628	0.132520
567.546482	0.132492
567.759318	0.132226
567.972135	0.132181
568.184935	0.131996
568.397716	0.132095
568.610478	0.132252
568.823223	0.132292
569.035949	0.132097
569.248657	0.131866
569.461347	0.131638
569.674019	0.131891
569.886672	0.131729
570.099308	0.131748
570.311925	0.131718
570.524523	0.131505
570.737104	0.131808
570.949666	0.131832
571.162210	0.132272
571.374736	0.132547
571.587244	0.131793
571.799733	0.131801
572.012205	0.132029
572.224658	0.132129
572.437092	0.132468
572.649509	0.132202
572.861907	0.132064
573.074287	0.131931
573.286649	0.131670
573.498993	0.132224
573.711318	0.132091
573.923625	0.131966
574.135914	0.132086
574.348185	0.131561
574.560438	0.131795
574.772672	0.132129
574.984888	0.132087
575.197086	0.132231
575.409266	0.132600
575.621427	0.132736
575.833570	0.132570
576.045695	0.132625
576.257802	0.132723
576.469890	0.132562
576.681961	0.132663
576.894013	0.132787
577.106046	0.132637
577.318062	0.132311
577.530059	0.132577
577.742039	0.132806
577.954000	0.133202
578.165942	0.133475
578.377867	0.133876
578.589773	0.133552
578.801661	0.133519
579.013531	0.133693
579.225382	0.134008
579.437216	0.133952
579.649031	0.133927
579.860828	0.133503
580.072606	0.133369
580.284367	0.133588
580.496109	0.133754
580.707833	0.133376
580.919539	0.133413
581.131227	0.132916
581.342896	0.132984
581.554547	0.133151
581.766180	0.133363
581.977795	0.133750
582.189391	0.133654
582.400969	0.133833
582.612529	0.134482
582.824071	0.134704
583.035595	0.134976
583.247100	0.135150
583.458587	0.135317
583.670056	0.135175
583.881506	0.134813
584.092939	0.134474
584.304353	0.134639
584.515749	0.134362
584.727127	0.134421
584.938486	0.134869
585.149828	0.135177
585.361151	0.135066
585.572456	0.135160
585.783742	0.135613
585.995011	0.135871
586.206261	0.135741
586.417493	0.135847
586.628706	0.136055
586.839902	0.136040
587.051079	0.135526
587.262238	0.135788
587.473379	0.135955
587.684502	0.135721
587.895606	0.135928
588.106692	0.135873
588.317760	0.136004
588.528810	0.135369
588.739841	0.135391
588.950855	0.135562
589.161850	0.135442
589.372827	0.135518
589.583785	0.135594
589.794726	0.135584
590.005648	0.135625
590.216552	0.135663
590.427437	0.136417
590.638305	0.136518
590.849154	0.136828
591.059985	0.137007
591.270798	0.137231
591.481592	0.137392
591.692369	0.137616
591.903127	0.137725
592.113867	0.137734
592.324588	0.137471
592.535292	0.137543
592.745977	0.137131
592.956644	0.137182
593.167293	0.136894
593.377923	0.137050
593.588536	0.137002
593.799130	0.137091
594.009706	0.137021
594.220263	0.137013
594.430803	0.136883
594.641324	0.137336
594.851827	0.137547
595.062312	0.137462
595.272778	0.137634
595.483227	0.137509
595.693657	0.137466
595.904069	0.137608
596.114462	0.137955
596.324838	0.137791
596.535195	0.137781
596.745534	0.137996
596.955855	0.138580
597.166157	0.138365
597.376441	0.138252
597.586707	0.138366
597.796955	0.138458
598.007185	0.138410
598.217396	0.138723
598.427589	0.138898
598.637764	0.139053
598.847921	0.138661
599.058060	0.138742
599.268180	0.138801
599.478282	0.139055
599.688366	0.139311
599.898431	0.139207
600.108479	0.139133
600.318508	0.139061
600.528519	0.138532
600.738511	0.138674
600.948486	0.138897
601.158442	0.139050
601.368380	0.138978
601.578300	0.138581
601.788202	0.138548
601.998085	0.138806
602.207950	0.138786
602.417797	0.139160
602.627626	0.139349
602.837436	0.139687
603.047228	0.139881
603.257002	0.140041
603.466758	0.140610
603.676496	0.140554
603.886215	0.140746
604.095916	0.140991
604.305599	0.140863
604.515264	0.140795
604.724910	0.140415
604.934538	0.140346
605.144148	0.140203
605.353740	0.139882
605.563314	0.140104
605.772869	0.140027
605.982406	0.139989
606.191925	0.139804
606.401425	0.139890
606.610908	0.139981
606.820372	0.140074
607.029818	0.140128
607.239246	0.140164
607.448655	0.140158
607.658047	0.140033
607.867420	0.139811
608.076775	0.139875
608.286111	0.139696
608.495430	0.139802
608.704730	0.139968
608.914012	0.139864
609.123275	0.139969
609.332521	0.140249
609.541748	0.140410
609.750957	0.140479
609.960148	0.140815
610.169321	0.140784
610.378475	0.140747
610.587611	0.140666
610.796729	0.140695
611.005829	0.140942
611.214910	0.140708
611.423974	0.140769
611.633019	0.140998
611.842045	0.141033
612.051054	0.141545
612.260044	0.141383
612.469017	0.141481
612.677970	0.141382
612.886906	0.141210
613.095824	0.141446
613.304723	0.141281
613.513604	0.141343
613.722467	0.141792
613.931311	0.141983
614.140138	0.142267
614.348946	0.142157
614.557736	0.142695
614.766507	0.142963
614.975261	0.142958
615.183996	0.143176
615.392713	0.143245
615.601412	0.142977
615.810092	0.142650
616.018754	0.142518
616.227399	0.142642
616.436024	0.142595
616.644632	0.142434
616.853222	0.142398
617.061793	0.142268
617.270346	0.142367
617.478880	0.142202
617.687397	0.142192
617.895895	0.142245
618.104375	0.142125
618.312837	0.142051
618.521281	0.142166
618.729706	0.142380
618.938113	0.142449
619.146502	0.142170
619.354873	0.142188
619.563226	0.142213
619.771560	0.142308
619.979876	0.142511
620.188174	0.142647
620.396453	0.142881
620.604715	0.142385
620.812958	0.142392
621.021183	0.142453
621.229390	0.142297
621.437578	0.142666
621.645748	0.142712
621.853900	0.142727
622.062034	0.142557
622.270150	0.142409
622.478247	0.142830
622.686326	0.142944
622.894387	0.142952
623.102430	0.143269
623.310454	0.143272
623.518461	0.143564
623.726449	0.143490
623.934418	0.143877
624.142370	0.143712
624.350303	0.143614
624.558218	0.143424
624.766115	0.143534
624.973994	0.143487
625.181855	0.143218
625.389697	0.143011
625.597521	0.143172
625.805327	0.142711
626.013114	0.142918
626.220883	0.143242
626.428634	0.143726
626.636367	0.143655
626.844082	0.143872
627.051778	0.144086
627.259457	0.144077
627.467117	0.143985
627.674758	0.144479
627.882382	0.144580
628.089987	0.144366
628.297574	0.144313
628.505143	0.144546
628.712694	0.144428
628.920226	0.144370
629.127740	0.144267
629.335236	0.144219
629.542714	0.144055
629.750174	0.143887
629.957615	0.143759
630.165038	0.143452
630.372443	0.143513
630.579829	0.143588
630.787198	0.143595
630.994548	0.143879
631.201880	0.144066
631.409194	0.144156
631.616489	0.144457
631.823766	0.144601
632.031025	0.144922
632.238266	0.145109
632.445489	0.145207
632.652693	0.145319
632.859879	0.145067
633.067047	0.145134
633.274197	0.145041
633.481329	0.145009
633.688442	0.145299
633.895537	0.145240
634.102614	0.145088
634.309672	0.145119
634.516713	0.145119
634.723735	0.145206
634.930739	0.145260
635.137724	0.145176
635.344692	0.144891
635.551641	0.144745
635.758572	0.144707
635.965485	0.144914
636.172379	0.144931
636.379256	0.145056
636.586114	0.145068
636.792954	0.144818
636.999775	0.144966
637.206579	0.145246
637.413364	0.145423
637.620131	0.145567
637.826880	0.145224
638.033610	0.145057
638.240323	0.144936
638.447017	0.145298
638.653692	0.145501
638.860350	0.145825
639.066990	0.146076
639.273611	0.145980
639.480214	0.146067
639.686798	0.146485
639.893365	0.146479
640.099913	0.146600
640.306443	0.146447
640.512955	0.146636
640.719449	0.146655
640.925924	0.146810
641.132381	0.146938
641.338820	0.147243
641.545241	0.147128
641.751644	0.147582
641.958028	0.147713
642.164394	0.147854
642.370742	0.147956
642.577071	0.148009
642.783383	0.147710
642.989676	0.147891
643.195951	0.147574
643.402207	0.147479
643.608446	0.147356
643.814666	0.147357
644.020868	0.147653
644.227052	0.147519
644.433218	0.147338
644.639365	0.147680
644.845494	0.147536
645.051605	0.147754
645.257698	0.148021
645.463772	0.148219
645.669828	0.148272
645.875866	0.147989
646.081886	0.148335
646.287888	0.148419
646.493871	0.148453
646.699836	0.148499
646.905783	0.148493
647.111712	0.148553
647.317622	0.148480
647.523514	0.148597
647.729388	0.148702
647.935244	0.148316
648.141082	0.148329
648.346901	0.148244
648.552702	0.148061
648.758485	0.147945
648.964250	0.147948
649.169996	0.148050
649.375724	0.147825
649.581434	0.147753
649.787126	0.147792
649.992800	0.147832
650.198455	0.147816
650.404092	0.148062
650.609711	0.148191
650.815311	0.148280
651.020894	0.148015
651.226458	0.148107
651.432004	0.148084
651.637532	0.148262
651.843041	0.148493
652.048532	0.148487
652.254006	0.148587
652.459460	0.148871
652.664897	0.148649
652.870315	0.148733
653.075716	0.148910
653.281097	0.149013
653.486461	0.149080
653.691807	0.149301
653.897134	0.149368
654.102443	0.149528
654.307734	0.149397
654.513006	0.149653
654.718261	0.149885
654.923497	0.149846
655.128715	0.150222
655.333915	0.150393
655.539096	0.150127
655.744259	0.150199
655.949404	0.150141
656.154531	0.150239
656.359640	0.150331
656.564730	0.150448
656.769802	0.150757
656.974856	0.150561
657.179892	0.150656
657.384909	0.150691
657.589908	0.150909
657.794889	0.150975
657.999852	0.150858
658.204797	0.150991
658.409723	0.151037
658.614631	0.150981
658.819521	0.150928
659.024393	0.150919
659.229246	0.151209
659.434081	0.151243
659.638898	0.151350
659.843697	0.151429
660.048478	0.151376
660.253240	0.151594
660.457984	0.151470
660.662710	0.151729
660.867417	0.151822
661.072107	0.151600
661.276778	0.151734
661.481431	0.151798
661.686066	0.151993
661.890682	0.151939
662.095281	0.151850
662.299861	0.152010
662.504422	0.152018
662.708966	0.152151
662.913491	0.152426
663.117999	0.152224
663.322488	0.152283
663.526958	0.152426
663.731411	0.152713
663.935845	0.152605
664.140261	0.152843
664.344659	0.153131
664.549038	0.153318
664.753400	0.153173
664.957743	0.153333
665.162068	0.153494
665.366375	0.153547
665.570663	0.153352
665.774933	0.153487
665.979185	0.153214
666.183419	0.153060
666.387635	0.153053
666.591832	0.153187
666.796011	0.153118
667.000172	0.152858
667.204315	0.153056
667.408439	0.153431
667.612545	0.153606
667.816634	0.154047
668.020703	0.154317
668.224755	0.154381
668.428788	0.154791
668.632803	0.155054
668.836800	0.155374
669.040779	0.155469
669.244739	0.155645
669.448681	0.155913
669.652605	0.155796
669.856511	0.155874
670.060399	0.156019
670.264268	0.156026
670.468119	0.156261
670.671952	0.156450
670.875767	0.156360
671.079563	0.156313
671.283341	0.156384
671.487101	0.156583
671.690843	0.156822
671.894567	0.156807
672.098272	0.156999
672.301959	0.157076
672.505628	0.157514
672.709278	0.157809
672.912911	0.157925
673.116525	0.157852
673.320121	0.158057
673.523699	0.157894
673.727258	0.158050
673.930799	0.157810
674.134322	0.157810
674.337827	0.157548
674.541314	0.157651
674.744782	0.157789
674.948232	0.157877
675.151664	0.157684
675.355078	0.157708
675.558474	0.157641
675.761851	0.157737
675.965210	0.157772
676.168551	0.157657
676.371873	0.157437
676.575178	0.157315
676.778464	0.157308
676.981732	0.157368
677.184981	0.157312
677.388213	0.157521
677.591426	0.157508
677.794621	0.157516
677.997798	0.157657
678.200956	0.157709
678.404097	0.157663
678.607219	0.157739
678.810323	0.157915
679.013408	0.158265
679.216476	0.158148
679.419525	0.158256
679.622556	0.158321
679.825569	0.158402
680.028563	0.158471
680.231540	0.158616
680.434498	0.158622
680.637438	0.158573
680.840359	0.158518
681.043263	0.158445
681.246148	0.158557
681.449015	0.158637
681.651864	0.158655
681.854694	0.158661
682.057506	0.158674
682.260301	0.158770
682.463076	0.158793
682.665834	0.158851
682.868573	0.159014
683.071295	0.159089
683.273998	0.159182
683.476682	0.159398
683.679349	0.159642
683.881997	0.159750
684.084627	0.159835
684.287239	0.160063
684.489833	0.160093
684.692408	0.160240
684.894965	0.160499
685.097504	0.160475
685.300025	0.160741
685.502527	0.160691
685.705012	0.160724
685.907478	0.160764
686.109925	0.160836
686.312355	0.160944
686.514766	0.160901
686.717159	0.160741
686.919534	0.160795
687.121891	0.160529
687.324230	0.160938
687.526550	0.161334
687.728852	0.161429
687.931136	0.161514
688.133401	0.161528
688.335649	0.161683
688.537878	0.161844
688.740089	0.162044
688.942281	0.162114
689.144456	0.161807
689.346612	0.161750
689.548750	0.161839
689.750870	0.161938
689.952971	0.161999
690.155055	0.162116
690.357120	0.161927
690.559167	0.161976
690.761195	0.161921
690.963206	0.161982
691.165198	0.161766
691.367172	0.161893
691.569128	0.161679
691.771065	0.161880
691.972984	0.161880
692.174885	0.162013
692.376768	0.161911
692.578633	0.161883
692.780479	0.161908
692.982308	0.161950
693.184118	0.161927
693.385909	0.162093
