sample name	sample
index	1065
start time	 04-22-2021  10:17:19 AM


Wavelength (nm)	Absorbance
494.344910	-0.026656
494.563924	-0.026656
494.782919	-0.026656
495.001897	-0.061979
495.220856	0.000659
495.439797	0.006159
495.658719	0.009138
495.877624	0.014463
496.096510	0.011116
496.315378	-0.001278
496.534227	-0.003559
496.753059	0.008367
496.971872	-0.010369
497.190667	0.101635
497.409444	0.149134
497.628203	0.164259
497.846943	0.173741
498.065665	0.181045
498.284369	0.185387
498.503055	0.189186
498.721723	0.190163
498.940372	0.192327
499.159003	0.192549
499.377616	0.192605
499.596210	0.193503
499.814787	0.193976
500.033345	0.193542
500.251885	0.193730
500.470406	0.194085
500.688910	0.193863
500.907395	0.194107
501.125862	0.196141
501.344311	0.196543
501.562742	0.197175
501.781154	0.196717
501.999548	0.197485
502.217924	0.197995
502.436282	0.196332
502.654621	0.197858
502.872942	0.198633
503.091245	0.197587
503.309530	0.197522
503.527797	0.196070
503.746045	0.196443
503.964275	0.197802
504.182487	0.196722
504.400681	0.198444
504.618856	0.198341
504.837013	0.198313
505.055152	0.198095
505.273273	0.198779
505.491376	0.199829
505.709460	0.200439
505.927526	0.199195
506.145574	0.199823
506.363604	0.199321
506.581615	0.199854
506.799608	0.199367
507.017583	0.200574
507.235540	0.200245
507.453478	0.199853
507.671399	0.199025
507.889301	0.199079
508.107185	0.200192
508.325050	0.199319
508.542898	0.198814
508.760727	0.199234
508.978538	0.199562
509.196330	0.200010
509.414105	0.200705
509.631861	0.202345
509.849599	0.202894
510.067319	0.202017
510.285021	0.203958
510.502704	0.204326
510.720369	0.205274
510.938016	0.204770
511.155645	0.204621
511.373255	0.204732
511.590848	0.205033
511.808422	0.204873
512.025977	0.205048
512.243515	0.204094
512.461034	0.204549
512.678536	0.204271
512.896018	0.203771
513.113483	0.204314
513.330930	0.205365
513.548358	0.205205
513.765768	0.205378
513.983160	0.204657
514.200533	0.205579
514.417889	0.205917
514.635226	0.206005
514.852545	0.205803
515.069845	0.206210
515.287128	0.205933
515.504392	0.205515
515.721638	0.205328
515.938866	0.206596
516.156075	0.207099
516.373267	0.207665
516.590440	0.207688
516.807594	0.209221
517.024731	0.209647
517.241850	0.209823
517.458950	0.210241
517.676032	0.211086
517.893095	0.211626
518.110141	0.211177
518.327168	0.211231
518.544177	0.212495
518.761168	0.212216
518.978141	0.212334
519.195095	0.213010
519.412031	0.213727
519.628949	0.214287
519.845849	0.214693
520.062731	0.215595
520.279594	0.215175
520.496439	0.215402
520.713266	0.216314
520.930074	0.216250
521.146865	0.216296
521.363637	0.216287
521.580391	0.216245
521.797127	0.216662
522.013844	0.216971
522.230543	0.218427
522.447224	0.217837
522.663887	0.218197
522.880532	0.218012
523.097158	0.218681
523.313766	0.219367
523.530356	0.219763
523.746928	0.219704
523.963481	0.219999
524.180017	0.219567
524.396534	0.219717
524.613032	0.219657
524.829513	0.221255
525.045975	0.220722
525.262420	0.220863
525.478845	0.221291
525.695253	0.221021
525.911643	0.220606
526.128014	0.220646
526.344367	0.221069
526.560702	0.221186
526.777018	0.221291
526.993316	0.222447
527.209597	0.222004
527.425858	0.222568
527.642102	0.223992
527.858328	0.225088
528.074535	0.225628
528.290724	0.226541
528.506894	0.227247
528.723047	0.226645
528.939181	0.227139
529.155297	0.228087
529.371395	0.228085
529.587475	0.228053
529.803536	0.227241
530.019579	0.227140
530.235604	0.227539
530.451611	0.227982
530.667600	0.228105
530.883570	0.227937
531.099522	0.227686
531.315456	0.227330
531.531372	0.227367
531.747269	0.227920
531.963148	0.228609
532.179009	0.228277
532.394852	0.228195
532.610676	0.228486
532.826482	0.228417
533.042271	0.229131
533.258040	0.230292
533.473792	0.231258
533.689525	0.232049
533.905240	0.232002
534.120937	0.232008
534.336616	0.232489
534.552277	0.232489
534.767919	0.232913
534.983543	0.232520
535.199149	0.232733
535.414736	0.232455
535.630306	0.232496
535.845857	0.232925
536.061390	0.233771
536.276904	0.233703
536.492401	0.235016
536.707879	0.235147
536.923339	0.236200
537.138781	0.236097
537.354204	0.236714
537.569610	0.237083
537.784997	0.237354
538.000366	0.237057
538.215716	0.237215
538.431049	0.236952
538.646363	0.237447
538.861659	0.237331
539.076937	0.237905
539.292196	0.238222
539.507438	0.238422
539.722661	0.238324
539.937866	0.239182
540.153052	0.239503
540.368221	0.240452
540.583371	0.240335
540.798503	0.240695
541.013617	0.241366
541.228712	0.240763
541.443789	0.241779
541.658848	0.242815
541.873889	0.242985
542.088912	0.243476
542.303916	0.243715
542.518902	0.244402
542.733870	0.244679
542.948820	0.244742
543.163752	0.245241
543.378665	0.244864
543.593560	0.245088
543.808437	0.245512
544.023295	0.245841
544.238136	0.245753
544.452958	0.246228
544.667762	0.247208
544.882548	0.247234
545.097315	0.247534
545.312064	0.247813
545.526795	0.248327
545.741508	0.248253
545.956203	0.248431
546.170879	0.248251
546.385537	0.248560
546.600177	0.248398
546.814799	0.248980
547.029402	0.248752
547.243988	0.249643
547.458555	0.249535
547.673103	0.250580
547.887634	0.250965
548.102146	0.251776
548.316640	0.252298
548.531116	0.252761
548.745574	0.253313
548.960013	0.254449
549.174435	0.254537
549.388838	0.254916
549.603222	0.254603
549.817589	0.255320
550.031937	0.256029
550.246267	0.255649
550.460579	0.255653
550.674873	0.255454
550.889148	0.255786
551.103405	0.255753
551.317644	0.255446
551.531865	0.255620
551.746068	0.255116
551.960252	0.255205
552.174418	0.255911
552.388566	0.256120
552.602696	0.256205
552.816807	0.256232
553.030900	0.256627
553.244975	0.257290
553.459032	0.257585
553.673070	0.258148
553.887091	0.257852
554.101093	0.257391
554.315077	0.258018
554.529042	0.257878
554.742990	0.258504
554.956919	0.258573
555.170830	0.258814
555.384722	0.258940
555.598597	0.258972
555.812453	0.259125
556.026291	0.259659
556.240111	0.259257
556.453913	0.259782
556.667696	0.259080
556.881461	0.258938
557.095208	0.258811
557.308937	0.259010
557.522647	0.259378
557.736339	0.259874
557.950013	0.259775
558.163669	0.260072
558.377307	0.260209
558.590926	0.260817
558.804527	0.261055
559.018110	0.261226
559.231675	0.261210
559.445221	0.261384
559.658749	0.261339
559.872259	0.261634
560.085751	0.262106
560.299225	0.262388
560.512680	0.262708
560.726117	0.263288
560.939536	0.263600
561.152937	0.263980
561.366319	0.263843
561.579683	0.263862
561.793029	0.263655
562.006357	0.263194
562.219667	0.263128
562.432958	0.263081
562.646231	0.263231
562.859486	0.263334
563.072723	0.263191
563.285941	0.263439
563.499141	0.263828
563.712323	0.264204
563.925487	0.264506
564.138632	0.264679
564.351760	0.265251
564.564869	0.265408
564.777960	0.265850
564.991032	0.266149
565.204087	0.265969
565.417123	0.266303
565.630141	0.267278
565.843140	0.268060
566.056122	0.268202
566.269085	0.267747
566.482030	0.267977
566.694957	0.267763
566.907866	0.268595
567.120756	0.268913
567.333628	0.268698
567.546482	0.268205
567.759318	0.268030
567.972135	0.268109
568.184935	0.268448
568.397716	0.268355
568.610478	0.269410
568.823223	0.268983
569.035949	0.269374
569.248657	0.269666
569.461347	0.269947
569.674019	0.269985
569.886672	0.270494
570.099308	0.270987
570.311925	0.271228
570.524523	0.270719
570.737104	0.270808
570.949666	0.270522
571.162210	0.270426
571.374736	0.270517
571.587244	0.270950
571.799733	0.271133
572.012205	0.271008
572.224658	0.270994
572.437092	0.270690
572.649509	0.271137
572.861907	0.271858
573.074287	0.272441
573.286649	0.272543
573.498993	0.272372
573.711318	0.272183
573.923625	0.272558
574.135914	0.273157
574.348185	0.273506
574.560438	0.273015
574.772672	0.273107
574.984888	0.273313
575.197086	0.273654
575.409266	0.274274
575.621427	0.274269
575.833570	0.274457
576.045695	0.274196
576.257802	0.274311
576.469890	0.274852
576.681961	0.274643
576.894013	0.274229
577.106046	0.273959
577.318062	0.273390
577.530059	0.273898
577.742039	0.273641
577.954000	0.273886
578.165942	0.274240
578.377867	0.274294
578.589773	0.275208
578.801661	0.275838
579.013531	0.276388
579.225382	0.276844
579.437216	0.276929
579.649031	0.277110
579.860828	0.277125
580.072606	0.277266
580.284367	0.277815
580.496109	0.277517
580.707833	0.277988
580.919539	0.277932
581.131227	0.278029
581.342896	0.278230
581.554547	0.278830
581.766180	0.278787
581.977795	0.279097
582.189391	0.278922
582.400969	0.278726
582.612529	0.278686
582.824071	0.278711
583.035595	0.278823
583.247100	0.278913
583.458587	0.278959
583.670056	0.279388
583.881506	0.279624
584.092939	0.280154
584.304353	0.280987
584.515749	0.281135
584.727127	0.281398
584.938486	0.281371
585.149828	0.281640
585.361151	0.281505
585.572456	0.281920
585.783742	0.281900
585.995011	0.281803
586.206261	0.281409
586.417493	0.281349
586.628706	0.281714
586.839902	0.281963
587.051079	0.282155
587.262238	0.282140
587.473379	0.282199
587.684502	0.282549
587.895606	0.282735
588.106692	0.283204
588.317760	0.283600
588.528810	0.283596
588.739841	0.283915
588.950855	0.283849
589.161850	0.283852
589.372827	0.284161
589.583785	0.283926
589.794726	0.283814
590.005648	0.283657
590.216552	0.283661
590.427437	0.283652
590.638305	0.284066
590.849154	0.284558
591.059985	0.285303
591.270798	0.285012
591.481592	0.285155
591.692369	0.285582
591.903127	0.285785
592.113867	0.285920
592.324588	0.286495
592.535292	0.287167
592.745977	0.287224
592.956644	0.287526
593.167293	0.287916
593.377923	0.288231
593.588536	0.288212
593.799130	0.288654
594.009706	0.288828
594.220263	0.288666
594.430803	0.288126
594.641324	0.288123
594.851827	0.287788
595.062312	0.287799
595.272778	0.288035
595.483227	0.288276
595.693657	0.288238
595.904069	0.288657
596.114462	0.289308
596.324838	0.289508
596.535195	0.289857
596.745534	0.290235
596.955855	0.290686
597.166157	0.291022
597.376441	0.291373
597.586707	0.291649
597.796955	0.291581
598.007185	0.291596
598.217396	0.291431
598.427589	0.291841
598.637764	0.292199
598.847921	0.291920
599.058060	0.291786
599.268180	0.291917
599.478282	0.292294
599.688366	0.292840
599.898431	0.292603
600.108479	0.293000
600.318508	0.292711
600.528519	0.292898
600.738511	0.293053
600.948486	0.293198
601.158442	0.293001
601.368380	0.292580
601.578300	0.292481
601.788202	0.293118
601.998085	0.293173
602.207950	0.293227
602.417797	0.293146
602.627626	0.293797
602.837436	0.294171
603.047228	0.294345
603.257002	0.294746
603.466758	0.294868
603.676496	0.294806
603.886215	0.294993
604.095916	0.295397
604.305599	0.295406
604.515264	0.295358
604.724910	0.295326
604.934538	0.295373
605.144148	0.295616
605.353740	0.295693
605.563314	0.295947
605.772869	0.296501
605.982406	0.296691
606.191925	0.296766
606.401425	0.296756
606.610908	0.296876
606.820372	0.297520
607.029818	0.297736
607.239246	0.297635
607.448655	0.297671
607.658047	0.297447
607.867420	0.297590
608.076775	0.298116
608.286111	0.298362
608.495430	0.298538
608.704730	0.298587
608.914012	0.298639
609.123275	0.298823
609.332521	0.298565
609.541748	0.298520
609.750957	0.298332
609.960148	0.298102
610.169321	0.298184
610.378475	0.298255
610.587611	0.298476
610.796729	0.298327
611.005829	0.298082
611.214910	0.298598
611.423974	0.299109
611.633019	0.299181
611.842045	0.299423
612.051054	0.299449
612.260044	0.299421
612.469017	0.299529
612.677970	0.299504
612.886906	0.300066
613.095824	0.299698
613.304723	0.299577
613.513604	0.299731
613.722467	0.299913
613.931311	0.300224
614.140138	0.300523
614.348946	0.300300
614.557736	0.301011
614.766507	0.301390
614.975261	0.301879
615.183996	0.301826
615.392713	0.301923
615.601412	0.302263
615.810092	0.302224
616.018754	0.302572
616.227399	0.302770
616.436024	0.302388
616.644632	0.302335
616.853222	0.302637
617.061793	0.302999
617.270346	0.303341
617.478880	0.303320
617.687397	0.303475
617.895895	0.303136
618.104375	0.303352
618.312837	0.303823
618.521281	0.303880
618.729706	0.304102
618.938113	0.304271
619.146502	0.304334
619.354873	0.304191
619.563226	0.304535
619.771560	0.305008
619.979876	0.305228
620.188174	0.305284
620.396453	0.305327
620.604715	0.305205
620.812958	0.305130
621.021183	0.305223
621.229390	0.305648
621.437578	0.305572
621.645748	0.305469
621.853900	0.305566
622.062034	0.305801
622.270150	0.305991
622.478247	0.306028
622.686326	0.306349
622.894387	0.306760
623.102430	0.306760
623.310454	0.306918
623.518461	0.307289
623.726449	0.307116
623.934418	0.307219
624.142370	0.307392
624.350303	0.307812
624.558218	0.307734
624.766115	0.307720
624.973994	0.307618
625.181855	0.307574
625.389697	0.307629
625.597521	0.308125
625.805327	0.307938
626.013114	0.308135
626.220883	0.307736
626.428634	0.307912
626.636367	0.307835
626.844082	0.308381
627.051778	0.308779
627.259457	0.309296
627.467117	0.309165
627.674758	0.309554
627.882382	0.309694
628.089987	0.310364
628.297574	0.310551
628.505143	0.310904
628.712694	0.310989
628.920226	0.310905
629.127740	0.310644
629.335236	0.310761
629.542714	0.310488
629.750174	0.310568
629.957615	0.310489
630.165038	0.310709
630.372443	0.310504
630.579829	0.310744
630.787198	0.310846
630.994548	0.311076
631.201880	0.311669
631.409194	0.312126
631.616489	0.312136
631.823766	0.312281
632.031025	0.312341
632.238266	0.312887
632.445489	0.312570
632.652693	0.312790
632.859879	0.312921
633.067047	0.312789
633.274197	0.312871
633.481329	0.313008
633.688442	0.312949
633.895537	0.313050
634.102614	0.312815
634.309672	0.313124
634.516713	0.313349
634.723735	0.313358
634.930739	0.313440
635.137724	0.313621
635.344692	0.314046
635.551641	0.314209
635.758572	0.314538
635.965485	0.314821
636.172379	0.315083
636.379256	0.315109
636.586114	0.315323
636.792954	0.315457
636.999775	0.315677
637.206579	0.315435
637.413364	0.315871
637.620131	0.316085
637.826880	0.316241
638.033610	0.316205
638.240323	0.316577
638.447017	0.316670
638.653692	0.317053
638.860350	0.317342
639.066990	0.317849
639.273611	0.318126
639.480214	0.318253
639.686798	0.318461
639.893365	0.318837
640.099913	0.319308
640.306443	0.319491
640.512955	0.319682
640.719449	0.320035
640.925924	0.320116
641.132381	0.320477
641.338820	0.320576
641.545241	0.320928
641.751644	0.321095
641.958028	0.320934
642.164394	0.321326
642.370742	0.321268
642.577071	0.321139
642.783383	0.321180
642.989676	0.320964
643.195951	0.320892
643.402207	0.321170
643.608446	0.321300
643.814666	0.321487
644.020868	0.321453
644.227052	0.321676
644.433218	0.322095
644.639365	0.322500
644.845494	0.322410
645.051605	0.322748
645.257698	0.323018
645.463772	0.323116
645.669828	0.323228
645.875866	0.323358
646.081886	0.323303
646.287888	0.323267
646.493871	0.323123
646.699836	0.323730
646.905783	0.323744
647.111712	0.323422
647.317622	0.323626
647.523514	0.323635
647.729388	0.323812
647.935244	0.324201
648.141082	0.324137
648.346901	0.324661
648.552702	0.324778
648.758485	0.325161
648.964250	0.325713
649.169996	0.325933
649.375724	0.326038
649.581434	0.326273
649.787126	0.326757
649.992800	0.327113
650.198455	0.327276
650.404092	0.327412
650.609711	0.327849
650.815311	0.328116
651.020894	0.328568
651.226458	0.328896
651.432004	0.329458
651.637532	0.329510
651.843041	0.329889
652.048532	0.330142
652.254006	0.330369
652.459460	0.330587
652.664897	0.330653
652.870315	0.330519
653.075716	0.330840
653.281097	0.330724
653.486461	0.330884
653.691807	0.331010
653.897134	0.331303
654.102443	0.331500
654.307734	0.331890
654.513006	0.332067
654.718261	0.332518
654.923497	0.332787
655.128715	0.333017
655.333915	0.332940
655.539096	0.333278
655.744259	0.333509
655.949404	0.333539
656.154531	0.333169
656.359640	0.333206
656.564730	0.333376
656.769802	0.333565
656.974856	0.333672
657.179892	0.334175
657.384909	0.334465
657.589908	0.334456
657.794889	0.334876
657.999852	0.335304
658.204797	0.335570
658.409723	0.335596
658.614631	0.335860
658.819521	0.336322
659.024393	0.336441
659.229246	0.336650
659.434081	0.336799
659.638898	0.336978
659.843697	0.337043
660.048478	0.337348
660.253240	0.337470
660.457984	0.337503
660.662710	0.337760
660.867417	0.338055
661.072107	0.338050
661.276778	0.338475
661.481431	0.338611
661.686066	0.338809
661.890682	0.339017
662.095281	0.339455
662.299861	0.339569
662.504422	0.339769
662.708966	0.340077
662.913491	0.340162
663.117999	0.340218
663.322488	0.340528
663.526958	0.340910
663.731411	0.341410
663.935845	0.341555
664.140261	0.342111
664.344659	0.342082
664.549038	0.342247
664.753400	0.342713
664.957743	0.342652
665.162068	0.342763
665.366375	0.343010
665.570663	0.343116
665.774933	0.343417
665.979185	0.343371
666.183419	0.343382
666.387635	0.343671
666.591832	0.343708
666.796011	0.344095
667.000172	0.344540
667.204315	0.344946
667.408439	0.345059
667.612545	0.345097
667.816634	0.345121
668.020703	0.345710
668.224755	0.345913
668.428788	0.346231
668.632803	0.346662
668.836800	0.346827
669.040779	0.346888
669.244739	0.346854
669.448681	0.347175
669.652605	0.347873
669.856511	0.347831
670.060399	0.347944
670.264268	0.348057
670.468119	0.348004
670.671952	0.348082
670.875767	0.348170
671.079563	0.348600
671.283341	0.348661
671.487101	0.348318
671.690843	0.348711
671.894567	0.348618
672.098272	0.348789
672.301959	0.348872
672.505628	0.349060
672.709278	0.349440
672.912911	0.349741
673.116525	0.350014
673.320121	0.350512
673.523699	0.350814
673.727258	0.351352
673.930799	0.351619
674.134322	0.352132
674.337827	0.352269
674.541314	0.352567
674.744782	0.352799
674.948232	0.353414
675.151664	0.353683
675.355078	0.353859
675.558474	0.353963
675.761851	0.354265
675.965210	0.354600
676.168551	0.354948
676.371873	0.354863
676.575178	0.355138
676.778464	0.355146
676.981732	0.355288
677.184981	0.355586
677.388213	0.355969
677.591426	0.356182
677.794621	0.356240
677.997798	0.356465
678.200956	0.356724
678.404097	0.356867
678.607219	0.356709
678.810323	0.356890
679.013408	0.356890
679.216476	0.357053
679.419525	0.356926
679.622556	0.357105
679.825569	0.357187
680.028563	0.357339
680.231540	0.357478
680.434498	0.358036
680.637438	0.358285
680.840359	0.358153
681.043263	0.358214
681.246148	0.358589
681.449015	0.358576
681.651864	0.358929
681.854694	0.359333
682.057506	0.359389
682.260301	0.359715
682.463076	0.360050
682.665834	0.360727
682.868573	0.361219
683.071295	0.361560
683.273998	0.362089
683.476682	0.361984
683.679349	0.361966
683.881997	0.362257
684.084627	0.362460
684.287239	0.362531
684.489833	0.362544
684.692408	0.362500
684.894965	0.362755
685.097504	0.362770
685.300025	0.363323
685.502527	0.363636
685.705012	0.363546
685.907478	0.363441
686.109925	0.363591
686.312355	0.363872
686.514766	0.363993
686.717159	0.363938
686.919534	0.364096
687.121891	0.364107
687.324230	0.364206
687.526550	0.364643
687.728852	0.364791
687.931136	0.364899
688.133401	0.365069
688.335649	0.365274
688.537878	0.365460
688.740089	0.365553
688.942281	0.365788
689.144456	0.365809
689.346612	0.365742
689.548750	0.365924
689.750870	0.366599
689.952971	0.366967
690.155055	0.367356
690.357120	0.367583
690.559167	0.367605
690.761195	0.368035
690.963206	0.368458
691.165198	0.368921
691.367172	0.369468
691.569128	0.369145
691.771065	0.369452
691.972984	0.369548
692.174885	0.369699
692.376768	0.370187
692.578633	0.370008
692.780479	0.370280
692.982308	0.370094
693.184118	0.370145
693.385909	0.370112
