sample name	sample
index	168
start time	 02-18-2021  10:17:36 AM
880	0.426152
Peak Time (s)	91.535
Peak Height 	0.4262
calc peak height	90,93
Baseline Time (s)	8.534
Baseline Value 	2.5163E-4
subtract baseline	10,4
Abs	0.280799
Peak Time (s)	90.037
Peak Height 	0.2808
calc peak height	90,93
Baseline Time (s)	11.036
Baseline Value 	8.798E-4
subtract baseline	10,3
PK_550	0.140272
Peak Time (s)	91.035
Peak Height 	0.1403
calc peak height	90,93
Baseline Time (s)	11.036
Baseline Value 	9.7399E-4
subtract baseline	10,2
PK_880	0.267051
Peak Time (s)	91.035
Peak Height 	0.2671
calc peak height	90,93
Baseline Time (s)	8.534
Baseline Value 	4.8721E-4
subtract baseline	10,1


Time (s)	A880-A510	A880-A775	A880-A975	A880	I510	I775	I975	I880	
0.034500	-0.001402	-0.000402	-0.002818	0.005135	6604.982639	43328.446573	3759.660536	22697.100174
0.534500	-0.003034	-0.001398	0.000873	0.002765	6611.640675	43457.072826	3775.273304	22806.645370
1.035000	-0.003442	-0.000583	0.000243	0.002254	6612.571036	43581.751481	3774.963991	22830.358469
1.556000	-0.003492	-0.000238	0.002074	0.003004	6605.354042	43543.579594	3777.771763	22795.577594
2.066000	-0.000818	-0.000225	0.002395	-0.001497	6670.572705	43970.249456	3790.379920	23005.203746
2.541500	0.001660	-0.000056	0.003038	-0.001397	6692.423297	43976.710159	3791.805254	23000.501088
3.036500	0.000744	0.000406	0.006511	-0.001316	6683.250271	44012.927216	3800.769548	22996.718506
3.536000	-0.001718	-0.001248	0.001802	0.001598	6634.128734	43580.812912	3780.722754	22860.814924
4.037500	-0.000572	-0.001046	-0.002721	-0.000690	6665.432941	43815.800714	3774.912074	22967.446570
4.537000	-0.003246	0.000069	0.000273	-0.000208	6636.651036	43875.803178	3781.445904	22944.933206
5.046500	-0.001201	-0.000149	-0.001590	-0.000439	6657.380698	43876.922473	3777.194447	22955.699090
5.535500	0.000126	0.000410	0.001611	0.000057	6664.988759	43882.981349	3784.249321	22932.575090
6.039000	-0.000873	-0.000619	0.001776	-0.000663	6662.439431	43853.759795	3786.565813	22966.195548
6.535500	-0.002036	-0.001090	0.002961	-0.000334	6648.803143	43777.956607	3788.807614	22950.792217
7.036000	0.000266	-0.000248	0.000184	0.000082	6666.030833	43818.219134	3780.455958	22931.381160
7.541500	-0.000216	-0.000295	0.004380	-0.000437	6666.377285	43863.006376	3792.811433	22955.622416
8.036000	-0.000502	-0.000398	0.004785	-0.000350	6662.960740	43844.989731	3793.651035	22951.571546
8.534000	0.000000	0.000002	0.002692	0.000000	6664.354206	43849.666186	3787.228337	22935.227991
9.037500	0.000727	-0.000594	-0.000026	-0.000375	6674.445389	43828.752663	3781.100217	22952.712654
9.539500	-0.003070	-0.000319	0.000552	0.002732	6611.616811	43561.583569	3774.527019	22808.175929
10.035500	-0.000718	0.000063	-0.000184	0.000181	6656.137038	43838.373826	3779.242111	22926.789110
10.543500	-0.002245	-0.000051	0.002544	-0.000323	6646.799532	43875.225641	3787.685810	22950.283765
11.035500	0.000875	0.000000	0.000000	0.000359	6669.075036	43815.535942	3779.256760	22918.488303
11.535500	0.000758	0.000089	-0.000789	-0.000166	6672.817380	43873.644917	3778.567641	22942.957389
12.036000	0.000361	-0.000143	0.001786	-0.000085	6668.431738	43844.025948	3785.076839	22939.176853
12.540500	-0.000486	0.000518	0.004328	0.000287	6657.286920	43871.440696	3790.769330	22921.846928
13.037500	0.002445	0.000680	-0.000240	0.000574	6681.521173	43859.582462	3778.074106	22908.490734
13.539000	-0.001333	-0.000025	0.002191	0.004612	6610.322260	43412.671793	3773.901384	22721.221802
14.114500	0.000762	0.000236	0.001403	-0.001903	6688.808871	44052.578166	3788.838272	23024.185553
14.535000	-0.001854	-0.000648	0.002165	0.001366	6635.002127	43659.232677	3782.276641	22871.624007
15.034500	0.000306	0.000135	0.000465	0.002164	6647.389815	43657.853755	3775.773089	22834.530052
15.551500	-0.002068	0.000312	-0.000989	0.004509	6604.620623	43453.877210	3765.956110	22725.952764
16.042500	0.001296	-0.000058	0.002074	-0.002037	6694.966300	44037.417767	3790.954533	23030.474692
16.538500	0.001651	-0.000090	0.001119	-0.001904	6697.020703	44021.673898	3788.096788	23024.252061
17.036000	0.003438	0.000448	-0.001417	-0.001453	6709.358933	44029.957429	3780.284801	23003.121079
17.542000	-0.001523	0.000348	0.001428	0.003933	6614.736312	43511.319200	3773.683802	22752.566567
18.036500	0.001450	0.000658	0.004546	-0.001565	6692.043395	44060.625618	3796.226663	23008.373791
18.534000	0.000947	0.000473	0.007930	0.001529	6659.029606	43749.625630	3796.993381	22864.024708
19.035000	-0.000426	0.000602	0.000004	0.001994	6642.268826	43717.894415	3775.019660	22842.420620
19.537500	0.002351	0.000627	0.003129	0.002749	6660.720511	43649.071130	3781.182034	22807.404001
20.035000	-0.002038	-0.000345	0.001857	0.001016	6636.506664	43720.802535	3782.384829	22887.874015
20.541000	0.001145	0.000011	0.004195	0.001548	6660.672783	43704.208025	3787.110818	22863.155920
21.035500	-0.000913	0.000333	0.003914	0.001397	6643.273300	43748.840669	3786.768815	22870.156764
21.536000	0.002298	0.000615	0.002552	0.002642	6661.211878	43658.008645	3779.958652	22812.359908
22.036000	0.001187	0.000257	0.000004	0.001687	6659.782591	43714.270969	3775.814109	22856.668522
22.539000	0.001415	0.000269	0.001507	0.001468	6663.865656	43736.062270	3780.290964	22866.837701
23.033500	-0.000839	0.000553	0.002205	0.001617	6641.947474	43748.873061	3781.723666	22859.934045
23.534500	-0.000290	-0.000747	0.003109	0.001660	6646.551897	43622.186018	3783.974039	22857.954860
24.047000	0.001640	0.000150	0.007412	0.001748	6663.364901	43698.399126	3795.046022	22853.839382
24.541000	0.001546	0.000234	0.002626	0.001874	6661.356596	43694.549563	3782.152977	22848.013482
25.038500	0.001158	0.000400	0.003346	0.001836	6658.153397	43713.715149	3784.131889	22849.761766
25.538500	0.001444	0.000771	-0.002206	0.002049	6658.821448	43728.686417	3769.160902	22839.868672
26.038500	0.000496	-0.000077	0.002659	0.001385	6656.229975	43711.316120	3783.515877	22870.727455
26.536000	0.000069	0.001086	0.004153	0.002575	6641.490939	43708.768208	3784.310035	22815.463987
27.039000	0.001732	0.000908	0.006816	0.002035	6661.587976	43742.937013	3792.716620	22840.520576
27.537500	-0.000498	0.000134	0.000707	0.002068	6640.944531	43666.768638	3776.653642	22839.003825
28.037500	0.002445	0.000998	0.005307	0.000409	6683.036926	43905.413523	3793.025487	22916.176605
28.534000	0.002579	-0.000092	0.005718	-0.000771	6695.125049	43913.884134	3797.225767	22971.212816
29.034500	0.005149	0.001015	0.003679	0.000058	6711.217333	43940.265684	3789.666616	22932.541790
29.535000	-0.000897	0.000267	0.005388	0.005529	6605.985235	43354.155406	3779.823937	22678.927116
30.038500	0.002136	0.001570	0.002383	0.000809	6676.515010	43921.690342	3784.300567	22897.517863
30.539000	0.001952	0.000655	0.007424	0.000018	6682.090605	43909.843279	3799.652478	22934.373279
31.039000	0.000498	0.000599	0.012256	0.000110	6667.904352	43895.830373	3812.284889	22930.098702
31.555000	-0.000071	0.000197	0.008713	0.001297	6651.856042	43745.486647	3799.679452	22874.797366
32.041500	-0.000081	0.000264	-0.001280	0.003644	6630.416232	43530.683823	3767.435101	22765.943239
32.580000	0.002273	0.000852	0.005256	0.000813	6677.739895	43853.281978	3791.829147	22897.355816
33.057500	0.003093	0.001111	0.002363	0.000765	6685.715902	43882.299020	3784.362244	22899.578236
33.537000	0.000877	0.000246	0.002518	0.006928	6609.366651	43221.483060	3768.758564	22614.574605
34.037500	0.003583	0.001418	0.003475	0.000613	6691.625152	43925.902677	3787.673863	22906.668242
34.535000	0.002888	0.000216	0.002053	-0.000483	6695.323177	43915.767443	3786.819079	22957.786417
35.039000	0.002763	0.000976	0.007846	0.001984	6671.491751	43754.186326	3795.568718	22842.882810
35.538500	-0.002438	0.000473	0.002515	0.004044	6605.481763	43512.725130	3776.215018	22747.466729
36.036000	-0.000812	0.000335	0.005337	0.003172	6628.068343	43581.762980	3785.847241	22787.799705
36.540500	0.001405	0.000760	0.001438	0.002904	6650.660753	43646.962380	3776.377086	22800.197559
37.037000	0.001673	0.001905	0.008763	0.004183	6641.450128	43634.304812	3792.187004	22741.010853
37.533500	-0.000013	0.000001	0.005032	0.004354	6624.591273	43439.281036	3781.958978	22733.127771
38.034500	0.001615	0.000454	0.006242	0.003389	6648.158363	43572.491075	3787.648989	22777.746129
38.534500	0.001240	0.000171	0.003679	0.003257	6645.945309	43558.347101	3781.293235	22783.873885
39.034500	0.000846	0.000281	0.004724	0.003531	6639.863079	43542.923101	3783.303632	22771.181302
39.535000	-0.000402	-0.000011	0.002785	0.003122	6632.237527	43553.894054	3779.314461	22790.119856
40.035500	0.002016	0.000446	0.001802	0.003575	6650.114147	43554.196180	3775.580829	22769.126611
40.535500	0.000478	0.000819	0.003052	0.004047	6631.834304	43545.001803	3777.603550	22747.324204
41.036000	0.002181	0.000454	0.004349	0.003798	6649.586169	43534.045590	3781.629523	22758.830800
41.545500	0.001167	0.000480	0.004405	0.004553	6633.490278	43465.606957	3779.807704	22723.940577
42.033500	0.001487	0.000581	0.008302	0.003639	6644.711432	43560.890601	3792.405567	22766.160124
42.534000	0.001609	0.001930	0.007415	0.004603	6637.045068	43597.090501	3787.541627	22721.610266
43.034500	0.001656	0.001625	0.005324	0.004331	6639.950038	43594.048310	3782.781675	22734.177166
43.534500	-0.000924	0.000973	0.008008	0.005072	6609.859945	43463.110186	3787.865900	22699.979554
44.035000	0.001882	0.000548	0.002488	0.003844	6646.442852	43538.535716	3776.665296	22756.689720
44.535500	0.002690	0.001847	0.008136	0.004682	6646.170167	43581.877513	3789.227458	22717.971378
45.035500	0.002729	0.001529	0.005704	0.001541	6675.239827	43848.339010	3791.089316	22863.454528
45.536000	-0.000648	0.000975	0.009222	0.006546	6599.064742	43325.213823	3787.184149	22632.131253
46.039500	0.003222	0.001179	0.008061	0.001935	6676.155317	43778.042503	3796.266702	22845.178141
46.533500	0.001605	0.000864	0.007602	0.001289	6667.244057	43809.258090	3796.758895	22875.171626
47.034000	0.003740	0.001019	0.005864	0.001261	6687.097757	43826.532292	3792.246891	22876.469603
47.534000	0.000795	0.001495	0.002157	0.008053	6598.492098	43233.023860	3764.934164	22563.005276
48.034500	0.002163	0.000936	0.001669	0.001405	6671.292635	43805.091568	3780.878659	22869.774202
48.558000	0.002787	0.000844	0.004179	0.001341	6677.609753	43802.445785	3787.609329	22872.771882
49.035500	0.001394	0.001708	0.003838	0.005506	6626.907541	43491.356111	3775.853185	22679.987937
49.540500	-0.000993	0.001249	0.002347	0.007687	6585.717345	43244.282309	3766.364163	22579.796106
50.047000	0.003422	0.001383	0.004203	0.002320	6674.456209	43760.899973	3785.108392	22827.287538
50.536000	0.002966	0.000100	0.003321	0.000584	6686.217101	43803.745989	3787.345459	22908.017445
51.040000	0.002975	0.001397	0.004063	0.001859	6674.585314	43805.852889	3785.948751	22848.702809
51.540000	-0.002651	0.000568	0.004798	0.006942	6577.535997	43250.222787	3774.620559	22613.963068
52.037500	0.003337	0.001202	0.007285	0.003379	6663.966548	43643.860332	3790.414933	22778.202332
52.534500	0.002804	0.000592	0.010449	-0.001918	6707.796242	44087.913143	3812.876871	23024.892508
53.034500	-0.024455	-0.018795	0.007809	0.107585	5622.475066	33464.099823	3547.928966	18489.604999
53.546000	-0.035519	-0.020314	-0.009600	0.035929	6061.493817	38853.154755	3667.574511	21326.570735
54.035500	-0.023016	-0.018110	-0.008796	-0.076483	7185.009258	49766.889945	3971.032373	26836.706927
54.541000	-0.007924	-0.014413	0.008466	-0.089455	7485.062785	51607.828103	4066.374486	27569.308643
55.046500	-0.000988	-0.007841	0.019707	-0.057147	7212.969847	48794.845993	3999.242695	25784.580209
55.554000	0.021684	0.007067	0.027726	-0.066941	7564.028263	51491.600267	4055.790703	26311.648520
56.036500	0.051401	0.017911	0.054641	-0.034082	7528.888329	49080.721643	4036.662848	24589.234113
56.550500	0.074461	0.026496	0.069789	-0.016233	7587.294406	48102.178462	4028.055963	23706.831984
57.040500	0.083924	0.039002	0.089907	0.090175	6607.558944	39277.483779	3779.492675	19136.443868
57.534500	0.099061	0.042523	0.109241	0.085682	6788.695813	39958.469574	3843.270019	19307.665540
58.040000	0.139142	0.064320	0.128704	0.107955	6960.231385	39917.542534	3835.564809	18476.114650
58.544500	0.154324	0.076687	0.148355	0.101055	7182.966762	41605.100415	3910.392187	18729.185318
59.035500	0.171575	0.087372	0.169088	0.153059	6837.448220	38075.838770	3822.735007	16917.405187
59.541500	0.188291	0.098693	0.199412	0.225642	6336.846923	33423.816843	3713.872115	14725.342454
60.036500	0.202650	0.105458	0.208095	0.263642	6143.642829	31292.894192	3644.338108	13715.752841
60.536500	0.207585	0.112679	0.223750	0.294519	5943.403170	29778.023366	3610.044750	12958.049200
61.039500	0.219193	0.116761	0.231443	0.321027	5833.681870	28416.074318	3569.282320	12349.154003
61.534500	0.224429	0.121215	0.237400	0.349508	5669.855647	27032.924453	3522.753553	11735.070350
62.041000	0.233167	0.127538	0.250669	0.365991	5617.191721	26470.713401	3516.309044	11397.652125
62.534500	0.241265	0.131432	0.254882	0.380578	5573.778787	25892.962039	3495.827980	11109.526758
63.038500	0.245441	0.135521	0.263034	0.391622	5528.538136	25524.785878	3490.205808	10897.745991
63.541000	0.250710	0.138072	0.269257	0.398237	5519.747681	25312.277417	3489.444495	10773.433166
64.035500	0.255850	0.143233	0.263628	0.393299	5586.176603	25843.877574	3488.107811	10866.039806
64.537000	0.255368	0.143735	0.264581	0.379663	5675.237858	26609.133688	3516.787862	11127.314276
65.035500	0.252869	0.143090	0.266513	0.380449	5652.746043	26530.591443	3519.082268	11112.039089
65.609500	0.255301	0.142913	0.268486	0.386063	5631.115665	26215.109331	3511.814993	11003.666169
66.042000	0.257850	0.142926	0.268420	0.382934	5669.815626	26385.771574	3517.923420	11063.892579
66.535000	0.258607	0.143221	0.266821	0.384220	5666.193690	26331.809656	3512.169614	11039.096968
67.037500	0.256322	0.142128	0.266893	0.385696	5640.529754	26192.505768	3509.380088	11010.706599
67.535000	0.253458	0.142129	0.264945	0.393004	5572.227807	25800.852918	3491.230767	10871.605715
68.038500	0.257175	0.142684	0.272118	0.388615	5626.531154	26065.166335	3513.964236	10954.879183
68.535000	0.258050	0.142887	0.266353	0.390127	5622.223577	25994.853164	3499.584455	10926.090787
69.036000	0.258021	0.143301	0.273812	0.391162	5615.053719	25961.607583	3512.265856	10906.458337
69.536000	0.254810	0.142128	0.268912	0.398121	5547.359594	25530.433293	3489.004218	10775.611907
70.044000	0.259312	0.142986	0.270004	0.393245	5609.722942	25833.618523	3500.629934	10867.068022
70.536500	0.255395	0.141748	0.270490	0.393320	5583.010460	25763.842972	3501.438653	10865.660222
71.044000	0.258670	0.143510	0.275107	0.395570	5589.840586	25737.951124	3506.096200	10823.322278
71.542500	0.256919	0.142335	0.267398	0.403495	5525.956495	25260.598952	3475.780652	10675.987124
72.038000	0.258871	0.142292	0.265797	0.396718	5583.529842	25612.898785	3485.696954	10801.819472
72.568000	0.261479	0.143340	0.273963	0.399219	5584.240434	25536.405981	3496.686517	10755.140174
73.039000	0.260889	0.144200	0.272024	0.400500	5571.799139	25514.291021	3490.421066	10731.345705
73.544000	0.259358	0.143514	0.269971	0.407685	5514.538745	25104.852002	3472.704878	10599.152684
74.035500	0.259109	0.143766	0.277507	0.401154	5555.690007	25457.237748	3499.832471	10719.218038
74.540500	0.261210	0.144185	0.278805	0.402714	5559.268414	25397.604739	3499.321429	10690.388735
75.036000	0.264507	0.144169	0.273919	0.403074	5578.733961	25377.961575	3489.107157	10683.741185
75.542000	0.260413	0.142919	0.273270	0.403394	5549.520127	25296.184492	3487.233644	10677.834072
76.034000	0.260419	0.143440	0.268962	0.403739	5547.292646	25305.323864	3478.298200	10671.488444
76.534500	0.261953	0.144059	0.273612	0.405107	5548.383683	25266.400159	3484.590556	10646.329306
77.034500	0.259941	0.142834	0.271455	0.405234	5534.341257	25196.320853	3480.205744	10644.001790
77.554500	0.260324	0.142276	0.272794	0.410638	5501.651736	24889.833678	3472.458222	10545.455907
78.035500	0.264146	0.143977	0.276277	0.407657	5546.042117	25130.203081	3484.813543	10599.676419
78.536500	0.262964	0.143319	0.270446	0.408037	5535.784725	25076.701091	3472.939296	10592.743015
79.038000	0.262804	0.142321	0.273527	0.407658	5537.222165	25044.820149	3479.532032	10599.652024
79.551500	0.263186	0.143559	0.273569	0.410572	5520.671767	24958.841883	3474.056211	10546.662141
80.040000	0.262685	0.142379	0.272852	0.409401	5525.040314	24958.342313	3474.917673	10567.903244
80.539500	0.261039	0.141176	0.275489	0.408551	5519.846102	24940.276723	3481.578938	10583.366584
81.038000	0.261739	0.142606	0.276280	0.410914	5509.034248	24892.596082	3478.569799	10540.458192
81.537500	0.262146	0.142118	0.277198	0.411536	5507.638015	24836.013761	3479.135994	10529.203706
82.035500	0.263678	0.143022	0.274019	0.412749	5509.706500	24820.235394	3470.780654	10507.295502
82.535000	0.264129	0.144119	0.278828	0.414166	5503.448030	24803.958995	3477.226884	10481.781985
83.036000	0.264102	0.141087	0.273543	0.412468	5514.291851	24736.226679	3470.410180	10512.361230
83.535500	0.260272	0.141134	0.275270	0.420014	5441.275398	24359.255111	3459.472378	10377.353177
84.036000	0.262263	0.142051	0.274732	0.414958	5486.275628	24658.984986	3467.951915	10467.554421
84.539000	0.263389	0.141094	0.276281	0.414524	5496.339142	24632.609351	3471.701935	10475.351168
85.046500	0.262403	0.140790	0.279166	0.415047	5486.607505	24590.885614	3476.189978	10465.957170
85.537500	0.262637	0.140627	0.276292	0.422156	5442.687245	24227.640609	3457.385346	10339.458836
86.034500	0.264505	0.142817	0.278491	0.417510	5484.286642	24568.953449	3470.233549	10421.906135
86.534500	0.267023	0.142183	0.275234	0.418411	5494.706884	24491.805361	3462.404124	10405.836313
87.035000	0.263778	0.140053	0.280231	0.416606	5485.423036	24475.574995	3475.250898	10438.047040
87.538000	0.261134	0.139041	0.275603	0.421827	5435.259425	24165.482466	3456.714336	10345.270082
88.035500	0.265530	0.140415	0.274997	0.418131	5486.889578	24417.403032	3462.485493	10410.834929
88.536000	0.263774	0.138945	0.277897	0.418111	5475.724898	24345.019620	3467.975808	10411.185970
89.036000	0.265805	0.139808	0.276533	0.418765	5484.569209	24355.435613	3464.176953	10399.535747
89.536000	0.262839	0.138305	0.273662	0.424857	5426.897341	23980.352847	3447.519842	10291.947747
90.037000	0.263981	0.138518	0.280799	0.418965	5471.581604	24281.317905	3471.847392	10395.984004
90.539500	0.264557	0.139293	0.277725	0.419823	5469.776664	24277.214519	3464.429032	10380.747684
91.035000	0.267051	0.140272	0.276470	0.421009	5478.160092	24266.942613	3459.856607	10359.734443
91.535000	0.263376	0.138278	0.273685	0.426152	5422.123496	23915.691341	3445.183142	10269.263462
92.037500	0.266083	0.138323	0.275860	0.420843	5473.018402	24178.660790	3459.028641	10362.675695
92.538000	0.262944	0.136766	0.277888	0.420058	5457.973528	24140.528546	3464.293559	10376.573306
93.038500	0.262774	0.137224	0.276445	0.421925	5445.022338	24071.141695	3458.101508	10343.540234
93.541000	0.267063	0.139205	0.279347	0.423187	5464.288225	24106.540923	3461.163235	10321.289956
94.036000	0.266017	0.137916	0.279998	0.422143	5464.273847	24094.460197	3464.339468	10339.689974
94.539500	0.266975	0.137922	0.272025	0.423028	5464.743178	24051.269738	3447.873189	10324.097802
95.039500	0.265736	0.136483	0.277218	0.424763	5445.810254	23895.873236	3454.261116	10293.594872
95.537500	0.266940	0.136910	0.282683	0.422839	5465.727246	24010.819838	3468.085425	10327.416445
96.074500	0.263826	0.136021	0.286215	0.423477	5441.851056	23936.061916	3473.561986	10316.178563
96.535000	0.266114	0.137334	0.273927	0.424265	5451.369545	23961.756558	3449.097175	10302.331460
97.040500	0.263150	0.135609	0.277970	0.423813	5435.451921	23899.619692	3457.424646	10310.280386
97.538500	0.266373	0.136648	0.284772	0.425068	5447.911892	23889.068988	3467.819611	10288.240189
98.039000	0.266322	0.134055	0.282438	0.423135	5459.892256	23856.922687	3467.064976	10322.204196
