sample name	sample
index	1372
start time	 05-03-2021  02:29:11 PM


Wavelength (nm)	Absorbance
494.344910	NaN
494.563924	NaN
494.782919	NaN
495.001897	0.332301
495.220856	0.760156
495.439797	0.485328
495.658719	0.399964
495.877624	0.206872
496.096510	0.261658
496.315378	0.101292
496.534227	0.126194
496.753059	0.111058
496.971872	-0.075029
497.190667	0.133849
497.409444	0.148285
497.628203	0.154436
497.846943	0.157486
498.065665	0.160023
498.284369	0.160962
498.503055	0.159988
498.721723	0.160638
498.940372	0.161770
499.159003	0.160922
499.377616	0.161059
499.596210	0.161428
499.814787	0.162368
500.033345	0.161448
500.251885	0.162935
500.470406	0.163676
500.688910	0.163624
500.907395	0.163653
501.125862	0.162778
501.344311	0.163662
501.562742	0.162347
501.781154	0.162011
501.999548	0.161889
502.217924	0.162160
502.436282	0.161833
502.654621	0.161199
502.872942	0.161815
503.091245	0.162491
503.309530	0.163009
503.527797	0.163598
503.746045	0.162861
503.964275	0.162538
504.182487	0.161854
504.400681	0.163346
504.618856	0.163973
504.837013	0.164109
505.055152	0.163872
505.273273	0.162791
505.491376	0.164048
505.709460	0.163738
505.927526	0.164386
506.145574	0.164753
506.363604	0.164048
506.581615	0.163985
506.799608	0.164538
507.017583	0.165734
507.235540	0.167031
507.453478	0.165380
507.671399	0.165433
507.889301	0.165446
508.107185	0.166156
508.325050	0.166718
508.542898	0.167284
508.760727	0.166555
508.978538	0.166839
509.196330	0.166184
509.414105	0.166670
509.631861	0.166432
509.849599	0.166661
510.067319	0.166649
510.285021	0.166168
510.502704	0.166245
510.720369	0.166413
510.938016	0.166053
511.155645	0.166456
511.373255	0.166905
511.590848	0.167872
511.808422	0.167933
512.025977	0.168248
512.243515	0.169185
512.461034	0.169737
512.678536	0.170578
512.896018	0.170773
513.113483	0.171501
513.330930	0.171686
513.548358	0.173154
513.765768	0.173326
513.983160	0.172717
514.200533	0.173553
514.417889	0.172589
514.635226	0.172584
514.852545	0.172274
515.069845	0.170866
515.287128	0.170862
515.504392	0.170143
515.721638	0.170236
515.938866	0.170855
516.156075	0.169415
516.373267	0.170179
516.590440	0.170840
516.807594	0.171660
517.024731	0.173224
517.241850	0.173534
517.458950	0.173882
517.676032	0.173971
517.893095	0.174532
518.110141	0.174872
518.327168	0.175230
518.544177	0.174725
518.761168	0.174965
518.978141	0.174825
519.195095	0.174195
519.412031	0.174457
519.628949	0.175101
519.845849	0.175075
520.062731	0.175875
520.279594	0.176349
520.496439	0.176238
520.713266	0.175600
520.930074	0.175259
521.146865	0.176275
521.363637	0.175398
521.580391	0.175380
521.797127	0.175150
522.013844	0.175074
522.230543	0.174659
522.447224	0.174356
522.663887	0.174828
522.880532	0.175290
523.097158	0.175508
523.313766	0.177500
523.530356	0.177182
523.746928	0.177861
523.963481	0.178451
524.180017	0.179166
524.396534	0.180535
524.613032	0.181590
524.829513	0.181967
525.045975	0.181724
525.262420	0.180699
525.478845	0.181336
525.695253	0.182184
525.911643	0.182169
526.128014	0.182343
526.344367	0.182267
526.560702	0.182325
526.777018	0.182109
526.993316	0.183311
527.209597	0.184200
527.425858	0.184865
527.642102	0.184398
527.858328	0.185028
528.074535	0.185468
528.290724	0.186415
528.506894	0.187603
528.723047	0.188578
528.939181	0.189123
529.155297	0.189799
529.371395	0.190390
529.587475	0.191945
529.803536	0.192209
530.019579	0.192587
530.235604	0.192296
530.451611	0.191719
530.667600	0.192342
530.883570	0.192537
531.099522	0.192289
531.315456	0.192470
531.531372	0.192022
531.747269	0.192394
531.963148	0.192694
532.179009	0.193629
532.394852	0.193546
532.610676	0.193605
532.826482	0.193859
533.042271	0.194629
533.258040	0.195345
533.473792	0.195447
533.689525	0.195956
533.905240	0.196655
534.120937	0.197252
534.336616	0.197779
534.552277	0.198068
534.767919	0.198091
534.983543	0.198138
535.199149	0.198350
535.414736	0.198731
535.630306	0.198818
535.845857	0.198841
536.061390	0.198648
536.276904	0.199053
536.492401	0.199269
536.707879	0.199556
536.923339	0.200130
537.138781	0.200356
537.354204	0.200802
537.569610	0.201243
537.784997	0.201395
538.000366	0.201408
538.215716	0.201448
538.431049	0.202372
538.646363	0.202674
538.861659	0.202933
539.076937	0.203276
539.292196	0.203515
539.507438	0.203882
539.722661	0.203917
539.937866	0.204704
540.153052	0.205422
540.368221	0.205108
540.583371	0.205858
540.798503	0.206491
541.013617	0.206200
541.228712	0.206189
541.443789	0.206419
541.658848	0.206946
541.873889	0.207186
542.088912	0.207695
542.303916	0.208090
542.518902	0.208093
542.733870	0.208243
542.948820	0.208816
543.163752	0.209466
543.378665	0.209653
543.593560	0.210333
543.808437	0.210742
544.023295	0.211028
544.238136	0.211247
544.452958	0.211788
544.667762	0.211766
544.882548	0.212420
545.097315	0.212598
545.312064	0.212861
545.526795	0.212826
545.741508	0.212963
545.956203	0.213200
546.170879	0.214184
546.385537	0.213919
546.600177	0.214107
546.814799	0.213943
547.029402	0.214520
547.243988	0.214791
547.458555	0.215261
547.673103	0.215259
547.887634	0.214844
548.102146	0.214661
548.316640	0.215446
548.531116	0.215613
548.745574	0.215602
548.960013	0.215848
549.174435	0.215830
549.388838	0.216200
549.603222	0.217043
549.817589	0.217620
550.031937	0.217857
550.246267	0.217761
550.460579	0.217894
550.674873	0.218556
550.889148	0.218313
551.103405	0.218964
551.317644	0.219066
551.531865	0.219129
551.746068	0.219639
551.960252	0.219922
552.174418	0.220334
552.388566	0.221183
552.602696	0.221325
552.816807	0.221577
553.030900	0.221594
553.244975	0.222073
553.459032	0.221623
553.673070	0.221683
553.887091	0.221902
554.101093	0.222271
554.315077	0.222427
554.529042	0.222908
554.742990	0.223654
554.956919	0.224321
555.170830	0.224454
555.384722	0.225459
555.598597	0.225922
555.812453	0.226060
556.026291	0.226759
556.240111	0.227330
556.453913	0.227620
556.667696	0.227891
556.881461	0.227921
557.095208	0.228028
557.308937	0.227844
557.522647	0.227931
557.736339	0.228148
557.950013	0.227870
558.163669	0.227565
558.377307	0.227128
558.590926	0.227019
558.804527	0.227231
559.018110	0.227046
559.231675	0.227192
559.445221	0.227594
559.658749	0.228019
559.872259	0.227888
560.085751	0.227840
560.299225	0.227854
560.512680	0.228131
560.726117	0.228425
560.939536	0.228324
561.152937	0.228700
561.366319	0.228741
561.579683	0.228369
561.793029	0.228963
562.006357	0.229504
562.219667	0.230120
562.432958	0.230082
562.646231	0.229872
562.859486	0.230648
563.072723	0.230927
563.285941	0.231325
563.499141	0.232121
563.712323	0.232229
563.925487	0.232537
564.138632	0.232975
564.351760	0.233009
564.564869	0.233418
564.777960	0.233576
564.991032	0.233266
565.204087	0.232827
565.417123	0.232397
565.630141	0.232453
565.843140	0.232317
566.056122	0.232264
566.269085	0.232296
566.482030	0.232223
566.694957	0.232379
566.907866	0.232511
567.120756	0.232977
567.333628	0.233349
567.546482	0.233735
567.759318	0.233386
567.972135	0.233384
568.184935	0.234250
568.397716	0.234847
568.610478	0.234667
568.823223	0.235012
569.035949	0.234841
569.248657	0.235040
569.461347	0.234926
569.674019	0.235720
569.886672	0.235933
570.099308	0.235848
570.311925	0.235839
570.524523	0.236626
570.737104	0.236663
570.949666	0.237028
571.162210	0.237170
571.374736	0.237537
571.587244	0.237165
571.799733	0.237289
572.012205	0.237247
572.224658	0.236918
572.437092	0.236288
572.649509	0.236418
572.861907	0.236469
573.074287	0.236605
573.286649	0.236375
573.498993	0.236475
573.711318	0.236719
573.923625	0.236887
574.135914	0.237200
574.348185	0.237734
574.560438	0.238048
574.772672	0.238375
574.984888	0.238315
575.197086	0.238480
575.409266	0.238994
575.621427	0.239164
575.833570	0.239268
576.045695	0.239330
576.257802	0.239436
576.469890	0.239885
576.681961	0.239919
576.894013	0.240018
577.106046	0.240181
577.318062	0.239795
577.530059	0.239470
577.742039	0.239440
577.954000	0.239702
578.165942	0.239559
578.377867	0.239275
578.589773	0.238991
578.801661	0.239237
579.013531	0.239379
579.225382	0.240176
579.437216	0.240414
579.649031	0.240579
579.860828	0.240578
580.072606	0.241087
580.284367	0.241003
580.496109	0.241242
580.707833	0.241701
580.919539	0.241857
581.131227	0.241879
581.342896	0.242438
581.554547	0.242649
581.766180	0.242968
581.977795	0.243042
582.189391	0.243367
582.400969	0.243874
582.612529	0.244058
582.824071	0.244496
583.035595	0.244636
583.247100	0.244609
583.458587	0.244656
583.670056	0.244541
583.881506	0.244197
584.092939	0.244555
584.304353	0.244645
584.515749	0.244740
584.727127	0.243885
584.938486	0.244344
585.149828	0.244338
585.361151	0.244370
585.572456	0.244958
585.783742	0.245665
585.995011	0.245493
586.206261	0.245575
586.417493	0.245309
586.628706	0.246010
586.839902	0.245674
587.051079	0.246051
587.262238	0.246285
587.473379	0.246086
587.684502	0.246193
587.895606	0.246532
588.106692	0.246349
588.317760	0.246654
588.528810	0.247021
588.739841	0.246946
588.950855	0.246631
589.161850	0.246524
589.372827	0.246488
589.583785	0.246522
589.794726	0.246437
590.005648	0.246692
590.216552	0.246875
590.427437	0.246687
590.638305	0.247031
590.849154	0.247414
591.059985	0.247964
591.270798	0.248603
591.481592	0.249275
591.692369	0.249820
591.903127	0.250375
592.113867	0.250455
592.324588	0.250545
592.535292	0.250777
592.745977	0.250940
592.956644	0.250751
593.167293	0.250313
593.377923	0.249948
593.588536	0.249951
593.799130	0.250362
594.009706	0.250398
594.220263	0.250946
594.430803	0.251075
594.641324	0.251453
594.851827	0.251976
595.062312	0.252838
595.272778	0.252958
595.483227	0.253148
595.693657	0.252707
595.904069	0.253033
596.114462	0.253543
596.324838	0.253896
596.535195	0.253930
596.745534	0.254133
596.955855	0.253928
597.166157	0.254121
597.376441	0.253823
597.586707	0.254061
597.796955	0.254084
598.007185	0.253396
598.217396	0.253398
598.427589	0.253429
598.637764	0.253676
598.847921	0.253736
599.058060	0.253779
599.268180	0.254325
599.478282	0.254497
599.688366	0.254831
599.898431	0.255488
600.108479	0.255635
600.318508	0.256015
600.528519	0.255945
600.738511	0.256428
600.948486	0.256691
601.158442	0.256718
601.368380	0.257021
601.578300	0.257306
601.788202	0.257265
601.998085	0.257256
602.207950	0.257240
602.417797	0.257827
602.627626	0.258152
602.837436	0.258380
603.047228	0.258852
603.257002	0.258682
603.466758	0.258573
603.676496	0.258811
603.886215	0.259441
604.095916	0.260057
604.305599	0.259814
604.515264	0.259602
604.724910	0.259414
604.934538	0.259660
605.144148	0.259908
605.353740	0.260323
605.563314	0.260612
605.772869	0.260855
605.982406	0.260475
606.191925	0.260741
606.401425	0.261088
606.610908	0.261485
606.820372	0.261440
607.029818	0.261580
607.239246	0.261632
607.448655	0.261582
607.658047	0.261002
607.867420	0.261304
608.076775	0.261489
608.286111	0.261300
608.495430	0.261589
608.704730	0.261524
608.914012	0.261589
609.123275	0.261475
609.332521	0.261705
609.541748	0.262285
609.750957	0.262436
609.960148	0.262303
610.169321	0.262524
610.378475	0.262689
610.587611	0.262969
610.796729	0.263622
611.005829	0.263822
611.214910	0.264016
611.423974	0.263717
611.633019	0.263831
611.842045	0.264353
612.051054	0.264675
612.260044	0.264405
612.469017	0.264614
612.677970	0.264559
612.886906	0.264608
613.095824	0.264912
613.304723	0.265586
613.513604	0.265779
613.722467	0.265740
613.931311	0.266086
614.140138	0.266426
614.348946	0.266261
614.557736	0.266375
614.766507	0.266939
614.975261	0.266908
615.183996	0.266907
615.392713	0.266636
615.601412	0.266478
615.810092	0.266240
616.018754	0.266455
616.227399	0.266556
616.436024	0.266543
616.644632	0.266807
616.853222	0.266978
617.061793	0.266921
617.270346	0.267301
617.478880	0.267493
617.687397	0.267628
617.895895	0.267523
618.104375	0.267677
618.312837	0.267894
618.521281	0.267584
618.729706	0.267516
618.938113	0.267809
619.146502	0.268216
619.354873	0.268673
619.563226	0.268934
619.771560	0.269419
619.979876	0.269605
620.188174	0.269981
620.396453	0.270360
620.604715	0.270727
620.812958	0.270794
621.021183	0.270885
621.229390	0.271205
621.437578	0.271102
621.645748	0.271192
621.853900	0.271658
622.062034	0.271762
622.270150	0.271971
622.478247	0.271724
622.686326	0.271801
622.894387	0.271698
623.102430	0.271797
623.310454	0.272274
623.518461	0.272615
623.726449	0.272570
623.934418	0.272647
624.142370	0.272571
624.350303	0.272930
624.558218	0.273112
624.766115	0.273281
624.973994	0.273218
625.181855	0.273079
625.389697	0.272978
625.597521	0.273110
625.805327	0.273301
626.013114	0.273579
626.220883	0.274039
626.428634	0.274454
626.636367	0.274612
626.844082	0.274937
627.051778	0.275257
627.259457	0.275566
627.467117	0.275716
627.674758	0.275823
627.882382	0.275994
628.089987	0.275931
628.297574	0.276202
628.505143	0.276423
628.712694	0.276283
628.920226	0.276449
629.127740	0.276448
629.335236	0.276829
629.542714	0.276825
629.750174	0.276932
629.957615	0.277491
630.165038	0.277441
630.372443	0.277776
630.579829	0.277933
630.787198	0.278211
630.994548	0.278609
631.201880	0.278722
631.409194	0.278847
631.616489	0.279044
631.823766	0.278625
632.031025	0.278867
632.238266	0.278801
632.445489	0.279027
632.652693	0.279033
632.859879	0.279016
633.067047	0.279094
633.274197	0.279152
633.481329	0.279079
633.688442	0.279347
633.895537	0.279327
634.102614	0.279725
634.309672	0.279850
634.516713	0.280090
634.723735	0.280185
634.930739	0.280547
635.137724	0.280897
635.344692	0.281013
635.551641	0.281233
635.758572	0.281442
635.965485	0.281452
636.172379	0.281828
636.379256	0.281799
636.586114	0.281625
636.792954	0.281516
636.999775	0.281734
637.206579	0.282151
637.413364	0.282216
637.620131	0.282406
637.826880	0.282549
638.033610	0.282491
638.240323	0.282662
638.447017	0.283119
638.653692	0.283294
638.860350	0.283313
639.066990	0.283074
639.273611	0.282888
639.480214	0.282677
639.686798	0.282530
639.893365	0.282716
640.099913	0.282647
640.306443	0.282760
640.512955	0.282797
640.719449	0.282979
640.925924	0.283452
641.132381	0.283676
641.338820	0.284064
641.545241	0.284633
641.751644	0.284871
641.958028	0.285196
642.164394	0.285635
642.370742	0.286082
642.577071	0.286533
642.783383	0.286688
642.989676	0.287169
643.195951	0.287528
643.402207	0.287774
643.608446	0.287808
643.814666	0.288102
644.020868	0.287729
644.227052	0.287508
644.433218	0.287401
644.639365	0.287566
644.845494	0.287594
645.051605	0.287532
645.257698	0.287622
645.463772	0.287877
645.669828	0.288038
645.875866	0.288340
646.081886	0.288716
646.287888	0.288878
646.493871	0.288989
646.699836	0.289074
646.905783	0.289263
647.111712	0.289317
647.317622	0.289184
647.523514	0.289185
647.729388	0.289425
647.935244	0.289483
648.141082	0.289941
648.346901	0.290192
648.552702	0.290619
648.758485	0.290767
648.964250	0.290839
649.169996	0.291378
649.375724	0.291328
649.581434	0.291512
649.787126	0.291900
649.992800	0.291810
650.198455	0.291848
650.404092	0.292161
650.609711	0.292246
650.815311	0.292550
651.020894	0.292646
651.226458	0.293270
651.432004	0.293597
651.637532	0.294004
651.843041	0.294375
652.048532	0.294682
652.254006	0.294724
652.459460	0.295090
652.664897	0.295367
652.870315	0.295587
653.075716	0.295814
653.281097	0.295846
653.486461	0.295871
653.691807	0.296065
653.897134	0.296209
654.102443	0.296744
654.307734	0.296942
654.513006	0.297203
654.718261	0.297305
654.923497	0.297274
655.128715	0.297434
655.333915	0.297570
655.539096	0.297860
655.744259	0.298032
655.949404	0.297925
656.154531	0.298198
656.359640	0.298286
656.564730	0.298407
656.769802	0.298620
656.974856	0.298767
657.179892	0.299118
657.384909	0.298986
657.589908	0.299083
657.794889	0.298910
657.999852	0.298703
658.204797	0.298771
658.409723	0.299179
658.614631	0.299475
658.819521	0.299632
659.024393	0.299575
659.229246	0.299452
659.434081	0.299311
659.638898	0.299601
659.843697	0.299904
660.048478	0.300199
660.253240	0.300247
660.457984	0.300229
660.662710	0.300648
660.867417	0.300628
661.072107	0.301195
661.276778	0.301748
661.481431	0.301734
661.686066	0.301871
661.890682	0.301953
662.095281	0.301959
662.299861	0.302250
662.504422	0.302194
662.708966	0.302332
662.913491	0.302372
663.117999	0.302577
663.322488	0.303199
663.526958	0.303436
663.731411	0.303644
663.935845	0.304175
664.140261	0.304136
664.344659	0.304491
664.549038	0.304503
664.753400	0.304425
664.957743	0.304522
665.162068	0.304727
665.366375	0.304788
665.570663	0.304856
665.774933	0.304562
665.979185	0.304878
666.183419	0.305102
666.387635	0.305790
666.591832	0.306263
666.796011	0.306615
667.000172	0.306642
667.204315	0.307150
667.408439	0.307250
667.612545	0.307753
667.816634	0.308239
668.020703	0.308213
668.224755	0.308334
668.428788	0.308467
668.632803	0.308535
668.836800	0.308789
669.040779	0.308754
669.244739	0.309033
669.448681	0.309353
669.652605	0.309466
669.856511	0.309818
670.060399	0.310071
670.264268	0.310284
670.468119	0.310579
670.671952	0.310838
670.875767	0.311310
671.079563	0.311594
671.283341	0.312054
671.487101	0.312225
671.690843	0.312383
671.894567	0.312515
672.098272	0.312887
672.301959	0.313266
672.505628	0.313144
672.709278	0.313310
672.912911	0.313534
673.116525	0.313232
673.320121	0.313396
673.523699	0.313770
673.727258	0.314150
673.930799	0.314394
674.134322	0.314645
674.337827	0.315316
674.541314	0.315547
674.744782	0.315884
674.948232	0.316391
675.151664	0.316606
675.355078	0.316530
675.558474	0.316795
675.761851	0.316863
675.965210	0.316751
676.168551	0.316603
676.371873	0.316919
676.575178	0.317054
676.778464	0.316992
676.981732	0.317107
677.184981	0.317495
677.388213	0.317516
677.591426	0.317683
677.794621	0.317998
677.997798	0.318241
678.200956	0.317973
678.404097	0.318186
678.607219	0.318457
678.810323	0.318718
679.013408	0.318906
679.216476	0.318904
679.419525	0.319077
679.622556	0.319392
679.825569	0.319839
680.028563	0.320240
680.231540	0.320377
680.434498	0.320757
680.637438	0.321135
680.840359	0.321362
681.043263	0.321828
681.246148	0.321991
681.449015	0.322258
681.651864	0.322778
681.854694	0.323197
682.057506	0.323601
682.260301	0.323798
682.463076	0.323951
682.665834	0.323917
682.868573	0.324020
683.071295	0.324383
683.273998	0.324423
683.476682	0.324393
683.679349	0.324473
683.881997	0.324439
684.084627	0.324512
684.287239	0.324863
684.489833	0.325160
684.692408	0.325435
684.894965	0.325930
685.097504	0.326195
685.300025	0.326094
685.502527	0.326258
685.705012	0.326267
685.907478	0.326417
686.109925	0.326580
686.312355	0.326969
686.514766	0.327185
686.717159	0.327205
686.919534	0.327360
687.121891	0.327570
687.324230	0.327593
687.526550	0.327985
687.728852	0.328129
687.931136	0.327998
688.133401	0.328144
688.335649	0.328373
688.537878	0.328550
688.740089	0.328837
688.942281	0.328866
689.144456	0.329301
689.346612	0.329447
689.548750	0.329643
689.750870	0.329743
689.952971	0.329640
690.155055	0.329588
690.357120	0.329580
690.559167	0.329504
690.761195	0.330023
690.963206	0.330180
691.165198	0.330543
691.367172	0.330782
691.569128	0.331240
691.771065	0.331726
691.972984	0.331827
692.174885	0.332201
692.376768	0.332483
692.578633	0.332487
692.780479	0.332499
692.982308	0.332476
693.184118	0.332659
693.385909	0.332668
693.587683	0.333024
