sample name	sample
index	1149
start time	 04-22-2021  03:28:26 PM


Wavelength (nm)	Absorbance
494.344910	-1.342423
494.563924	-1.342423
494.782919	-1.342423
495.001897	-0.581543
495.220856	-0.803568
495.439797	-0.976234
495.658719	NaN
495.877624	-1.523421
496.096510	-1.227197
496.315378	-0.984224
496.534227	-0.695238
496.753059	-0.626549
496.971872	-0.443610
497.190667	0.149110
497.409444	0.177784
497.628203	0.186189
497.846943	0.194990
498.065665	0.190335
498.284369	0.190064
498.503055	0.190982
498.721723	0.190807
498.940372	0.190113
499.159003	0.191702
499.377616	0.191728
499.596210	0.191076
499.814787	0.189470
500.033345	0.192165
500.251885	0.191766
500.470406	0.190434
500.688910	0.191095
500.907395	0.190135
501.125862	0.188827
501.344311	0.188652
501.562742	0.188826
501.781154	0.189445
501.999548	0.188297
502.217924	0.189292
502.436282	0.189938
502.654621	0.189138
502.872942	0.189866
503.091245	0.190984
503.309530	0.190852
503.527797	0.189431
503.746045	0.189890
503.964275	0.189827
504.182487	0.189013
504.400681	0.189145
504.618856	0.190009
504.837013	0.190544
505.055152	0.189635
505.273273	0.191176
505.491376	0.192169
505.709460	0.191521
505.927526	0.192054
506.145574	0.194174
506.363604	0.193425
506.581615	0.193920
506.799608	0.194345
507.017583	0.195682
507.235540	0.194220
507.453478	0.193607
507.671399	0.193152
507.889301	0.192650
508.107185	0.192364
508.325050	0.193816
508.542898	0.193554
508.760727	0.193650
508.978538	0.193113
509.196330	0.193890
509.414105	0.195154
509.631861	0.196019
509.849599	0.196188
510.067319	0.195249
510.285021	0.195170
510.502704	0.195352
510.720369	0.195668
510.938016	0.195336
511.155645	0.195461
511.373255	0.194858
511.590848	0.195854
511.808422	0.196375
512.025977	0.196384
512.243515	0.196159
512.461034	0.196275
512.678536	0.196356
512.896018	0.196974
513.113483	0.197320
513.330930	0.198378
513.548358	0.197403
513.765768	0.197551
513.983160	0.198515
514.200533	0.199182
514.417889	0.200483
514.635226	0.201691
514.852545	0.201910
515.069845	0.202217
515.287128	0.202370
515.504392	0.203365
515.721638	0.204337
515.938866	0.203811
516.156075	0.203651
516.373267	0.203165
516.590440	0.202638
516.807594	0.203641
517.024731	0.203578
517.241850	0.204436
517.458950	0.204378
517.676032	0.204782
517.893095	0.205100
518.110141	0.205488
518.327168	0.205077
518.544177	0.205285
518.761168	0.204561
518.978141	0.204346
519.195095	0.203672
519.412031	0.203972
519.628949	0.204376
519.845849	0.205755
520.062731	0.206612
520.279594	0.207695
520.496439	0.208349
520.713266	0.209495
520.930074	0.210374
521.146865	0.210913
521.363637	0.210828
521.580391	0.210166
521.797127	0.210490
522.013844	0.211316
522.230543	0.211317
522.447224	0.211261
522.663887	0.210643
522.880532	0.211509
523.097158	0.211746
523.313766	0.212342
523.530356	0.213124
523.746928	0.213217
523.963481	0.211990
524.180017	0.212145
524.396534	0.212004
524.613032	0.212237
524.829513	0.211533
525.045975	0.211424
525.262420	0.211521
525.478845	0.212447
525.695253	0.212167
525.911643	0.213651
526.128014	0.214515
526.344367	0.214958
526.560702	0.215569
526.777018	0.216645
526.993316	0.217510
527.209597	0.218441
527.425858	0.217796
527.642102	0.218047
527.858328	0.217820
528.074535	0.217628
528.290724	0.218776
528.506894	0.219180
528.723047	0.218840
528.939181	0.219485
529.155297	0.219723
529.371395	0.220055
529.587475	0.220783
529.803536	0.221539
530.019579	0.221857
530.235604	0.221964
530.451611	0.222668
530.667600	0.223156
530.883570	0.223176
531.099522	0.223047
531.315456	0.223601
531.531372	0.223902
531.747269	0.223491
531.963148	0.223697
532.179009	0.223716
532.394852	0.223636
532.610676	0.224372
532.826482	0.224600
533.042271	0.224686
533.258040	0.224871
533.473792	0.224352
533.689525	0.224997
533.905240	0.225916
534.120937	0.225815
534.336616	0.226620
534.552277	0.226997
534.767919	0.227806
534.983543	0.229086
535.199149	0.229861
535.414736	0.230361
535.630306	0.230456
535.845857	0.230261
536.061390	0.231187
536.276904	0.231195
536.492401	0.231603
536.707879	0.231628
536.923339	0.231538
537.138781	0.231664
537.354204	0.232419
537.569610	0.233093
537.784997	0.233966
538.000366	0.233865
538.215716	0.234273
538.431049	0.234204
538.646363	0.234738
538.861659	0.234696
539.076937	0.234295
539.292196	0.234301
539.507438	0.234570
539.722661	0.234077
539.937866	0.234660
540.153052	0.234735
540.368221	0.234845
540.583371	0.235159
540.798503	0.235496
541.013617	0.236713
541.228712	0.236879
541.443789	0.236712
541.658848	0.237552
541.873889	0.237804
542.088912	0.238269
542.303916	0.239497
542.518902	0.239404
542.733870	0.239865
542.948820	0.239712
543.163752	0.240889
543.378665	0.241357
543.593560	0.241460
543.808437	0.241705
544.023295	0.241944
544.238136	0.241586
544.452958	0.242290
544.667762	0.242718
544.882548	0.243167
545.097315	0.242598
545.312064	0.243707
545.526795	0.244188
545.741508	0.244427
545.956203	0.245271
546.170879	0.245685
546.385537	0.246112
546.600177	0.246235
546.814799	0.246402
547.029402	0.246922
547.243988	0.246881
547.458555	0.246788
547.673103	0.247239
547.887634	0.246620
548.102146	0.246667
548.316640	0.246395
548.531116	0.247004
548.745574	0.247605
548.960013	0.248224
549.174435	0.248138
549.388838	0.248728
549.603222	0.248737
549.817589	0.249807
550.031937	0.250434
550.246267	0.250900
550.460579	0.251109
550.674873	0.251334
550.889148	0.251648
551.103405	0.251827
551.317644	0.251848
551.531865	0.252230
551.746068	0.251829
551.960252	0.251926
552.174418	0.252101
552.388566	0.252557
552.602696	0.252707
552.816807	0.252636
553.030900	0.252657
553.244975	0.252816
553.459032	0.252818
553.673070	0.253263
553.887091	0.254020
554.101093	0.254379
554.315077	0.254347
554.529042	0.254323
554.742990	0.254545
554.956919	0.255464
555.170830	0.255394
555.384722	0.255720
555.598597	0.256077
555.812453	0.255438
556.026291	0.255364
556.240111	0.255442
556.453913	0.255711
556.667696	0.255953
556.881461	0.255561
557.095208	0.256144
557.308937	0.256425
557.522647	0.256437
557.736339	0.257053
557.950013	0.257221
558.163669	0.257353
558.377307	0.257313
558.590926	0.257536
558.804527	0.258045
559.018110	0.258123
559.231675	0.258388
559.445221	0.258703
559.658749	0.258328
559.872259	0.258872
560.085751	0.259767
560.299225	0.260319
560.512680	0.260610
560.726117	0.260729
560.939536	0.260624
561.152937	0.260560
561.366319	0.260688
561.579683	0.261127
561.793029	0.260786
562.006357	0.260503
562.219667	0.260779
562.432958	0.260707
562.646231	0.260777
562.859486	0.261469
563.072723	0.261734
563.285941	0.261768
563.499141	0.262142
563.712323	0.262496
563.925487	0.262021
564.138632	0.261688
564.351760	0.261763
564.564869	0.262212
564.777960	0.262144
564.991032	0.262322
565.204087	0.262614
565.417123	0.263173
565.630141	0.263154
565.843140	0.263332
566.056122	0.263879
566.269085	0.264598
566.482030	0.264300
566.694957	0.264345
566.907866	0.264651
567.120756	0.264588
567.333628	0.264224
567.546482	0.264517
567.759318	0.265006
567.972135	0.264886
568.184935	0.264675
568.397716	0.264920
568.610478	0.265180
568.823223	0.265410
569.035949	0.265793
569.248657	0.266239
569.461347	0.266867
569.674019	0.267197
569.886672	0.267317
570.099308	0.267718
570.311925	0.267834
570.524523	0.268093
570.737104	0.268230
570.949666	0.268460
571.162210	0.268263
571.374736	0.268125
571.587244	0.267590
571.799733	0.267819
572.012205	0.268225
572.224658	0.268666
572.437092	0.269306
572.649509	0.268928
572.861907	0.269087
573.074287	0.269156
573.286649	0.269138
573.498993	0.270077
573.711318	0.270484
573.923625	0.270237
574.135914	0.270033
574.348185	0.269586
574.560438	0.270322
574.772672	0.270444
574.984888	0.270691
575.197086	0.270983
575.409266	0.270821
575.621427	0.270930
575.833570	0.270987
576.045695	0.271140
576.257802	0.271662
576.469890	0.271502
576.681961	0.271626
576.894013	0.271824
577.106046	0.272311
577.318062	0.272914
577.530059	0.272678
577.742039	0.272962
577.954000	0.273446
578.165942	0.273180
578.377867	0.273814
578.589773	0.273699
578.801661	0.273854
579.013531	0.273997
579.225382	0.273895
579.437216	0.274353
579.649031	0.274419
579.860828	0.274577
580.072606	0.275384
580.284367	0.275185
580.496109	0.275731
580.707833	0.276117
580.919539	0.275912
581.131227	0.276634
581.342896	0.277050
581.554547	0.277562
581.766180	0.278065
581.977795	0.277548
582.189391	0.277556
582.400969	0.277328
582.612529	0.277595
582.824071	0.277909
583.035595	0.277457
583.247100	0.277684
583.458587	0.277608
583.670056	0.277870
583.881506	0.278514
584.092939	0.278802
584.304353	0.279165
584.515749	0.279277
584.727127	0.279684
584.938486	0.279885
585.149828	0.279795
585.361151	0.279644
585.572456	0.279298
585.783742	0.279357
585.995011	0.279550
586.206261	0.279550
586.417493	0.279203
586.628706	0.279025
586.839902	0.279254
587.051079	0.279506
587.262238	0.280037
587.473379	0.280384
587.684502	0.280877
587.895606	0.281555
588.106692	0.282110
588.317760	0.282497
588.528810	0.282399
588.739841	0.282458
588.950855	0.282769
589.161850	0.282871
589.372827	0.283373
589.583785	0.283279
589.794726	0.282791
590.005648	0.282949
590.216552	0.283271
590.427437	0.284076
590.638305	0.284414
590.849154	0.284366
591.059985	0.284528
591.270798	0.284104
591.481592	0.284413
591.692369	0.284713
591.903127	0.284688
592.113867	0.284629
592.324588	0.284549
592.535292	0.284853
592.745977	0.285307
592.956644	0.285367
593.167293	0.285742
593.377923	0.285609
593.588536	0.285950
593.799130	0.286210
594.009706	0.286805
594.220263	0.286945
594.430803	0.287260
594.641324	0.287386
594.851827	0.287671
595.062312	0.287933
595.272778	0.288307
595.483227	0.288492
595.693657	0.288764
595.904069	0.288695
596.114462	0.288906
596.324838	0.288857
596.535195	0.288905
596.745534	0.289298
596.955855	0.289354
597.166157	0.289543
597.376441	0.290079
597.586707	0.290097
597.796955	0.290408
598.007185	0.290381
598.217396	0.290668
598.427589	0.291025
598.637764	0.291047
598.847921	0.291326
599.058060	0.291558
599.268180	0.291442
599.478282	0.291807
599.688366	0.291752
599.898431	0.291990
600.108479	0.292500
600.318508	0.292754
600.528519	0.293102
600.738511	0.293423
600.948486	0.293773
601.158442	0.293745
601.368380	0.293894
601.578300	0.294279
601.788202	0.294421
601.998085	0.294060
602.207950	0.294142
602.417797	0.293668
602.627626	0.294043
602.837436	0.293895
603.047228	0.293844
603.257002	0.293625
603.466758	0.293925
603.676496	0.294137
603.886215	0.294374
604.095916	0.294247
604.305599	0.294792
604.515264	0.294411
604.724910	0.294609
604.934538	0.295118
605.144148	0.295837
605.353740	0.296249
605.563314	0.296780
605.772869	0.296830
605.982406	0.297174
606.191925	0.297205
606.401425	0.297528
606.610908	0.297630
606.820372	0.297615
607.029818	0.297246
607.239246	0.296971
607.448655	0.296899
607.658047	0.297144
607.867420	0.297280
608.076775	0.297385
608.286111	0.297293
608.495430	0.297542
608.704730	0.297559
608.914012	0.298094
609.123275	0.298290
609.332521	0.298210
609.541748	0.298473
609.750957	0.298576
609.960148	0.299261
610.169321	0.299580
610.378475	0.299909
610.587611	0.300468
610.796729	0.300816
611.005829	0.301050
611.214910	0.301207
611.423974	0.301195
611.633019	0.301416
611.842045	0.301400
612.051054	0.301666
612.260044	0.301624
612.469017	0.301330
612.677970	0.301109
612.886906	0.300945
613.095824	0.301378
613.304723	0.301668
613.513604	0.301575
613.722467	0.301610
613.931311	0.301677
614.140138	0.301739
614.348946	0.302033
614.557736	0.302306
614.766507	0.302598
614.975261	0.302668
615.183996	0.302638
615.392713	0.302915
615.601412	0.302992
615.810092	0.303063
616.018754	0.303080
616.227399	0.303334
616.436024	0.303596
616.644632	0.303495
616.853222	0.303835
617.061793	0.304157
617.270346	0.304173
617.478880	0.304552
617.687397	0.304722
617.895895	0.304895
618.104375	0.305054
618.312837	0.305076
618.521281	0.305609
618.729706	0.305547
618.938113	0.305498
619.146502	0.305920
619.354873	0.305845
619.563226	0.306268
619.771560	0.306411
619.979876	0.306615
620.188174	0.306993
620.396453	0.307141
620.604715	0.307393
620.812958	0.307431
621.021183	0.307401
621.229390	0.307541
621.437578	0.307509
621.645748	0.307545
621.853900	0.307452
622.062034	0.307585
622.270150	0.307688
622.478247	0.307832
622.686326	0.308044
622.894387	0.308310
623.102430	0.308482
623.310454	0.308752
623.518461	0.309342
623.726449	0.309505
623.934418	0.309225
624.142370	0.309396
624.350303	0.309417
624.558218	0.309836
624.766115	0.310211
624.973994	0.310490
625.181855	0.310518
625.389697	0.310675
625.597521	0.311323
625.805327	0.311602
626.013114	0.311651
626.220883	0.311881
626.428634	0.311661
626.636367	0.311815
626.844082	0.311731
627.051778	0.311806
627.259457	0.311996
627.467117	0.311559
627.674758	0.311984
627.882382	0.311966
628.089987	0.312080
628.297574	0.312213
628.505143	0.312006
628.712694	0.312268
628.920226	0.312553
629.127740	0.312250
629.335236	0.312442
629.542714	0.312337
629.750174	0.312777
629.957615	0.313057
630.165038	0.313402
630.372443	0.313361
630.579829	0.313744
630.787198	0.313740
630.994548	0.313825
631.201880	0.314368
631.409194	0.314526
631.616489	0.314461
631.823766	0.314535
632.031025	0.314703
632.238266	0.315408
632.445489	0.315304
632.652693	0.315453
632.859879	0.315909
633.067047	0.315768
633.274197	0.315985
633.481329	0.316325
633.688442	0.316445
633.895537	0.316872
634.102614	0.316577
634.309672	0.316678
634.516713	0.316988
634.723735	0.317419
634.930739	0.317687
635.137724	0.318010
635.344692	0.317935
635.551641	0.318128
635.758572	0.318059
635.965485	0.318627
636.172379	0.319069
636.379256	0.319123
636.586114	0.319051
636.792954	0.319241
636.999775	0.319230
637.206579	0.319898
637.413364	0.320120
637.620131	0.320144
637.826880	0.320113
638.033610	0.320280
638.240323	0.320662
638.447017	0.321201
638.653692	0.321686
638.860350	0.321826
639.066990	0.321986
639.273611	0.322329
639.480214	0.322953
639.686798	0.323210
639.893365	0.323545
640.099913	0.323795
640.306443	0.323808
640.512955	0.323732
640.719449	0.323993
640.925924	0.324036
641.132381	0.324221
641.338820	0.324409
641.545241	0.324472
641.751644	0.324417
641.958028	0.324515
642.164394	0.324612
642.370742	0.324941
642.577071	0.325337
642.783383	0.325388
642.989676	0.325442
643.195951	0.325507
643.402207	0.325960
643.608446	0.326317
643.814666	0.326665
644.020868	0.326949
644.227052	0.326906
644.433218	0.326923
644.639365	0.327164
644.845494	0.327491
645.051605	0.327822
645.257698	0.328168
645.463772	0.328417
645.669828	0.328603
645.875866	0.328645
646.081886	0.329305
646.287888	0.329778
646.493871	0.330033
646.699836	0.329873
646.905783	0.329862
647.111712	0.329632
647.317622	0.329549
647.523514	0.329647
647.729388	0.330255
647.935244	0.330040
648.141082	0.330247
648.346901	0.330162
648.552702	0.330535
648.758485	0.330882
648.964250	0.330978
649.169996	0.331138
649.375724	0.331286
649.581434	0.331290
649.787126	0.331418
649.992800	0.331329
650.198455	0.331773
650.404092	0.331888
650.609711	0.331924
650.815311	0.332288
651.020894	0.332623
651.226458	0.332766
651.432004	0.333005
651.637532	0.333396
651.843041	0.333901
652.048532	0.334187
652.254006	0.334593
652.459460	0.334718
652.664897	0.335095
652.870315	0.335272
653.075716	0.335565
653.281097	0.335390
653.486461	0.335461
653.691807	0.335245
653.897134	0.335399
654.102443	0.335562
654.307734	0.336182
654.513006	0.336059
654.718261	0.336336
654.923497	0.336580
655.128715	0.336778
655.333915	0.337012
655.539096	0.337622
655.744259	0.337971
655.949404	0.338142
656.154531	0.337896
656.359640	0.338571
656.564730	0.339071
656.769802	0.339442
656.974856	0.340093
657.179892	0.340778
657.384909	0.340897
657.589908	0.340892
657.794889	0.341365
657.999852	0.341707
658.204797	0.341771
658.409723	0.341781
658.614631	0.341962
658.819521	0.342138
659.024393	0.341736
659.229246	0.341904
659.434081	0.342265
659.638898	0.342304
659.843697	0.342483
660.048478	0.342753
660.253240	0.342771
660.457984	0.342982
660.662710	0.342796
660.867417	0.343175
661.072107	0.343302
661.276778	0.343719
661.481431	0.343695
661.686066	0.343991
661.890682	0.344172
662.095281	0.344589
662.299861	0.344453
662.504422	0.345019
662.708966	0.345138
662.913491	0.345405
663.117999	0.345494
663.322488	0.346122
663.526958	0.346331
663.731411	0.346626
663.935845	0.346629
664.140261	0.347113
664.344659	0.347118
664.549038	0.347424
664.753400	0.347697
664.957743	0.347908
665.162068	0.348024
665.366375	0.348257
665.570663	0.348374
665.774933	0.348849
665.979185	0.348870
666.183419	0.349227
666.387635	0.349731
666.591832	0.349962
666.796011	0.350110
667.000172	0.350298
667.204315	0.350511
667.408439	0.350818
667.612545	0.351058
667.816634	0.351801
668.020703	0.352281
668.224755	0.352553
668.428788	0.352616
668.632803	0.352928
668.836800	0.353313
669.040779	0.353851
669.244739	0.354266
669.448681	0.354433
669.652605	0.354532
669.856511	0.354393
670.060399	0.354627
670.264268	0.355268
670.468119	0.355563
670.671952	0.355598
670.875767	0.355629
671.079563	0.355879
671.283341	0.356218
671.487101	0.356215
671.690843	0.356326
671.894567	0.356405
672.098272	0.356441
672.301959	0.356737
672.505628	0.356991
672.709278	0.357277
672.912911	0.357285
673.116525	0.357580
673.320121	0.358029
673.523699	0.358782
673.727258	0.359058
673.930799	0.359500
674.134322	0.359697
674.337827	0.360095
674.541314	0.360451
674.744782	0.360558
674.948232	0.360916
675.151664	0.361114
675.355078	0.361155
675.558474	0.361374
675.761851	0.361540
675.965210	0.361881
676.168551	0.362019
676.371873	0.362330
676.575178	0.362928
676.778464	0.362959
676.981732	0.363233
677.184981	0.363666
677.388213	0.363882
677.591426	0.364035
677.794621	0.364261
677.997798	0.364869
678.200956	0.364882
678.404097	0.365031
678.607219	0.365402
678.810323	0.365645
679.013408	0.365791
679.216476	0.365996
679.419525	0.366279
679.622556	0.366397
679.825569	0.366218
680.028563	0.366498
680.231540	0.366732
680.434498	0.367049
680.637438	0.367164
680.840359	0.367466
681.043263	0.367766
681.246148	0.368048
681.449015	0.368279
681.651864	0.368501
681.854694	0.368527
682.057506	0.368535
682.260301	0.368532
682.463076	0.368630
682.665834	0.368604
682.868573	0.369217
683.071295	0.369632
683.273998	0.369729
683.476682	0.370098
683.679349	0.370436
683.881997	0.370683
684.084627	0.370698
684.287239	0.371018
684.489833	0.371376
684.692408	0.371061
684.894965	0.370937
685.097504	0.371311
685.300025	0.371519
685.502527	0.371640
685.705012	0.371806
685.907478	0.371998
686.109925	0.372294
686.312355	0.372502
686.514766	0.372964
686.717159	0.372933
686.919534	0.372885
687.121891	0.373082
687.324230	0.373326
687.526550	0.373449
687.728852	0.373829
687.931136	0.374228
688.133401	0.374148
688.335649	0.374129
688.537878	0.374452
688.740089	0.374813
688.942281	0.374840
689.144456	0.375171
689.346612	0.375750
689.548750	0.375982
689.750870	0.376146
689.952971	0.376696
690.155055	0.377016
690.357120	0.377456
690.559167	0.377710
690.761195	0.378162
690.963206	0.378368
691.165198	0.378652
691.367172	0.378666
691.569128	0.378463
691.771065	0.378618
691.972984	0.378783
692.174885	0.378922
692.376768	0.379093
692.578633	0.379042
692.780479	0.379334
692.982308	0.379184
693.184118	0.379643
693.385909	0.380191
