sample name	sample
index	1396
start time	 05-10-2021  10:53:19 AM


Wavelength (nm)	Absorbance
494.344910	0.138175
494.563924	0.138175
494.782919	0.138175
495.001897	-0.017166
495.220856	0.031949
495.439797	0.025700
495.658719	0.013241
495.877624	-0.009188
496.096510	0.001130
496.315378	0.032006
496.534227	0.025561
496.753059	0.022315
496.971872	0.022748
497.190667	0.106187
497.409444	0.128265
497.628203	0.129799
497.846943	0.134441
498.065665	0.136780
498.284369	0.136212
498.503055	0.137202
498.721723	0.136825
498.940372	0.137883
499.159003	0.137356
499.377616	0.135878
499.596210	0.137359
499.814787	0.138448
500.033345	0.137970
500.251885	0.137974
500.470406	0.139035
500.688910	0.139653
500.907395	0.139201
501.125862	0.140898
501.344311	0.142548
501.562742	0.143468
501.781154	0.143278
501.999548	0.143055
502.217924	0.143698
502.436282	0.142120
502.654621	0.141957
502.872942	0.141687
503.091245	0.140483
503.309530	0.139115
503.527797	0.138135
503.746045	0.138551
503.964275	0.139126
504.182487	0.138821
504.400681	0.140149
504.618856	0.140555
504.837013	0.140969
505.055152	0.141239
505.273273	0.142729
505.491376	0.143667
505.709460	0.143219
505.927526	0.142188
506.145574	0.143124
506.363604	0.142950
506.581615	0.142962
506.799608	0.142917
507.017583	0.142996
507.235540	0.142195
507.453478	0.141138
507.671399	0.141531
507.889301	0.143055
508.107185	0.142580
508.325050	0.142866
508.542898	0.143991
508.760727	0.144200
508.978538	0.143855
509.196330	0.144754
509.414105	0.145059
509.631861	0.144503
509.849599	0.143763
510.067319	0.143939
510.285021	0.144212
510.502704	0.144325
510.720369	0.145504
510.938016	0.146080
511.155645	0.145933
511.373255	0.146465
511.590848	0.147095
511.808422	0.148134
512.025977	0.148082
512.243515	0.147121
512.461034	0.146308
512.678536	0.145362
512.896018	0.144955
513.113483	0.144695
513.330930	0.143979
513.548358	0.144118
513.765768	0.144004
513.983160	0.144110
514.200533	0.145144
514.417889	0.145784
514.635226	0.146581
514.852545	0.146891
515.069845	0.147178
515.287128	0.147783
515.504392	0.147329
515.721638	0.147100
515.938866	0.147838
516.156075	0.148039
516.373267	0.148853
516.590440	0.148576
516.807594	0.149505
517.024731	0.150060
517.241850	0.150724
517.458950	0.150640
517.676032	0.150358
517.893095	0.149890
518.110141	0.150288
518.327168	0.149640
518.544177	0.149738
518.761168	0.149261
518.978141	0.148801
519.195095	0.149025
519.412031	0.149279
519.628949	0.150585
519.845849	0.152194
520.062731	0.152346
520.279594	0.152757
520.496439	0.153640
520.713266	0.153470
520.930074	0.153383
521.146865	0.153206
521.363637	0.153440
521.580391	0.153057
521.797127	0.151912
522.013844	0.151988
522.230543	0.152003
522.447224	0.152257
522.663887	0.153398
522.880532	0.153579
523.097158	0.154289
523.313766	0.154630
523.530356	0.155184
523.746928	0.155943
523.963481	0.156623
524.180017	0.156918
524.396534	0.156223
524.613032	0.156618
524.829513	0.157171
525.045975	0.156752
525.262420	0.157311
525.478845	0.157855
525.695253	0.157711
525.911643	0.157472
526.128014	0.157799
526.344367	0.159063
526.560702	0.159231
526.777018	0.159387
526.993316	0.160291
527.209597	0.159901
527.425858	0.160101
527.642102	0.160636
527.858328	0.160884
528.074535	0.161266
528.290724	0.161313
528.506894	0.161174
528.723047	0.161865
528.939181	0.161821
529.155297	0.162571
529.371395	0.162780
529.587475	0.163722
529.803536	0.164321
530.019579	0.164393
530.235604	0.165037
530.451611	0.165899
530.667600	0.166308
530.883570	0.166829
531.099522	0.167455
531.315456	0.168162
531.531372	0.167889
531.747269	0.168171
531.963148	0.168683
532.179009	0.168971
532.394852	0.168584
532.610676	0.169028
532.826482	0.168746
533.042271	0.168785
533.258040	0.168574
533.473792	0.168568
533.689525	0.168565
533.905240	0.168371
534.120937	0.168230
534.336616	0.168459
534.552277	0.168552
534.767919	0.169223
534.983543	0.169376
535.199149	0.169363
535.414736	0.169392
535.630306	0.169304
535.845857	0.169960
536.061390	0.169864
536.276904	0.170256
536.492401	0.170167
536.707879	0.169870
536.923339	0.170075
537.138781	0.170478
537.354204	0.170693
537.569610	0.171157
537.784997	0.171417
538.000366	0.171962
538.215716	0.172185
538.431049	0.172387
538.646363	0.172469
538.861659	0.172490
539.076937	0.172606
539.292196	0.173119
539.507438	0.173621
539.722661	0.173277
539.937866	0.173143
540.153052	0.173583
540.368221	0.174367
540.583371	0.175552
540.798503	0.175917
541.013617	0.176260
541.228712	0.176908
541.443789	0.177036
541.658848	0.177711
541.873889	0.177984
542.088912	0.178165
542.303916	0.178244
542.518902	0.178006
542.733870	0.178549
542.948820	0.178932
543.163752	0.178506
543.378665	0.178446
543.593560	0.179039
543.808437	0.179241
544.023295	0.179478
544.238136	0.179374
544.452958	0.179439
544.667762	0.179698
544.882548	0.179643
545.097315	0.179914
545.312064	0.180505
545.526795	0.180279
545.741508	0.180693
545.956203	0.180690
546.170879	0.180888
546.385537	0.181515
546.600177	0.181835
546.814799	0.182265
547.029402	0.182988
547.243988	0.182546
547.458555	0.182960
547.673103	0.183366
547.887634	0.183041
548.102146	0.183015
548.316640	0.183075
548.531116	0.182765
548.745574	0.182457
548.960013	0.182550
549.174435	0.183152
549.388838	0.183645
549.603222	0.183624
549.817589	0.184537
550.031937	0.185287
550.246267	0.185546
550.460579	0.185931
550.674873	0.186778
550.889148	0.186608
551.103405	0.187115
551.317644	0.187153
551.531865	0.187428
551.746068	0.187323
551.960252	0.187522
552.174418	0.187449
552.388566	0.187706
552.602696	0.187213
552.816807	0.187301
553.030900	0.187115
553.244975	0.186962
553.459032	0.187086
553.673070	0.187463
553.887091	0.187554
554.101093	0.187804
554.315077	0.188307
554.529042	0.188884
554.742990	0.189871
554.956919	0.189983
555.170830	0.189698
555.384722	0.189818
555.598597	0.190308
555.812453	0.190125
556.026291	0.190417
556.240111	0.189682
556.453913	0.190185
556.667696	0.189752
556.881461	0.190099
557.095208	0.190695
557.308937	0.190792
557.522647	0.190842
557.736339	0.191076
557.950013	0.191466
558.163669	0.192078
558.377307	0.191844
558.590926	0.192237
558.804527	0.192367
559.018110	0.192599
559.231675	0.192707
559.445221	0.192718
559.658749	0.192957
559.872259	0.192619
560.085751	0.192649
560.299225	0.192892
560.512680	0.193236
560.726117	0.193283
560.939536	0.193240
561.152937	0.193508
561.366319	0.193080
561.579683	0.193378
561.793029	0.193321
562.006357	0.193437
562.219667	0.193360
562.432958	0.193210
562.646231	0.193306
562.859486	0.193526
563.072723	0.193784
563.285941	0.194163
563.499141	0.194557
563.712323	0.194971
563.925487	0.195923
564.138632	0.196206
564.351760	0.196559
564.564869	0.197012
564.777960	0.196944
564.991032	0.196641
565.204087	0.197137
565.417123	0.197124
565.630141	0.197574
565.843140	0.197150
566.056122	0.197684
566.269085	0.197966
566.482030	0.198208
566.694957	0.198543
566.907866	0.199280
567.120756	0.199626
567.333628	0.199202
567.546482	0.199315
567.759318	0.199457
567.972135	0.199211
568.184935	0.199039
568.397716	0.198689
568.610478	0.199004
568.823223	0.199102
569.035949	0.199030
569.248657	0.200058
569.461347	0.200415
569.674019	0.200471
569.886672	0.200477
570.099308	0.200796
570.311925	0.201764
570.524523	0.201828
570.737104	0.202006
570.949666	0.202235
571.162210	0.201733
571.374736	0.201955
571.587244	0.202214
571.799733	0.202847
572.012205	0.203097
572.224658	0.202784
572.437092	0.203282
572.649509	0.203305
572.861907	0.203525
573.074287	0.203814
573.286649	0.203719
573.498993	0.203836
573.711318	0.203685
573.923625	0.203527
574.135914	0.203721
574.348185	0.203506
574.560438	0.203723
574.772672	0.203692
574.984888	0.204225
575.197086	0.204344
575.409266	0.204430
575.621427	0.204725
575.833570	0.204904
576.045695	0.204980
576.257802	0.205411
576.469890	0.205621
576.681961	0.205812
576.894013	0.205667
577.106046	0.205578
577.318062	0.205856
577.530059	0.205612
577.742039	0.206023
577.954000	0.206237
578.165942	0.206385
578.377867	0.206303
578.589773	0.205934
578.801661	0.205802
579.013531	0.205802
579.225382	0.205600
579.437216	0.206123
579.649031	0.205813
579.860828	0.206000
580.072606	0.206275
580.284367	0.206486
580.496109	0.206884
580.707833	0.207235
580.919539	0.207470
581.131227	0.207948
581.342896	0.207941
581.554547	0.208849
581.766180	0.208825
581.977795	0.208903
582.189391	0.208931
582.400969	0.209298
582.612529	0.209393
582.824071	0.209722
583.035595	0.209813
583.247100	0.209945
583.458587	0.209598
583.670056	0.210210
583.881506	0.209776
584.092939	0.210009
584.304353	0.210747
584.515749	0.211120
584.727127	0.211294
584.938486	0.211832
585.149828	0.212288
585.361151	0.212761
585.572456	0.212290
585.783742	0.213078
585.995011	0.213156
586.206261	0.213063
586.417493	0.212873
586.628706	0.213413
586.839902	0.213291
587.051079	0.213165
587.262238	0.212985
587.473379	0.213337
587.684502	0.213215
587.895606	0.213675
588.106692	0.213318
588.317760	0.213840
588.528810	0.213750
588.739841	0.213850
588.950855	0.214161
589.161850	0.214222
589.372827	0.214494
589.583785	0.214819
589.794726	0.215220
590.005648	0.215474
590.216552	0.215997
590.427437	0.215756
590.638305	0.216272
590.849154	0.216369
591.059985	0.216732
591.270798	0.216689
591.481592	0.216965
591.692369	0.216667
591.903127	0.217222
592.113867	0.216925
592.324588	0.217292
592.535292	0.217261
592.745977	0.217252
592.956644	0.217426
593.167293	0.217378
593.377923	0.217725
593.588536	0.218263
593.799130	0.218677
594.009706	0.219092
594.220263	0.219430
594.430803	0.219684
594.641324	0.219787
594.851827	0.219955
595.062312	0.220601
595.272778	0.220560
595.483227	0.220484
595.693657	0.220206
595.904069	0.220287
596.114462	0.220566
596.324838	0.220396
596.535195	0.220556
596.745534	0.220621
596.955855	0.220773
597.166157	0.220748
597.376441	0.220449
597.586707	0.220635
597.796955	0.220597
598.007185	0.220448
598.217396	0.220890
598.427589	0.221401
598.637764	0.221349
598.847921	0.221151
599.058060	0.221101
599.268180	0.221746
599.478282	0.221628
599.688366	0.221786
599.898431	0.221781
600.108479	0.221376
600.318508	0.221623
600.528519	0.221568
600.738511	0.222054
600.948486	0.222246
601.158442	0.222286
601.368380	0.222802
601.578300	0.222732
601.788202	0.223141
601.998085	0.223840
602.207950	0.223803
602.417797	0.224504
602.627626	0.224528
602.837436	0.224999
603.047228	0.225304
603.257002	0.225459
603.466758	0.226025
603.676496	0.226172
603.886215	0.226440
604.095916	0.226475
604.305599	0.226290
604.515264	0.226356
604.724910	0.226126
604.934538	0.226072
605.144148	0.226044
605.353740	0.226261
605.563314	0.226700
605.772869	0.226757
605.982406	0.226905
606.191925	0.227360
606.401425	0.227310
606.610908	0.227787
606.820372	0.228217
607.029818	0.228354
607.239246	0.228187
607.448655	0.228009
607.658047	0.228028
607.867420	0.228127
608.076775	0.228192
608.286111	0.228562
608.495430	0.228626
608.704730	0.228768
608.914012	0.228939
609.123275	0.229355
609.332521	0.229118
609.541748	0.229089
609.750957	0.229204
609.960148	0.229229
610.169321	0.229333
610.378475	0.229037
610.587611	0.228765
610.796729	0.228787
611.005829	0.228695
611.214910	0.229332
611.423974	0.229563
611.633019	0.229434
611.842045	0.229865
612.051054	0.229997
612.260044	0.230598
612.469017	0.230835
612.677970	0.230842
612.886906	0.230968
613.095824	0.230536
613.304723	0.230610
613.513604	0.230778
613.722467	0.230836
613.931311	0.230712
614.140138	0.230636
614.348946	0.230784
614.557736	0.231020
614.766507	0.231139
614.975261	0.231483
615.183996	0.231562
615.392713	0.231730
615.601412	0.231403
615.810092	0.231827
616.018754	0.231851
616.227399	0.231747
616.436024	0.231903
616.644632	0.231582
616.853222	0.231957
617.061793	0.231821
617.270346	0.232055
617.478880	0.232130
617.687397	0.231905
617.895895	0.232156
618.104375	0.232379
618.312837	0.232563
618.521281	0.232949
618.729706	0.232690
618.938113	0.233144
619.146502	0.233278
619.354873	0.233854
619.563226	0.234372
619.771560	0.234303
619.979876	0.234515
620.188174	0.234706
620.396453	0.235048
620.604715	0.235530
620.812958	0.235604
621.021183	0.236026
621.229390	0.235711
621.437578	0.235721
621.645748	0.236122
621.853900	0.236178
622.062034	0.235985
622.270150	0.235933
622.478247	0.235914
622.686326	0.235889
622.894387	0.235829
623.102430	0.236264
623.310454	0.236282
623.518461	0.236271
623.726449	0.236469
623.934418	0.236679
624.142370	0.236484
624.350303	0.236443
624.558218	0.236298
624.766115	0.236271
624.973994	0.236300
625.181855	0.236480
625.389697	0.236541
625.597521	0.236596
625.805327	0.236853
626.013114	0.237083
626.220883	0.237314
626.428634	0.237830
626.636367	0.238418
626.844082	0.238618
627.051778	0.239091
627.259457	0.239154
627.467117	0.239532
627.674758	0.239546
627.882382	0.239725
628.089987	0.240235
628.297574	0.240519
628.505143	0.240310
628.712694	0.240459
628.920226	0.240329
629.127740	0.240574
629.335236	0.240742
629.542714	0.240961
629.750174	0.241458
629.957615	0.241487
630.165038	0.241559
630.372443	0.241624
630.579829	0.241904
630.787198	0.241986
630.994548	0.242151
631.201880	0.242179
631.409194	0.242350
631.616489	0.242294
631.823766	0.242374
632.031025	0.242636
632.238266	0.242844
632.445489	0.242767
632.652693	0.243066
632.859879	0.243410
633.067047	0.243677
633.274197	0.243751
633.481329	0.244045
633.688442	0.244107
633.895537	0.244082
634.102614	0.244309
634.309672	0.244495
634.516713	0.244443
634.723735	0.244413
634.930739	0.244518
635.137724	0.244810
635.344692	0.244902
635.551641	0.244841
635.758572	0.244812
635.965485	0.244866
636.172379	0.245019
636.379256	0.245170
636.586114	0.245234
636.792954	0.245185
636.999775	0.245372
637.206579	0.245458
637.413364	0.245785
637.620131	0.246042
637.826880	0.246225
638.033610	0.246428
638.240323	0.246658
638.447017	0.246767
638.653692	0.246880
638.860350	0.246964
639.066990	0.247177
639.273611	0.247476
639.480214	0.247732
639.686798	0.248017
639.893365	0.248259
640.099913	0.248405
640.306443	0.248656
640.512955	0.248810
640.719449	0.248677
640.925924	0.248623
641.132381	0.248687
641.338820	0.248688
641.545241	0.248660
641.751644	0.248702
641.958028	0.248898
642.164394	0.249038
642.370742	0.249159
642.577071	0.249572
642.783383	0.250059
642.989676	0.250056
643.195951	0.250149
643.402207	0.250256
643.608446	0.250266
643.814666	0.250368
644.020868	0.250387
644.227052	0.250590
644.433218	0.250707
644.639365	0.250489
644.845494	0.250608
645.051605	0.250687
645.257698	0.250807
645.463772	0.251215
645.669828	0.251321
645.875866	0.251450
646.081886	0.251425
646.287888	0.251414
646.493871	0.251832
646.699836	0.252068
646.905783	0.252387
647.111712	0.252698
647.317622	0.252679
647.523514	0.252817
647.729388	0.253187
647.935244	0.253369
648.141082	0.253692
648.346901	0.253766
648.552702	0.253960
648.758485	0.254378
648.964250	0.254570
649.169996	0.254693
649.375724	0.254904
649.581434	0.255066
649.787126	0.255105
649.992800	0.255162
650.198455	0.255136
650.404092	0.255313
650.609711	0.255452
650.815311	0.255532
651.020894	0.255621
651.226458	0.255808
651.432004	0.255939
651.637532	0.256422
651.843041	0.256712
652.048532	0.256943
652.254006	0.257030
652.459460	0.257276
652.664897	0.257483
652.870315	0.257733
653.075716	0.257777
653.281097	0.257839
653.486461	0.258068
653.691807	0.258121
653.897134	0.258468
654.102443	0.258555
654.307734	0.258338
654.513006	0.258270
654.718261	0.258297
654.923497	0.258305
655.128715	0.258511
655.333915	0.258526
655.539096	0.258704
655.744259	0.258838
655.949404	0.259182
656.154531	0.259500
656.359640	0.259947
656.564730	0.260296
656.769802	0.260779
656.974856	0.261061
657.179892	0.261012
657.384909	0.261346
657.589908	0.261448
657.794889	0.261463
657.999852	0.261470
658.204797	0.261517
658.409723	0.261558
658.614631	0.261671
658.819521	0.261555
659.024393	0.262028
659.229246	0.262181
659.434081	0.262236
659.638898	0.262621
659.843697	0.262785
660.048478	0.262812
660.253240	0.263160
660.457984	0.263371
660.662710	0.263760
660.867417	0.263877
661.072107	0.264016
661.276778	0.264468
661.481431	0.264689
661.686066	0.264918
661.890682	0.265175
662.095281	0.265250
662.299861	0.265475
662.504422	0.265783
662.708966	0.266234
662.913491	0.266218
663.117999	0.266435
663.322488	0.266353
663.526958	0.266801
663.731411	0.267157
663.935845	0.267354
664.140261	0.267349
664.344659	0.267454
664.549038	0.267518
664.753400	0.267639
664.957743	0.267705
665.162068	0.268156
665.366375	0.268026
665.570663	0.268132
665.774933	0.268144
665.979185	0.268236
666.183419	0.268267
666.387635	0.268392
666.591832	0.268943
666.796011	0.269001
667.000172	0.269139
667.204315	0.269352
667.408439	0.269657
667.612545	0.270023
667.816634	0.270613
668.020703	0.270817
668.224755	0.270886
668.428788	0.270934
668.632803	0.271420
668.836800	0.271595
669.040779	0.272086
669.244739	0.272098
669.448681	0.272288
669.652605	0.272289
669.856511	0.272536
670.060399	0.272827
670.264268	0.273160
670.468119	0.273133
670.671952	0.273210
670.875767	0.273162
671.079563	0.273526
671.283341	0.273810
671.487101	0.274110
671.690843	0.274174
671.894567	0.274349
672.098272	0.274446
672.301959	0.274671
672.505628	0.274769
672.709278	0.275226
672.912911	0.275324
673.116525	0.275652
673.320121	0.275804
673.523699	0.276172
673.727258	0.276348
673.930799	0.276463
674.134322	0.276519
674.337827	0.277116
674.541314	0.277309
674.744782	0.277476
674.948232	0.277294
675.151664	0.277234
675.355078	0.277402
675.558474	0.277628
675.761851	0.277941
675.965210	0.278423
676.168551	0.278273
676.371873	0.278224
676.575178	0.278292
676.778464	0.278775
676.981732	0.278797
677.184981	0.279039
677.388213	0.279360
677.591426	0.279443
677.794621	0.279724
677.997798	0.279975
678.200956	0.280226
678.404097	0.280539
678.607219	0.280621
678.810323	0.281100
679.013408	0.281237
679.216476	0.281162
679.419525	0.281179
679.622556	0.281128
679.825569	0.281108
680.028563	0.281231
680.231540	0.281232
680.434498	0.281393
680.637438	0.281537
680.840359	0.281718
681.043263	0.281943
681.246148	0.282197
681.449015	0.282155
681.651864	0.282363
681.854694	0.282462
682.057506	0.282737
682.260301	0.282971
682.463076	0.283315
682.665834	0.283550
682.868573	0.283896
683.071295	0.284097
683.273998	0.284326
683.476682	0.284725
683.679349	0.285192
683.881997	0.285597
684.084627	0.285664
684.287239	0.285734
684.489833	0.285918
684.692408	0.285729
684.894965	0.286141
685.097504	0.286579
685.300025	0.286679
685.502527	0.286860
685.705012	0.286676
685.907478	0.287007
686.109925	0.287085
686.312355	0.287425
686.514766	0.287924
686.717159	0.287794
686.919534	0.287706
687.121891	0.287983
687.324230	0.287773
687.526550	0.288074
687.728852	0.287991
687.931136	0.288108
688.133401	0.287864
688.335649	0.287751
688.537878	0.287764
688.740089	0.287929
688.942281	0.287959
689.144456	0.288335
689.346612	0.288245
689.548750	0.288485
689.750870	0.288879
689.952971	0.288972
690.155055	0.289269
690.357120	0.289668
690.559167	0.289877
690.761195	0.289968
690.963206	0.290123
691.165198	0.290601
691.367172	0.290628
691.569128	0.290515
691.771065	0.290848
691.972984	0.290994
692.174885	0.291056
692.376768	0.291282
692.578633	0.291300
692.780479	0.291341
692.982308	0.291331
693.184118	0.291693
693.385909	0.291819
