sample name	sample
index	1025
start time	 04-19-2021  12:23:03 PM


Wavelength (nm)	Absorbance
494.344910	0.087110
494.563924	0.087110
494.782919	0.087110
495.001897	-0.001695
495.220856	0.041071
495.439797	0.026645
495.658719	0.015855
495.877624	0.002626
496.096510	0.012254
496.315378	0.015403
496.534227	0.006584
496.753059	0.013647
496.971872	0.009068
497.190667	0.073768
497.409444	0.095946
497.628203	0.101360
497.846943	0.105956
498.065665	0.105593
498.284369	0.106977
498.503055	0.108462
498.721723	0.107991
498.940372	0.109419
499.159003	0.109175
499.377616	0.109375
499.596210	0.109308
499.814787	0.109603
500.033345	0.109836
500.251885	0.110009
500.470406	0.109990
500.688910	0.110474
500.907395	0.108950
501.125862	0.107309
501.344311	0.106086
501.562742	0.106216
501.781154	0.105926
501.999548	0.106186
502.217924	0.105561
502.436282	0.105636
502.654621	0.105629
502.872942	0.104937
503.091245	0.105819
503.309530	0.107043
503.527797	0.106170
503.746045	0.105496
503.964275	0.105539
504.182487	0.104776
504.400681	0.104848
504.618856	0.104828
504.837013	0.105667
505.055152	0.105084
505.273273	0.103865
505.491376	0.104287
505.709460	0.103931
505.927526	0.102865
506.145574	0.104351
506.363604	0.104475
506.581615	0.105175
506.799608	0.105301
507.017583	0.105739
507.235540	0.105640
507.453478	0.105827
507.671399	0.106682
507.889301	0.107086
508.107185	0.106451
508.325050	0.105735
508.542898	0.105447
508.760727	0.104886
508.978538	0.105578
509.196330	0.106570
509.414105	0.106925
509.631861	0.107000
509.849599	0.107921
510.067319	0.107241
510.285021	0.108359
510.502704	0.108388
510.720369	0.109710
510.938016	0.108961
511.155645	0.108734
511.373255	0.108767
511.590848	0.107958
511.808422	0.107269
512.025977	0.108389
512.243515	0.107595
512.461034	0.107927
512.678536	0.107210
512.896018	0.107532
513.113483	0.107825
513.330930	0.108543
513.548358	0.109387
513.765768	0.110327
513.983160	0.110500
514.200533	0.111157
514.417889	0.110886
514.635226	0.111361
514.852545	0.111204
515.069845	0.111993
515.287128	0.111431
515.504392	0.111620
515.721638	0.111587
515.938866	0.111042
516.156075	0.110992
516.373267	0.111619
516.590440	0.111430
516.807594	0.111929
517.024731	0.111945
517.241850	0.111885
517.458950	0.111446
517.676032	0.111809
517.893095	0.112244
518.110141	0.111884
518.327168	0.111478
518.544177	0.112225
518.761168	0.112520
518.978141	0.112363
519.195095	0.112525
519.412031	0.112615
519.628949	0.111954
519.845849	0.112313
520.062731	0.112267
520.279594	0.111478
520.496439	0.111289
520.713266	0.110667
520.930074	0.110208
521.146865	0.110348
521.363637	0.110137
521.580391	0.110549
521.797127	0.110312
522.013844	0.111218
522.230543	0.111749
522.447224	0.111677
522.663887	0.111985
522.880532	0.112554
523.097158	0.112411
523.313766	0.113770
523.530356	0.113848
523.746928	0.113792
523.963481	0.114125
524.180017	0.115262
524.396534	0.114918
524.613032	0.116034
524.829513	0.116290
525.045975	0.117131
525.262420	0.116411
525.478845	0.116965
525.695253	0.117613
525.911643	0.117195
526.128014	0.117004
526.344367	0.118134
526.560702	0.118067
526.777018	0.118208
526.993316	0.118428
527.209597	0.119327
527.425858	0.118822
527.642102	0.118474
527.858328	0.118899
528.074535	0.118917
528.290724	0.118553
528.506894	0.118627
528.723047	0.119318
528.939181	0.119035
529.155297	0.118835
529.371395	0.118853
529.587475	0.119163
529.803536	0.119110
530.019579	0.119505
530.235604	0.119758
530.451611	0.120109
530.667600	0.119394
530.883570	0.119659
531.099522	0.119682
531.315456	0.120414
531.531372	0.120313
531.747269	0.120486
531.963148	0.120665
532.179009	0.120485
532.394852	0.120145
532.610676	0.120407
532.826482	0.120459
533.042271	0.120348
533.258040	0.120971
533.473792	0.121780
533.689525	0.122772
533.905240	0.122576
534.120937	0.123428
534.336616	0.123506
534.552277	0.123516
534.767919	0.124077
534.983543	0.124371
535.199149	0.123762
535.414736	0.123448
535.630306	0.123447
535.845857	0.123597
536.061390	0.123104
536.276904	0.123407
536.492401	0.123686
536.707879	0.123454
536.923339	0.123715
537.138781	0.124127
537.354204	0.124132
537.569610	0.123543
537.784997	0.124189
538.000366	0.124295
538.215716	0.124556
538.431049	0.124625
538.646363	0.124652
538.861659	0.124359
539.076937	0.124093
539.292196	0.123929
539.507438	0.123784
539.722661	0.123234
539.937866	0.124046
540.153052	0.124515
540.368221	0.124740
540.583371	0.125130
540.798503	0.125988
541.013617	0.125881
541.228712	0.126178
541.443789	0.126222
541.658848	0.126624
541.873889	0.126632
542.088912	0.125726
542.303916	0.125580
542.518902	0.125684
542.733870	0.125361
542.948820	0.126049
543.163752	0.126093
543.378665	0.126827
543.593560	0.126799
543.808437	0.126851
544.023295	0.127708
544.238136	0.127905
544.452958	0.127846
544.667762	0.128760
544.882548	0.128718
545.097315	0.129191
545.312064	0.129574
545.526795	0.130217
545.741508	0.129974
545.956203	0.129931
546.170879	0.130080
546.385537	0.129839
546.600177	0.129504
546.814799	0.129489
547.029402	0.129374
547.243988	0.128921
547.458555	0.128964
547.673103	0.129197
547.887634	0.129562
548.102146	0.129471
548.316640	0.130234
548.531116	0.130435
548.745574	0.130762
548.960013	0.131091
549.174435	0.131280
549.388838	0.131112
549.603222	0.131217
549.817589	0.131010
550.031937	0.131120
550.246267	0.130921
550.460579	0.130564
550.674873	0.130594
550.889148	0.130738
551.103405	0.130857
551.317644	0.130960
551.531865	0.131193
551.746068	0.131274
551.960252	0.131517
552.174418	0.131403
552.388566	0.132093
552.602696	0.132240
552.816807	0.132213
553.030900	0.132070
553.244975	0.132083
553.459032	0.131737
553.673070	0.131779
553.887091	0.131821
554.101093	0.132004
554.315077	0.131483
554.529042	0.131047
554.742990	0.131394
554.956919	0.131733
555.170830	0.131480
555.384722	0.131709
555.598597	0.131722
555.812453	0.131803
556.026291	0.131811
556.240111	0.132040
556.453913	0.132560
556.667696	0.132390
556.881461	0.132364
557.095208	0.132511
557.308937	0.132611
557.522647	0.132720
557.736339	0.133082
557.950013	0.133287
558.163669	0.133411
558.377307	0.133180
558.590926	0.133046
558.804527	0.132896
559.018110	0.132779
559.231675	0.132622
559.445221	0.132537
559.658749	0.132541
559.872259	0.132560
560.085751	0.132462
560.299225	0.132464
560.512680	0.132829
560.726117	0.132969
560.939536	0.133272
561.152937	0.133359
561.366319	0.133414
561.579683	0.133273
561.793029	0.133371
562.006357	0.133469
562.219667	0.133381
562.432958	0.133294
562.646231	0.132946
562.859486	0.132693
563.072723	0.132694
563.285941	0.133013
563.499141	0.132515
563.712323	0.132353
563.925487	0.132134
564.138632	0.132186
564.351760	0.131980
564.564869	0.132315
564.777960	0.132803
564.991032	0.132896
565.204087	0.132661
565.417123	0.132876
565.630141	0.132571
565.843140	0.132973
566.056122	0.133299
566.269085	0.133131
566.482030	0.133207
566.694957	0.132960
566.907866	0.133277
567.120756	0.133296
567.333628	0.133864
567.546482	0.134158
567.759318	0.133550
567.972135	0.133467
568.184935	0.133808
568.397716	0.133740
568.610478	0.133673
568.823223	0.133379
569.035949	0.133452
569.248657	0.133328
569.461347	0.133333
569.674019	0.133662
569.886672	0.134057
570.099308	0.133816
570.311925	0.134027
570.524523	0.134454
570.737104	0.134708
570.949666	0.134722
571.162210	0.134486
571.374736	0.134451
571.587244	0.134376
571.799733	0.134131
572.012205	0.134461
572.224658	0.134640
572.437092	0.134440
572.649509	0.134402
572.861907	0.134295
573.074287	0.134581
573.286649	0.134618
573.498993	0.134559
573.711318	0.134803
573.923625	0.135097
574.135914	0.134890
574.348185	0.135148
574.560438	0.135169
574.772672	0.135316
574.984888	0.135126
575.197086	0.135109
575.409266	0.135170
575.621427	0.135122
575.833570	0.134946
576.045695	0.135136
576.257802	0.134837
576.469890	0.135032
576.681961	0.135320
576.894013	0.135578
577.106046	0.135773
577.318062	0.136337
577.530059	0.136416
577.742039	0.136666
577.954000	0.136423
578.165942	0.136564
578.377867	0.136387
578.589773	0.136099
578.801661	0.136008
579.013531	0.136343
579.225382	0.136163
579.437216	0.135957
579.649031	0.135780
579.860828	0.136118
580.072606	0.136570
580.284367	0.136843
580.496109	0.137249
580.707833	0.137499
580.919539	0.137685
581.131227	0.137798
581.342896	0.138049
581.554547	0.138398
581.766180	0.138122
581.977795	0.138115
582.189391	0.137934
582.400969	0.137843
582.612529	0.138042
582.824071	0.137647
583.035595	0.137600
583.247100	0.137626
583.458587	0.137401
583.670056	0.137691
583.881506	0.137465
584.092939	0.137516
584.304353	0.137488
584.515749	0.137106
584.727127	0.137226
584.938486	0.137399
585.149828	0.137120
585.361151	0.136923
585.572456	0.136775
585.783742	0.136830
585.995011	0.137130
586.206261	0.137255
586.417493	0.137597
586.628706	0.137586
586.839902	0.137897
587.051079	0.138527
587.262238	0.138744
587.473379	0.138909
587.684502	0.138966
587.895606	0.138748
588.106692	0.138902
588.317760	0.138962
588.528810	0.139126
588.739841	0.139265
588.950855	0.139133
589.161850	0.139343
589.372827	0.139626
589.583785	0.139884
589.794726	0.139828
590.005648	0.139984
590.216552	0.140279
590.427437	0.140357
590.638305	0.140089
590.849154	0.139806
591.059985	0.140287
591.270798	0.140459
591.481592	0.140545
591.692369	0.141027
591.903127	0.141114
592.113867	0.141340
592.324588	0.141560
592.535292	0.141510
592.745977	0.141953
592.956644	0.141768
593.167293	0.142002
593.377923	0.142028
593.588536	0.142046
593.799130	0.142075
594.009706	0.141878
594.220263	0.141935
594.430803	0.142372
594.641324	0.142435
594.851827	0.142055
595.062312	0.141745
595.272778	0.141938
595.483227	0.142180
595.693657	0.142511
595.904069	0.142720
596.114462	0.142729
596.324838	0.142711
596.535195	0.142970
596.745534	0.143398
596.955855	0.143710
597.166157	0.143710
597.376441	0.143615
597.586707	0.143246
597.796955	0.142960
598.007185	0.143247
598.217396	0.143199
598.427589	0.143183
598.637764	0.143247
598.847921	0.143187
599.058060	0.143216
599.268180	0.143221
599.478282	0.143413
599.688366	0.143772
599.898431	0.143847
600.108479	0.143833
600.318508	0.143852
600.528519	0.143908
600.738511	0.143968
600.948486	0.143794
601.158442	0.143987
601.368380	0.144097
601.578300	0.143951
601.788202	0.143850
601.998085	0.144087
602.207950	0.144082
602.417797	0.143876
602.627626	0.144019
602.837436	0.144265
603.047228	0.144234
603.257002	0.144617
603.466758	0.144933
603.676496	0.145044
603.886215	0.145134
604.095916	0.145013
604.305599	0.145452
604.515264	0.145188
604.724910	0.145344
604.934538	0.145527
605.144148	0.145140
605.353740	0.145005
605.563314	0.144578
605.772869	0.144451
605.982406	0.144729
606.191925	0.144548
606.401425	0.144837
606.610908	0.144649
606.820372	0.144494
607.029818	0.144289
607.239246	0.144091
607.448655	0.144360
607.658047	0.144178
607.867420	0.144140
608.076775	0.144213
608.286111	0.144133
608.495430	0.144147
608.704730	0.144007
608.914012	0.144282
609.123275	0.144484
609.332521	0.144548
609.541748	0.144728
609.750957	0.144591
609.960148	0.144618
610.169321	0.144561
610.378475	0.144605
610.587611	0.144779
610.796729	0.144953
611.005829	0.144927
611.214910	0.144993
611.423974	0.145295
611.633019	0.145616
611.842045	0.145835
612.051054	0.145815
612.260044	0.146006
612.469017	0.146133
612.677970	0.145756
612.886906	0.145742
613.095824	0.145581
613.304723	0.145343
613.513604	0.145348
613.722467	0.145132
613.931311	0.145192
614.140138	0.145166
614.348946	0.145242
614.557736	0.145589
614.766507	0.145642
614.975261	0.145994
615.183996	0.146474
615.392713	0.146687
615.601412	0.146839
615.810092	0.147115
616.018754	0.147051
616.227399	0.146695
616.436024	0.147080
616.644632	0.147117
616.853222	0.147109
617.061793	0.146837
617.270346	0.146850
617.478880	0.146889
617.687397	0.146829
617.895895	0.146787
618.104375	0.147408
618.312837	0.147090
618.521281	0.147270
618.729706	0.147384
618.938113	0.147224
619.146502	0.147158
619.354873	0.147235
619.563226	0.147400
619.771560	0.147484
619.979876	0.147168
620.188174	0.147073
620.396453	0.147068
620.604715	0.147018
620.812958	0.147217
621.021183	0.147301
621.229390	0.147377
621.437578	0.147488
621.645748	0.147813
621.853900	0.147909
622.062034	0.148019
622.270150	0.148236
622.478247	0.148466
622.686326	0.148568
622.894387	0.148637
623.102430	0.148852
623.310454	0.148881
623.518461	0.148756
623.726449	0.148855
623.934418	0.149105
624.142370	0.148714
624.350303	0.148761
624.558218	0.149024
624.766115	0.149091
624.973994	0.148882
625.181855	0.149065
625.389697	0.149226
625.597521	0.148955
625.805327	0.148755
626.013114	0.148928
626.220883	0.148867
626.428634	0.148899
626.636367	0.148865
626.844082	0.149102
627.051778	0.148957
627.259457	0.149172
627.467117	0.149544
627.674758	0.149799
627.882382	0.150248
628.089987	0.150423
628.297574	0.150302
628.505143	0.150441
628.712694	0.150586
628.920226	0.150868
629.127740	0.150767
629.335236	0.151042
629.542714	0.151110
629.750174	0.151143
629.957615	0.151251
630.165038	0.151366
630.372443	0.151268
630.579829	0.151260
630.787198	0.151077
630.994548	0.151180
631.201880	0.151016
631.409194	0.151157
631.616489	0.151352
631.823766	0.151475
632.031025	0.151870
632.238266	0.151984
632.445489	0.152103
632.652693	0.152202
632.859879	0.152185
633.067047	0.152433
633.274197	0.152396
633.481329	0.152326
633.688442	0.152412
633.895537	0.152327
634.102614	0.152580
634.309672	0.152768
634.516713	0.153234
634.723735	0.153633
634.930739	0.153807
635.137724	0.154113
635.344692	0.154189
635.551641	0.154207
635.758572	0.154294
635.965485	0.154320
636.172379	0.154319
636.379256	0.154374
636.586114	0.154444
636.792954	0.154650
636.999775	0.154621
637.206579	0.154507
637.413364	0.154515
637.620131	0.154642
637.826880	0.154540
638.033610	0.154789
638.240323	0.154366
638.447017	0.154152
638.653692	0.154158
638.860350	0.154324
639.066990	0.154547
639.273611	0.154712
639.480214	0.154668
639.686798	0.155148
639.893365	0.155178
640.099913	0.155695
640.306443	0.156082
640.512955	0.155873
640.719449	0.155867
640.925924	0.155947
641.132381	0.156106
641.338820	0.156219
641.545241	0.156082
641.751644	0.156097
641.958028	0.156325
642.164394	0.156338
642.370742	0.156759
642.577071	0.156756
642.783383	0.156803
642.989676	0.156736
643.195951	0.156427
643.402207	0.156448
643.608446	0.156423
643.814666	0.156160
644.020868	0.156156
644.227052	0.156197
644.433218	0.156272
644.639365	0.156189
644.845494	0.156393
645.051605	0.156836
645.257698	0.156947
645.463772	0.156903
645.669828	0.156944
645.875866	0.156897
646.081886	0.156667
646.287888	0.156839
646.493871	0.156991
646.699836	0.157098
646.905783	0.157023
647.111712	0.156926
647.317622	0.157001
647.523514	0.157206
647.729388	0.157556
647.935244	0.157992
648.141082	0.157983
648.346901	0.158255
648.552702	0.158336
648.758485	0.158591
648.964250	0.158814
649.169996	0.159209
649.375724	0.159537
649.581434	0.159340
649.787126	0.159195
649.992800	0.159555
650.198455	0.159630
650.404092	0.159569
650.609711	0.159627
650.815311	0.159490
651.020894	0.159358
651.226458	0.158973
651.432004	0.158998
651.637532	0.159270
651.843041	0.159000
652.048532	0.158950
652.254006	0.158928
652.459460	0.159112
652.664897	0.159237
652.870315	0.159256
653.075716	0.159605
653.281097	0.159794
653.486461	0.159763
653.691807	0.159947
653.897134	0.160248
654.102443	0.160399
654.307734	0.160310
654.513006	0.160562
654.718261	0.160829
654.923497	0.160794
655.128715	0.160932
655.333915	0.161087
655.539096	0.161368
655.744259	0.161368
655.949404	0.161601
656.154531	0.161820
656.359640	0.162037
656.564730	0.161878
656.769802	0.161902
656.974856	0.162099
657.179892	0.161944
657.384909	0.161785
657.589908	0.161886
657.794889	0.161716
657.999852	0.161685
658.204797	0.161703
658.409723	0.161966
658.614631	0.162255
658.819521	0.162196
659.024393	0.162420
659.229246	0.162644
659.434081	0.162764
659.638898	0.163016
659.843697	0.163179
660.048478	0.163243
660.253240	0.163413
660.457984	0.163499
660.662710	0.163579
660.867417	0.163763
661.072107	0.163665
661.276778	0.163731
661.481431	0.163959
661.686066	0.164023
661.890682	0.164285
662.095281	0.164504
662.299861	0.164571
662.504422	0.164739
662.708966	0.165006
662.913491	0.165348
663.117999	0.165406
663.322488	0.165435
663.526958	0.165443
663.731411	0.165343
663.935845	0.165146
664.140261	0.165056
664.344659	0.164857
664.549038	0.164522
664.753400	0.164447
664.957743	0.164450
665.162068	0.164494
665.366375	0.164528
665.570663	0.164495
665.774933	0.164456
665.979185	0.164603
666.183419	0.164768
666.387635	0.165101
666.591832	0.165304
666.796011	0.165347
667.000172	0.165412
667.204315	0.165690
667.408439	0.166108
667.612545	0.166570
667.816634	0.166643
668.020703	0.166823
668.224755	0.166850
668.428788	0.166853
668.632803	0.166952
668.836800	0.167173
669.040779	0.167133
669.244739	0.167158
669.448681	0.167102
669.652605	0.167163
669.856511	0.167423
670.060399	0.167509
670.264268	0.167500
670.468119	0.167543
670.671952	0.167407
670.875767	0.167556
671.079563	0.167617
671.283341	0.167657
671.487101	0.167830
671.690843	0.167979
671.894567	0.168006
672.098272	0.168036
672.301959	0.168288
672.505628	0.168377
672.709278	0.168437
672.912911	0.168405
673.116525	0.168325
673.320121	0.168382
673.523699	0.168246
673.727258	0.168398
673.930799	0.168709
674.134322	0.168710
674.337827	0.168852
674.541314	0.168998
674.744782	0.169152
674.948232	0.169196
675.151664	0.169368
675.355078	0.169662
675.558474	0.169583
675.761851	0.169443
675.965210	0.169583
676.168551	0.169675
676.371873	0.169703
676.575178	0.169739
676.778464	0.169849
676.981732	0.169673
677.184981	0.169566
677.388213	0.169710
677.591426	0.169960
677.794621	0.170083
677.997798	0.170215
678.200956	0.170264
678.404097	0.170445
678.607219	0.170715
678.810323	0.171079
679.013408	0.171192
679.216476	0.171229
679.419525	0.171364
679.622556	0.171217
679.825569	0.171246
680.028563	0.171345
680.231540	0.171531
680.434498	0.171441
680.637438	0.171567
680.840359	0.171868
681.043263	0.172016
681.246148	0.171973
681.449015	0.172166
681.651864	0.172352
681.854694	0.172548
682.057506	0.172344
682.260301	0.172554
682.463076	0.172543
682.665834	0.172232
682.868573	0.172468
683.071295	0.172642
683.273998	0.172551
683.476682	0.172597
683.679349	0.172456
683.881997	0.172433
684.084627	0.172289
684.287239	0.172154
684.489833	0.172164
684.692408	0.172080
684.894965	0.171841
685.097504	0.172060
685.300025	0.172119
685.502527	0.172321
685.705012	0.172509
685.907478	0.172944
686.109925	0.173006
686.312355	0.173266
686.514766	0.173389
686.717159	0.173729
686.919534	0.173852
687.121891	0.174019
687.324230	0.174280
687.526550	0.174594
687.728852	0.174296
687.931136	0.174590
688.133401	0.174676
688.335649	0.174672
688.537878	0.174917
688.740089	0.175149
688.942281	0.175051
689.144456	0.174916
689.346612	0.174746
689.548750	0.175159
689.750870	0.175334
689.952971	0.175263
690.155055	0.175350
690.357120	0.175141
690.559167	0.174887
690.761195	0.174867
690.963206	0.174709
691.165198	0.174800
691.367172	0.174477
691.569128	0.174025
691.771065	0.174067
691.972984	0.173920
692.174885	0.173954
692.376768	0.173955
692.578633	0.174115
692.780479	0.174312
692.982308	0.174394
693.184118	0.174912
693.385909	0.175439
