sample name	sample
index	533
start time	 03-11-2021  04:50:59 PM


Wavelength (nm)	Absorbance
494.344910	-0.439879
494.563924	-0.439879
494.782919	-0.439879
495.001897	NaN
495.220856	-0.310406
495.439797	-0.317042
495.658719	-0.139207
495.877624	0.047887
496.096510	-0.422462
496.315378	-0.730648
496.534227	-0.844439
496.753059	-0.374559
496.971872	0.031408
497.190667	0.196133
497.409444	0.201265
497.628203	0.200610
497.846943	0.202919
498.065665	0.203993
498.284369	0.202818
498.503055	0.201983
498.721723	0.200896
498.940372	0.201127
499.159003	0.200926
499.377616	0.200078
499.596210	0.199211
499.814787	0.198100
500.033345	0.197550
500.251885	0.198028
500.470406	0.198583
500.688910	0.199355
500.907395	0.198921
501.125862	0.199041
501.344311	0.199003
501.562742	0.200469
501.781154	0.199885
501.999548	0.200221
502.217924	0.200214
502.436282	0.199696
502.654621	0.200179
502.872942	0.201302
503.091245	0.201173
503.309530	0.202168
503.527797	0.201436
503.746045	0.201141
503.964275	0.200999
504.182487	0.201115
504.400681	0.201625
504.618856	0.201383
504.837013	0.200224
505.055152	0.201327
505.273273	0.200711
505.491376	0.200757
505.709460	0.202512
505.927526	0.202755
506.145574	0.202949
506.363604	0.203475
506.581615	0.203676
506.799608	0.204433
507.017583	0.204445
507.235540	0.205139
507.453478	0.205321
507.671399	0.204698
507.889301	0.204237
508.107185	0.205276
508.325050	0.205021
508.542898	0.204914
508.760727	0.204503
508.978538	0.204133
509.196330	0.203966
509.414105	0.205074
509.631861	0.205783
509.849599	0.206693
510.067319	0.205971
510.285021	0.206768
510.502704	0.208104
510.720369	0.208371
510.938016	0.208045
511.155645	0.208636
511.373255	0.208112
511.590848	0.208084
511.808422	0.207723
512.025977	0.207616
512.243515	0.206900
512.461034	0.205913
512.678536	0.206542
512.896018	0.207184
513.113483	0.206442
513.330930	0.206865
513.548358	0.207324
513.765768	0.207753
513.983160	0.208230
514.200533	0.208645
514.417889	0.209158
514.635226	0.209844
514.852545	0.209549
515.069845	0.211073
515.287128	0.211057
515.504392	0.210908
515.721638	0.211796
515.938866	0.212077
516.156075	0.212279
516.373267	0.212837
516.590440	0.212150
516.807594	0.212811
517.024731	0.212791
517.241850	0.213741
517.458950	0.214494
517.676032	0.214197
517.893095	0.215401
518.110141	0.215895
518.327168	0.216211
518.544177	0.217192
518.761168	0.216910
518.978141	0.216542
519.195095	0.215931
519.412031	0.215567
519.628949	0.215533
519.845849	0.214916
520.062731	0.215011
520.279594	0.215480
520.496439	0.215223
520.713266	0.216000
520.930074	0.216283
521.146865	0.216676
521.363637	0.217772
521.580391	0.218137
521.797127	0.218395
522.013844	0.218415
522.230543	0.218276
522.447224	0.218188
522.663887	0.218507
522.880532	0.219053
523.097158	0.218531
523.313766	0.217735
523.530356	0.218072
523.746928	0.218265
523.963481	0.218792
524.180017	0.218688
524.396534	0.218753
524.613032	0.218748
524.829513	0.219612
525.045975	0.220439
525.262420	0.220517
525.478845	0.220679
525.695253	0.220983
525.911643	0.220639
526.128014	0.220595
526.344367	0.221682
526.560702	0.222226
526.777018	0.221335
526.993316	0.220768
527.209597	0.220935
527.425858	0.220817
527.642102	0.221248
527.858328	0.222282
528.074535	0.223498
528.290724	0.223742
528.506894	0.223636
528.723047	0.224408
528.939181	0.226031
529.155297	0.226321
529.371395	0.227004
529.587475	0.227600
529.803536	0.227999
530.019579	0.227981
530.235604	0.228023
530.451611	0.228921
530.667600	0.229224
530.883570	0.228976
531.099522	0.229497
531.315456	0.230022
531.531372	0.229956
531.747269	0.229630
531.963148	0.229989
532.179009	0.230213
532.394852	0.230278
532.610676	0.229757
532.826482	0.230200
533.042271	0.230864
533.258040	0.231534
533.473792	0.231422
533.689525	0.231774
533.905240	0.231480
534.120937	0.232391
534.336616	0.232237
534.552277	0.232968
534.767919	0.232936
534.983543	0.233269
535.199149	0.232563
535.414736	0.233515
535.630306	0.234314
535.845857	0.234993
536.061390	0.234987
536.276904	0.236212
536.492401	0.237153
536.707879	0.237795
536.923339	0.237864
537.138781	0.238569
537.354204	0.238912
537.569610	0.238665
537.784997	0.238766
538.000366	0.239010
538.215716	0.238706
538.431049	0.238578
538.646363	0.239095
538.861659	0.239584
539.076937	0.240116
539.292196	0.240065
539.507438	0.240338
539.722661	0.240621
539.937866	0.241081
540.153052	0.241511
540.368221	0.241620
540.583371	0.241133
540.798503	0.241769
541.013617	0.241589
541.228712	0.241681
541.443789	0.241869
541.658848	0.242040
541.873889	0.242236
542.088912	0.242870
542.303916	0.242951
542.518902	0.243642
542.733870	0.243462
542.948820	0.244464
543.163752	0.244834
543.378665	0.245354
543.593560	0.245852
543.808437	0.245858
544.023295	0.245967
544.238136	0.246587
544.452958	0.247314
544.667762	0.247896
544.882548	0.247771
545.097315	0.248119
545.312064	0.248440
545.526795	0.248924
545.741508	0.249077
545.956203	0.249245
546.170879	0.249362
546.385537	0.249344
546.600177	0.249585
546.814799	0.249823
547.029402	0.250268
547.243988	0.250693
547.458555	0.250437
547.673103	0.250903
547.887634	0.251095
548.102146	0.251955
548.316640	0.252515
548.531116	0.252570
548.745574	0.252652
548.960013	0.252844
549.174435	0.252983
549.388838	0.253508
549.603222	0.253584
549.817589	0.254117
550.031937	0.253739
550.246267	0.253693
550.460579	0.253728
550.674873	0.254014
550.889148	0.254351
551.103405	0.254716
551.317644	0.254999
551.531865	0.255463
551.746068	0.255547
551.960252	0.255592
552.174418	0.255220
552.388566	0.255571
552.602696	0.255546
552.816807	0.255444
553.030900	0.255550
553.244975	0.255667
553.459032	0.256313
553.673070	0.256623
553.887091	0.257330
554.101093	0.258262
554.315077	0.258635
554.529042	0.258780
554.742990	0.259182
554.956919	0.259874
555.170830	0.260328
555.384722	0.259973
555.598597	0.259696
555.812453	0.259863
556.026291	0.260056
556.240111	0.260229
556.453913	0.260542
556.667696	0.260683
556.881461	0.260227
557.095208	0.260364
557.308937	0.260575
557.522647	0.260770
557.736339	0.260803
557.950013	0.260911
558.163669	0.261023
558.377307	0.261510
558.590926	0.261687
558.804527	0.261822
559.018110	0.262030
559.231675	0.262449
559.445221	0.262908
559.658749	0.263345
559.872259	0.263444
560.085751	0.263461
560.299225	0.263718
560.512680	0.264235
560.726117	0.264695
560.939536	0.264712
561.152937	0.264905
561.366319	0.264877
561.579683	0.264496
561.793029	0.264666
562.006357	0.265074
562.219667	0.265499
562.432958	0.265429
562.646231	0.265584
562.859486	0.266035
563.072723	0.265928
563.285941	0.266258
563.499141	0.267016
563.712323	0.267443
563.925487	0.267740
564.138632	0.267717
564.351760	0.268395
564.564869	0.268096
564.777960	0.268102
564.991032	0.268872
565.204087	0.269045
565.417123	0.268989
565.630141	0.268885
565.843140	0.268455
566.056122	0.268419
566.269085	0.267976
566.482030	0.268754
566.694957	0.268514
566.907866	0.268768
567.120756	0.268901
567.333628	0.269245
567.546482	0.269348
567.759318	0.269845
567.972135	0.270281
568.184935	0.270691
568.397716	0.270298
568.610478	0.270918
568.823223	0.270523
569.035949	0.270454
569.248657	0.270473
569.461347	0.271190
569.674019	0.271594
569.886672	0.271281
570.099308	0.271128
570.311925	0.271603
570.524523	0.271756
570.737104	0.272073
570.949666	0.272419
571.162210	0.272729
571.374736	0.272471
571.587244	0.272499
571.799733	0.273176
572.012205	0.273588
572.224658	0.273769
572.437092	0.273929
572.649509	0.273803
572.861907	0.274405
573.074287	0.274333
573.286649	0.274403
573.498993	0.274890
573.711318	0.274768
573.923625	0.274781
574.135914	0.275042
574.348185	0.275162
574.560438	0.275564
574.772672	0.275356
574.984888	0.275619
575.197086	0.275865
575.409266	0.275789
575.621427	0.275891
575.833570	0.276117
576.045695	0.276331
576.257802	0.276187
576.469890	0.276277
576.681961	0.276456
576.894013	0.276836
577.106046	0.277189
577.318062	0.277317
577.530059	0.277885
577.742039	0.277718
577.954000	0.277443
578.165942	0.277977
578.377867	0.278399
578.589773	0.278298
578.801661	0.277992
579.013531	0.277629
579.225382	0.277785
579.437216	0.277885
579.649031	0.278410
579.860828	0.278773
580.072606	0.278902
580.284367	0.279280
580.496109	0.279738
580.707833	0.279846
580.919539	0.280301
581.131227	0.280285
581.342896	0.280492
581.554547	0.280592
581.766180	0.281319
581.977795	0.281386
582.189391	0.281253
582.400969	0.281680
582.612529	0.282331
582.824071	0.282519
583.035595	0.282872
583.247100	0.282555
583.458587	0.282681
583.670056	0.282179
583.881506	0.282270
584.092939	0.282437
584.304353	0.282100
584.515749	0.281863
584.727127	0.281845
584.938486	0.281868
585.149828	0.282353
585.361151	0.282546
585.572456	0.283094
585.783742	0.283295
585.995011	0.283386
586.206261	0.283844
586.417493	0.284150
586.628706	0.284407
586.839902	0.284800
587.051079	0.284984
587.262238	0.284773
587.473379	0.284294
587.684502	0.284738
587.895606	0.284765
588.106692	0.285095
588.317760	0.285198
588.528810	0.285563
588.739841	0.285461
588.950855	0.285635
589.161850	0.286265
589.372827	0.287057
589.583785	0.286733
589.794726	0.287130
590.005648	0.286810
590.216552	0.287092
590.427437	0.287077
590.638305	0.287633
590.849154	0.288173
591.059985	0.288028
591.270798	0.288013
591.481592	0.288348
591.692369	0.288574
591.903127	0.288864
592.113867	0.288681
592.324588	0.288800
592.535292	0.288603
592.745977	0.288224
592.956644	0.288435
593.167293	0.288729
593.377923	0.288773
593.588536	0.288555
593.799130	0.288886
594.009706	0.289728
594.220263	0.289843
594.430803	0.290191
594.641324	0.290676
594.851827	0.290849
595.062312	0.290863
595.272778	0.291055
595.483227	0.291147
595.693657	0.291417
595.904069	0.291104
596.114462	0.291622
596.324838	0.291821
596.535195	0.291784
596.745534	0.291849
596.955855	0.292195
597.166157	0.292427
597.376441	0.292601
597.586707	0.292617
597.796955	0.293037
598.007185	0.293043
598.217396	0.292944
598.427589	0.292803
598.637764	0.292959
598.847921	0.292769
599.058060	0.293511
599.268180	0.293651
599.478282	0.293540
599.688366	0.293670
599.898431	0.293736
600.108479	0.294217
600.318508	0.294399
600.528519	0.295034
600.738511	0.295541
600.948486	0.294776
601.158442	0.295296
601.368380	0.295593
601.578300	0.295545
601.788202	0.295712
601.998085	0.295576
602.207950	0.295886
602.417797	0.295904
602.627626	0.295588
602.837436	0.296164
603.047228	0.296019
603.257002	0.296305
603.466758	0.296413
603.676496	0.296676
603.886215	0.297259
604.095916	0.297227
604.305599	0.297340
604.515264	0.297814
604.724910	0.298102
604.934538	0.298472
605.144148	0.298439
605.353740	0.298915
605.563314	0.299071
605.772869	0.299006
605.982406	0.299556
606.191925	0.299953
606.401425	0.299917
606.610908	0.300009
606.820372	0.299792
607.029818	0.300236
607.239246	0.299910
607.448655	0.299912
607.658047	0.299958
607.867420	0.300136
608.076775	0.299748
608.286111	0.299870
608.495430	0.299939
608.704730	0.300109
608.914012	0.300011
609.123275	0.300405
609.332521	0.300589
609.541748	0.300552
609.750957	0.300230
609.960148	0.300278
610.169321	0.300423
610.378475	0.300391
610.587611	0.300646
610.796729	0.300700
611.005829	0.300871
611.214910	0.300895
611.423974	0.301151
611.633019	0.301555
611.842045	0.301696
612.051054	0.301805
612.260044	0.301881
612.469017	0.301950
612.677970	0.302231
612.886906	0.302292
613.095824	0.302496
613.304723	0.302396
613.513604	0.302545
613.722467	0.303177
613.931311	0.303222
614.140138	0.303147
614.348946	0.303073
614.557736	0.302940
614.766507	0.303132
614.975261	0.303129
615.183996	0.303493
615.392713	0.303685
615.601412	0.303551
615.810092	0.303897
616.018754	0.304520
616.227399	0.305029
616.436024	0.305557
616.644632	0.305919
616.853222	0.306212
617.061793	0.306679
617.270346	0.306807
617.478880	0.306988
617.687397	0.307214
617.895895	0.307162
618.104375	0.307211
618.312837	0.307091
618.521281	0.307048
618.729706	0.307219
618.938113	0.307251
619.146502	0.307575
619.354873	0.307940
619.563226	0.308126
619.771560	0.308326
619.979876	0.308636
620.188174	0.308761
620.396453	0.308893
620.604715	0.308897
620.812958	0.308752
621.021183	0.308775
621.229390	0.308801
621.437578	0.308701
621.645748	0.308772
621.853900	0.308763
622.062034	0.309004
622.270150	0.309008
622.478247	0.309357
622.686326	0.309441
622.894387	0.309454
623.102430	0.309310
623.310454	0.309634
623.518461	0.309915
623.726449	0.309846
623.934418	0.309720
624.142370	0.309651
624.350303	0.309988
624.558218	0.310350
624.766115	0.310437
624.973994	0.310605
625.181855	0.310712
625.389697	0.310725
625.597521	0.311033
625.805327	0.311417
626.013114	0.312129
626.220883	0.311856
626.428634	0.311829
626.636367	0.311976
626.844082	0.312235
627.051778	0.312490
627.259457	0.312663
627.467117	0.312818
627.674758	0.313181
627.882382	0.312907
628.089987	0.313320
628.297574	0.313571
628.505143	0.313608
628.712694	0.313768
628.920226	0.313746
629.127740	0.313692
629.335236	0.313807
629.542714	0.313782
629.750174	0.314314
629.957615	0.314298
630.165038	0.314464
630.372443	0.314664
630.579829	0.314865
630.787198	0.315070
630.994548	0.315615
631.201880	0.315991
631.409194	0.316302
631.616489	0.316096
631.823766	0.316097
632.031025	0.316215
632.238266	0.316595
632.445489	0.316828
632.652693	0.316818
632.859879	0.316919
633.067047	0.316961
633.274197	0.317151
633.481329	0.317495
633.688442	0.317749
633.895537	0.317737
634.102614	0.317826
634.309672	0.317793
634.516713	0.318262
634.723735	0.318375
634.930739	0.318288
635.137724	0.318536
635.344692	0.318450
635.551641	0.318334
635.758572	0.318688
635.965485	0.318478
636.172379	0.318842
636.379256	0.318852
636.586114	0.318747
636.792954	0.319084
636.999775	0.318846
637.206579	0.319159
637.413364	0.319686
637.620131	0.319703
637.826880	0.320163
638.033610	0.320362
638.240323	0.320443
638.447017	0.321002
638.653692	0.321025
638.860350	0.321207
639.066990	0.321278
639.273611	0.321312
639.480214	0.321617
639.686798	0.321736
639.893365	0.321879
640.099913	0.322120
640.306443	0.321654
640.512955	0.321907
640.719449	0.322010
640.925924	0.322306
641.132381	0.322477
641.338820	0.322379
641.545241	0.322477
641.751644	0.322367
641.958028	0.322467
642.164394	0.322876
642.370742	0.323014
642.577071	0.323253
642.783383	0.323231
642.989676	0.323669
643.195951	0.323912
643.402207	0.323889
643.608446	0.324186
643.814666	0.324286
644.020868	0.324674
644.227052	0.324769
644.433218	0.325013
644.639365	0.325127
644.845494	0.325106
645.051605	0.325231
645.257698	0.325741
645.463772	0.325778
645.669828	0.325946
645.875866	0.326088
646.081886	0.326435
646.287888	0.326789
646.493871	0.327379
646.699836	0.327777
646.905783	0.328053
647.111712	0.328324
647.317622	0.328777
647.523514	0.329042
647.729388	0.329135
647.935244	0.329372
648.141082	0.329467
648.346901	0.329553
648.552702	0.329569
648.758485	0.329732
648.964250	0.329567
649.169996	0.329647
649.375724	0.329895
649.581434	0.330248
649.787126	0.330229
649.992800	0.330323
650.198455	0.330188
650.404092	0.329946
650.609711	0.330358
650.815311	0.330684
651.020894	0.330807
651.226458	0.330586
651.432004	0.330578
651.637532	0.330966
651.843041	0.330961
652.048532	0.331327
652.254006	0.331703
652.459460	0.331833
652.664897	0.332016
652.870315	0.332283
653.075716	0.332866
653.281097	0.333148
653.486461	0.333060
653.691807	0.333371
653.897134	0.333704
654.102443	0.334061
654.307734	0.334295
654.513006	0.334345
654.718261	0.334512
654.923497	0.334792
655.128715	0.334957
655.333915	0.335285
655.539096	0.335592
655.744259	0.335585
655.949404	0.335698
656.154531	0.335816
656.359640	0.336239
656.564730	0.336521
656.769802	0.336479
656.974856	0.336669
657.179892	0.336683
657.384909	0.336701
657.589908	0.336953
657.794889	0.337144
657.999852	0.337580
658.204797	0.337763
658.409723	0.337617
658.614631	0.337979
658.819521	0.338133
659.024393	0.338743
659.229246	0.338957
659.434081	0.339017
659.638898	0.339204
659.843697	0.339271
660.048478	0.339482
660.253240	0.339761
660.457984	0.340126
660.662710	0.340481
660.867417	0.340574
661.072107	0.340898
661.276778	0.340997
661.481431	0.341396
661.686066	0.341531
661.890682	0.341785
662.095281	0.341980
662.299861	0.341859
662.504422	0.342150
662.708966	0.342259
662.913491	0.342376
663.117999	0.342679
663.322488	0.342564
663.526958	0.342770
663.731411	0.342878
663.935845	0.342985
664.140261	0.343182
664.344659	0.343269
664.549038	0.343548
664.753400	0.343927
664.957743	0.344416
665.162068	0.344791
665.366375	0.344649
665.570663	0.344705
665.774933	0.345056
665.979185	0.345241
666.183419	0.345315
666.387635	0.345546
666.591832	0.345575
666.796011	0.345515
667.000172	0.345544
667.204315	0.346019
667.408439	0.346007
667.612545	0.346394
667.816634	0.346741
668.020703	0.347066
668.224755	0.347230
668.428788	0.347332
668.632803	0.347530
668.836800	0.347705
669.040779	0.347730
669.244739	0.348022
669.448681	0.348008
669.652605	0.348119
669.856511	0.348288
670.060399	0.348351
670.264268	0.348694
670.468119	0.348895
670.671952	0.349370
670.875767	0.349682
671.079563	0.350126
671.283341	0.350329
671.487101	0.350439
671.690843	0.350655
671.894567	0.351044
672.098272	0.351263
672.301959	0.351705
672.505628	0.351992
672.709278	0.352463
672.912911	0.352758
673.116525	0.353007
673.320121	0.353444
673.523699	0.353539
673.727258	0.353581
673.930799	0.353712
674.134322	0.353928
674.337827	0.354010
674.541314	0.353851
674.744782	0.353718
674.948232	0.353900
675.151664	0.353997
675.355078	0.354499
675.558474	0.354579
675.761851	0.355023
675.965210	0.355095
676.168551	0.355474
676.371873	0.355764
676.575178	0.356454
676.778464	0.356855
676.981732	0.357195
677.184981	0.357176
677.388213	0.357691
677.591426	0.357566
677.794621	0.357913
677.997798	0.358161
678.200956	0.358268
678.404097	0.358413
678.607219	0.358275
678.810323	0.358346
679.013408	0.358504
679.216476	0.358412
679.419525	0.358908
679.622556	0.359051
679.825569	0.358839
680.028563	0.359131
680.231540	0.359249
680.434498	0.359968
680.637438	0.360135
680.840359	0.360377
681.043263	0.360547
681.246148	0.360611
681.449015	0.360649
681.651864	0.360937
681.854694	0.361230
682.057506	0.361439
682.260301	0.361582
682.463076	0.361762
682.665834	0.362046
682.868573	0.362598
683.071295	0.362833
683.273998	0.363145
683.476682	0.363599
683.679349	0.363707
683.881997	0.363806
684.084627	0.363801
684.287239	0.364224
684.489833	0.364377
684.692408	0.364728
684.894965	0.364818
685.097504	0.364987
685.300025	0.365047
685.502527	0.365259
685.705012	0.365453
685.907478	0.365607
686.109925	0.365735
686.312355	0.365946
686.514766	0.365867
686.717159	0.366272
686.919534	0.366372
687.121891	0.366703
687.324230	0.366853
687.526550	0.367373
687.728852	0.367470
687.931136	0.367557
688.133401	0.367774
688.335649	0.368171
688.537878	0.368419
688.740089	0.368855
688.942281	0.368953
689.144456	0.369300
689.346612	0.369044
689.548750	0.369217
689.750870	0.369634
689.952971	0.369916
690.155055	0.369985
690.357120	0.370135
690.559167	0.369980
690.761195	0.370090
690.963206	0.370458
691.165198	0.370872
691.367172	0.371203
691.569128	0.371165
691.771065	0.371390
691.972984	0.371401
692.174885	0.371547
692.376768	0.372011
692.578633	0.372438
692.780479	0.372347
692.982308	0.372546
693.184118	0.372549
693.385909	0.372661
