sample name	sample
index	1479
start time	 05-18-2021  12:29:18 PM


Wavelength (nm)	Absorbance
494.344910	0.032261
494.563924	0.032261
494.782919	0.032261
495.001897	-0.022368
495.220856	-0.027203
495.439797	-0.042722
495.658719	-0.013835
495.877624	-0.010992
496.096510	0.000381
496.315378	-0.025126
496.534227	-0.038931
496.753059	0.020304
496.971872	0.049074
497.190667	0.141811
497.409444	0.160774
497.628203	0.164101
497.846943	0.166554
498.065665	0.168346
498.284369	0.169224
498.503055	0.169298
498.721723	0.168442
498.940372	0.169700
499.159003	0.169169
499.377616	0.169532
499.596210	0.168995
499.814787	0.168388
500.033345	0.168601
500.251885	0.169002
500.470406	0.169237
500.688910	0.169631
500.907395	0.169531
501.125862	0.169127
501.344311	0.170379
501.562742	0.170285
501.781154	0.170789
501.999548	0.170836
502.217924	0.171173
502.436282	0.171876
502.654621	0.171514
502.872942	0.171246
503.091245	0.171951
503.309530	0.170863
503.527797	0.171547
503.746045	0.172273
503.964275	0.172968
504.182487	0.172604
504.400681	0.172610
504.618856	0.172715
504.837013	0.173506
505.055152	0.174390
505.273273	0.175115
505.491376	0.175109
505.709460	0.175162
505.927526	0.174611
506.145574	0.175428
506.363604	0.174790
506.581615	0.175307
506.799608	0.174697
507.017583	0.173549
507.235540	0.172553
507.453478	0.172926
507.671399	0.171845
507.889301	0.171992
508.107185	0.171814
508.325050	0.173015
508.542898	0.172128
508.760727	0.173274
508.978538	0.174876
509.196330	0.174909
509.414105	0.174815
509.631861	0.175297
509.849599	0.174436
510.067319	0.174505
510.285021	0.173999
510.502704	0.174487
510.720369	0.173205
510.938016	0.172400
511.155645	0.173624
511.373255	0.173260
511.590848	0.173664
511.808422	0.174626
512.025977	0.174269
512.243515	0.174481
512.461034	0.175327
512.678536	0.176461
512.896018	0.176834
513.113483	0.176049
513.330930	0.175878
513.548358	0.175957
513.765768	0.176449
513.983160	0.177272
514.200533	0.177740
514.417889	0.178273
514.635226	0.177970
514.852545	0.178391
515.069845	0.178167
515.287128	0.178351
515.504392	0.178441
515.721638	0.177731
515.938866	0.177248
516.156075	0.177784
516.373267	0.177533
516.590440	0.177866
516.807594	0.178305
517.024731	0.178779
517.241850	0.178482
517.458950	0.178978
517.676032	0.178899
517.893095	0.179735
518.110141	0.179502
518.327168	0.179346
518.544177	0.178945
518.761168	0.178691
518.978141	0.179570
519.195095	0.180528
519.412031	0.180893
519.628949	0.181162
519.845849	0.181329
520.062731	0.180531
520.279594	0.181156
520.496439	0.182234
520.713266	0.182282
520.930074	0.181710
521.146865	0.181578
521.363637	0.182001
521.580391	0.182516
521.797127	0.182834
522.013844	0.183602
522.230543	0.183101
522.447224	0.183517
522.663887	0.183749
522.880532	0.184497
523.097158	0.184767
523.313766	0.184444
523.530356	0.184385
523.746928	0.183928
523.963481	0.183914
524.180017	0.184655
524.396534	0.184310
524.613032	0.185211
524.829513	0.185061
525.045975	0.186055
525.262420	0.185833
525.478845	0.186445
525.695253	0.187787
525.911643	0.188382
526.128014	0.188028
526.344367	0.188049
526.560702	0.187360
526.777018	0.186714
526.993316	0.186164
527.209597	0.186286
527.425858	0.186843
527.642102	0.186922
527.858328	0.187058
528.074535	0.187845
528.290724	0.187859
528.506894	0.187868
528.723047	0.189412
528.939181	0.189749
529.155297	0.190533
529.371395	0.190124
529.587475	0.189961
529.803536	0.189739
530.019579	0.189470
530.235604	0.189891
530.451611	0.190261
530.667600	0.190592
530.883570	0.190987
531.099522	0.191522
531.315456	0.191607
531.531372	0.191728
531.747269	0.192514
531.963148	0.192999
532.179009	0.193277
532.394852	0.194127
532.610676	0.193971
532.826482	0.194434
533.042271	0.194424
533.258040	0.195171
533.473792	0.195198
533.689525	0.196014
533.905240	0.196400
534.120937	0.197225
534.336616	0.196945
534.552277	0.196740
534.767919	0.196747
534.983543	0.196968
535.199149	0.197077
535.414736	0.197785
535.630306	0.197757
535.845857	0.198458
536.061390	0.198493
536.276904	0.199066
536.492401	0.199781
536.707879	0.200398
536.923339	0.200350
537.138781	0.200069
537.354204	0.199779
537.569610	0.199797
537.784997	0.199418
538.000366	0.199703
538.215716	0.200019
538.431049	0.200122
538.646363	0.200112
538.861659	0.200639
539.076937	0.201040
539.292196	0.201336
539.507438	0.201615
539.722661	0.201799
539.937866	0.201750
540.153052	0.201542
540.368221	0.201476
540.583371	0.201232
540.798503	0.201537
541.013617	0.202215
541.228712	0.202466
541.443789	0.202452
541.658848	0.202632
541.873889	0.203576
542.088912	0.204514
542.303916	0.205427
542.518902	0.205710
542.733870	0.205687
542.948820	0.206319
543.163752	0.206316
543.378665	0.207006
543.593560	0.207468
543.808437	0.207319
544.023295	0.207267
544.238136	0.207425
544.452958	0.208254
544.667762	0.208190
544.882548	0.207862
545.097315	0.208476
545.312064	0.208246
545.526795	0.208490
545.741508	0.208655
545.956203	0.208599
546.170879	0.208534
546.385537	0.208489
546.600177	0.208984
546.814799	0.209208
547.029402	0.209535
547.243988	0.209215
547.458555	0.209341
547.673103	0.209470
547.887634	0.209570
548.102146	0.210072
548.316640	0.210097
548.531116	0.210740
548.745574	0.210621
548.960013	0.210839
549.174435	0.211869
549.388838	0.212404
549.603222	0.212472
549.817589	0.212798
550.031937	0.212775
550.246267	0.213232
550.460579	0.213275
550.674873	0.213499
550.889148	0.213234
551.103405	0.213375
551.317644	0.213094
551.531865	0.213606
551.746068	0.213620
551.960252	0.213654
552.174418	0.213712
552.388566	0.214167
552.602696	0.214825
552.816807	0.214976
553.030900	0.214891
553.244975	0.215122
553.459032	0.214993
553.673070	0.215419
553.887091	0.215620
554.101093	0.215683
554.315077	0.215247
554.529042	0.215286
554.742990	0.215587
554.956919	0.216129
555.170830	0.216562
555.384722	0.216718
555.598597	0.216936
555.812453	0.217062
556.026291	0.217215
556.240111	0.217377
556.453913	0.217227
556.667696	0.217226
556.881461	0.216692
557.095208	0.216599
557.308937	0.216310
557.522647	0.216099
557.736339	0.215873
557.950013	0.215972
558.163669	0.215779
558.377307	0.216137
558.590926	0.216205
558.804527	0.216650
559.018110	0.217338
559.231675	0.217784
559.445221	0.218054
559.658749	0.218620
559.872259	0.218706
560.085751	0.218820
560.299225	0.218916
560.512680	0.219433
560.726117	0.219514
560.939536	0.219258
561.152937	0.219132
561.366319	0.219159
561.579683	0.219227
561.793029	0.219640
562.006357	0.220189
562.219667	0.219893
562.432958	0.219926
562.646231	0.220316
562.859486	0.220340
563.072723	0.221043
563.285941	0.221273
563.499141	0.221403
563.712323	0.221466
563.925487	0.221530
564.138632	0.222153
564.351760	0.222302
564.564869	0.222335
564.777960	0.222203
564.991032	0.222433
565.204087	0.222094
565.417123	0.222516
565.630141	0.222653
565.843140	0.223394
566.056122	0.223604
566.269085	0.223747
566.482030	0.223991
566.694957	0.224354
566.907866	0.224310
567.120756	0.224765
567.333628	0.224648
567.546482	0.225037
567.759318	0.224555
567.972135	0.224592
568.184935	0.224704
568.397716	0.224723
568.610478	0.224963
568.823223	0.224803
569.035949	0.225061
569.248657	0.225441
569.461347	0.225542
569.674019	0.225751
569.886672	0.225587
570.099308	0.225938
570.311925	0.226172
570.524523	0.226382
570.737104	0.226577
570.949666	0.226726
571.162210	0.226509
571.374736	0.226385
571.587244	0.226742
571.799733	0.227120
572.012205	0.227404
572.224658	0.227285
572.437092	0.226932
572.649509	0.227010
572.861907	0.227275
573.074287	0.227526
573.286649	0.227878
573.498993	0.227519
573.711318	0.227732
573.923625	0.227714
574.135914	0.227979
574.348185	0.228272
574.560438	0.228584
574.772672	0.228882
574.984888	0.229534
575.197086	0.229467
575.409266	0.230052
575.621427	0.230055
575.833570	0.230147
576.045695	0.230564
576.257802	0.231271
576.469890	0.231542
576.681961	0.231601
576.894013	0.230875
577.106046	0.230960
577.318062	0.231310
577.530059	0.231750
577.742039	0.231795
577.954000	0.231498
578.165942	0.231494
578.377867	0.231523
578.589773	0.231813
578.801661	0.232265
579.013531	0.232859
579.225382	0.232789
579.437216	0.232719
579.649031	0.233123
579.860828	0.233768
580.072606	0.233602
580.284367	0.233902
580.496109	0.233787
580.707833	0.234192
580.919539	0.233988
581.131227	0.234286
581.342896	0.234500
581.554547	0.234376
581.766180	0.234027
581.977795	0.234152
582.189391	0.234269
582.400969	0.234357
582.612529	0.234062
582.824071	0.234046
583.035595	0.234101
583.247100	0.234618
583.458587	0.234715
583.670056	0.235145
583.881506	0.235272
584.092939	0.235281
584.304353	0.235444
584.515749	0.235732
584.727127	0.235829
584.938486	0.235396
585.149828	0.234931
585.361151	0.235243
585.572456	0.235329
585.783742	0.235314
585.995011	0.235474
586.206261	0.235464
586.417493	0.235711
586.628706	0.235855
586.839902	0.236407
587.051079	0.236705
587.262238	0.236656
587.473379	0.236585
587.684502	0.236824
587.895606	0.236892
588.106692	0.237107
588.317760	0.237396
588.528810	0.237440
588.739841	0.237318
588.950855	0.237252
589.161850	0.237656
589.372827	0.238012
589.583785	0.238335
589.794726	0.238542
590.005648	0.238853
590.216552	0.238869
590.427437	0.239353
590.638305	0.240007
590.849154	0.240600
591.059985	0.240568
591.270798	0.240598
591.481592	0.240608
591.692369	0.240902
591.903127	0.240977
592.113867	0.240923
592.324588	0.240915
592.535292	0.240727
592.745977	0.240965
592.956644	0.241180
593.167293	0.241487
593.377923	0.241545
593.588536	0.241457
593.799130	0.241959
594.009706	0.242751
594.220263	0.242995
594.430803	0.243243
594.641324	0.243321
594.851827	0.243650
595.062312	0.243654
595.272778	0.244138
595.483227	0.244162
595.693657	0.243675
595.904069	0.243522
596.114462	0.244020
596.324838	0.243927
596.535195	0.244058
596.745534	0.244065
596.955855	0.244194
597.166157	0.244022
597.376441	0.244848
597.586707	0.245191
597.796955	0.245406
598.007185	0.245130
598.217396	0.245585
598.427589	0.245256
598.637764	0.245368
598.847921	0.245758
599.058060	0.246507
599.268180	0.246318
599.478282	0.246646
599.688366	0.246627
599.898431	0.246970
600.108479	0.246830
600.318508	0.247206
600.528519	0.246943
600.738511	0.246780
600.948486	0.246912
601.158442	0.246834
601.368380	0.246895
601.578300	0.246793
601.788202	0.246818
601.998085	0.246718
602.207950	0.247178
602.417797	0.247621
602.627626	0.248117
602.837436	0.247745
603.047228	0.247941
603.257002	0.247893
603.466758	0.248290
603.676496	0.248537
603.886215	0.249056
604.095916	0.248560
604.305599	0.248501
604.515264	0.248539
604.724910	0.249141
604.934538	0.249323
605.144148	0.249683
605.353740	0.249976
605.563314	0.250030
605.772869	0.250128
605.982406	0.250824
606.191925	0.251114
606.401425	0.251239
606.610908	0.250996
606.820372	0.251065
607.029818	0.251143
607.239246	0.251113
607.448655	0.251169
607.658047	0.251028
607.867420	0.251034
608.076775	0.251312
608.286111	0.251261
608.495430	0.251211
608.704730	0.251320
608.914012	0.251216
609.123275	0.251148
609.332521	0.251401
609.541748	0.251690
609.750957	0.251714
609.960148	0.252126
610.169321	0.252058
610.378475	0.252418
610.587611	0.253062
610.796729	0.253287
611.005829	0.253875
611.214910	0.253806
611.423974	0.254089
611.633019	0.254534
611.842045	0.254024
612.051054	0.254257
612.260044	0.254564
612.469017	0.254221
612.677970	0.254679
612.886906	0.254759
613.095824	0.254795
613.304723	0.255205
613.513604	0.255109
613.722467	0.255582
613.931311	0.255884
614.140138	0.255997
614.348946	0.256421
614.557736	0.256201
614.766507	0.255969
614.975261	0.256425
615.183996	0.256049
615.392713	0.256300
615.601412	0.256341
615.810092	0.256344
616.018754	0.256259
616.227399	0.256051
616.436024	0.256164
616.644632	0.256331
616.853222	0.256453
617.061793	0.256776
617.270346	0.256342
617.478880	0.256472
617.687397	0.256586
617.895895	0.256745
618.104375	0.256805
618.312837	0.256953
618.521281	0.257254
618.729706	0.257059
618.938113	0.257028
619.146502	0.257312
619.354873	0.257157
619.563226	0.257434
619.771560	0.257478
619.979876	0.257687
620.188174	0.257976
620.396453	0.257849
620.604715	0.258102
620.812958	0.258494
621.021183	0.258945
621.229390	0.259335
621.437578	0.259230
621.645748	0.259411
621.853900	0.259380
622.062034	0.259279
622.270150	0.259387
622.478247	0.259623
622.686326	0.259693
622.894387	0.259711
623.102430	0.259867
623.310454	0.260005
623.518461	0.260293
623.726449	0.260586
623.934418	0.260824
624.142370	0.261273
624.350303	0.261252
624.558218	0.261205
624.766115	0.261175
624.973994	0.261361
625.181855	0.261565
625.389697	0.261592
625.597521	0.261869
625.805327	0.262091
626.013114	0.262063
626.220883	0.262410
626.428634	0.262394
626.636367	0.262559
626.844082	0.262700
627.051778	0.262963
627.259457	0.263273
627.467117	0.263335
627.674758	0.263465
627.882382	0.263584
628.089987	0.263282
628.297574	0.263691
628.505143	0.263990
628.712694	0.263802
628.920226	0.263714
629.127740	0.263696
629.335236	0.263875
629.542714	0.263868
629.750174	0.263950
629.957615	0.264378
630.165038	0.264459
630.372443	0.264610
630.579829	0.264903
630.787198	0.265287
630.994548	0.265506
631.201880	0.265619
631.409194	0.265796
631.616489	0.266030
631.823766	0.266354
632.031025	0.266622
632.238266	0.266726
632.445489	0.266969
632.652693	0.266950
632.859879	0.266952
633.067047	0.266915
633.274197	0.267265
633.481329	0.267570
633.688442	0.267620
633.895537	0.267619
634.102614	0.267591
634.309672	0.267645
634.516713	0.268210
634.723735	0.268307
634.930739	0.268738
635.137724	0.268822
635.344692	0.268795
635.551641	0.268663
635.758572	0.268838
635.965485	0.269021
636.172379	0.269206
636.379256	0.269041
636.586114	0.269284
636.792954	0.269148
636.999775	0.269050
637.206579	0.269141
637.413364	0.269557
637.620131	0.269816
637.826880	0.270079
638.033610	0.270254
638.240323	0.270444
638.447017	0.270407
638.653692	0.270592
638.860350	0.270715
639.066990	0.270903
639.273611	0.270852
639.480214	0.270924
639.686798	0.271345
639.893365	0.271519
640.099913	0.271468
640.306443	0.271736
640.512955	0.271745
640.719449	0.271998
640.925924	0.271888
641.132381	0.271991
641.338820	0.272073
641.545241	0.271854
641.751644	0.271912
641.958028	0.272014
642.164394	0.272168
642.370742	0.272363
642.577071	0.272393
642.783383	0.272799
642.989676	0.272870
643.195951	0.272762
643.402207	0.272922
643.608446	0.273072
643.814666	0.273294
644.020868	0.273337
644.227052	0.273458
644.433218	0.273807
644.639365	0.273776
644.845494	0.274268
645.051605	0.274794
645.257698	0.274944
645.463772	0.275057
645.669828	0.274985
645.875866	0.275091
646.081886	0.275540
646.287888	0.275600
646.493871	0.275591
646.699836	0.275528
646.905783	0.275468
647.111712	0.275671
647.317622	0.276082
647.523514	0.276455
647.729388	0.276864
647.935244	0.276961
648.141082	0.277228
648.346901	0.277620
648.552702	0.277990
648.758485	0.278314
648.964250	0.278623
649.169996	0.278694
649.375724	0.278972
649.581434	0.279124
649.787126	0.279170
649.992800	0.279375
650.198455	0.279665
650.404092	0.279806
650.609711	0.279808
650.815311	0.279920
651.020894	0.280131
651.226458	0.280196
651.432004	0.280422
651.637532	0.280589
651.843041	0.280657
652.048532	0.280937
652.254006	0.281019
652.459460	0.281204
652.664897	0.281194
652.870315	0.281185
653.075716	0.281455
653.281097	0.281419
653.486461	0.281820
653.691807	0.281961
653.897134	0.281733
654.102443	0.282034
654.307734	0.282327
654.513006	0.282451
654.718261	0.282627
654.923497	0.282662
655.128715	0.282862
655.333915	0.282909
655.539096	0.283240
655.744259	0.283607
655.949404	0.283903
656.154531	0.284096
656.359640	0.284512
656.564730	0.284615
656.769802	0.284923
656.974856	0.285131
657.179892	0.285208
657.384909	0.285382
657.589908	0.285366
657.794889	0.285384
657.999852	0.285753
658.204797	0.286095
658.409723	0.286438
658.614631	0.286749
658.819521	0.286998
659.024393	0.287335
659.229246	0.287546
659.434081	0.288156
659.638898	0.288282
659.843697	0.288280
660.048478	0.288291
660.253240	0.288622
660.457984	0.288694
660.662710	0.288685
660.867417	0.288916
661.072107	0.289175
661.276778	0.289078
661.481431	0.289302
661.686066	0.289577
661.890682	0.289687
662.095281	0.289690
662.299861	0.289758
662.504422	0.290236
662.708966	0.290200
662.913491	0.289991
663.117999	0.290229
663.322488	0.290345
663.526958	0.290736
663.731411	0.290948
663.935845	0.290914
664.140261	0.291065
664.344659	0.290944
664.549038	0.291061
664.753400	0.291119
664.957743	0.291295
665.162068	0.291656
665.366375	0.291536
665.570663	0.291654
665.774933	0.291948
665.979185	0.292037
666.183419	0.292386
666.387635	0.292488
666.591832	0.293008
666.796011	0.293345
667.000172	0.293282
667.204315	0.293477
667.408439	0.293606
667.612545	0.293827
667.816634	0.294271
668.020703	0.294475
668.224755	0.294752
668.428788	0.294940
668.632803	0.295132
668.836800	0.295442
669.040779	0.295655
669.244739	0.295734
669.448681	0.295835
669.652605	0.295987
669.856511	0.295956
670.060399	0.296098
670.264268	0.295978
670.468119	0.296257
670.671952	0.296523
670.875767	0.296670
671.079563	0.297221
671.283341	0.297388
671.487101	0.297738
671.690843	0.298269
671.894567	0.298507
672.098272	0.298999
672.301959	0.299159
672.505628	0.299026
672.709278	0.299009
672.912911	0.298906
673.116525	0.299075
673.320121	0.299244
673.523699	0.299286
673.727258	0.299400
673.930799	0.299633
674.134322	0.299738
674.337827	0.300351
674.541314	0.300881
674.744782	0.300966
674.948232	0.301406
675.151664	0.301325
675.355078	0.301797
675.558474	0.302198
675.761851	0.302430
675.965210	0.302420
676.168551	0.302148
676.371873	0.302140
676.575178	0.302505
676.778464	0.302618
676.981732	0.303102
677.184981	0.302857
677.388213	0.303109
677.591426	0.303253
677.794621	0.303349
677.997798	0.303840
678.200956	0.304048
678.404097	0.304241
678.607219	0.304214
678.810323	0.304060
679.013408	0.304068
679.216476	0.304113
679.419525	0.304196
679.622556	0.304528
679.825569	0.304661
680.028563	0.305113
680.231540	0.305302
680.434498	0.305862
680.637438	0.306377
680.840359	0.306657
681.043263	0.307090
681.246148	0.307398
681.449015	0.307660
681.651864	0.307959
681.854694	0.307841
682.057506	0.308165
682.260301	0.308167
682.463076	0.308136
682.665834	0.308653
682.868573	0.308597
683.071295	0.308528
683.273998	0.308602
683.476682	0.308522
683.679349	0.308888
683.881997	0.309082
684.084627	0.309305
684.287239	0.309540
684.489833	0.309662
684.692408	0.309785
684.894965	0.310168
685.097504	0.310387
685.300025	0.310558
685.502527	0.310671
685.705012	0.310686
685.907478	0.310933
686.109925	0.310910
686.312355	0.310793
686.514766	0.310988
686.717159	0.311008
686.919534	0.311368
687.121891	0.311567
687.324230	0.311722
687.526550	0.311904
687.728852	0.311762
687.931136	0.311983
688.133401	0.312310
688.335649	0.312622
688.537878	0.312828
688.740089	0.312687
688.942281	0.312769
689.144456	0.312745
689.346612	0.312978
689.548750	0.313150
689.750870	0.313400
689.952971	0.313508
690.155055	0.313360
690.357120	0.313459
690.559167	0.313723
690.761195	0.314077
690.963206	0.314392
691.165198	0.314148
691.367172	0.314441
691.569128	0.314221
691.771065	0.314165
691.972984	0.314606
692.174885	0.314680
692.376768	0.314840
692.578633	0.314958
692.780479	0.315032
692.982308	0.315488
693.184118	0.315519
693.385909	0.316133
