sample name	sample
index	1522
start time	 05-18-2021  03:30:52 PM
880	0.544647
Peak Time (s)	92.037
Peak Height 	0.5446
calc peak height	90,93
Baseline Time (s)	8.536
Baseline Value 	-0.00334
subtract baseline	10,4
Abs	0.373368
Peak Time (s)	90.035
Peak Height 	0.3734
calc peak height	90,93
Baseline Time (s)	9.041
Baseline Value 	0.002403
subtract baseline	10,3
PK_550	0.200578
Peak Time (s)	92.037
Peak Height 	0.2006
calc peak height	90,93
Baseline Time (s)	11.037
Baseline Value 	3.6931E-4
subtract baseline	10,2
PK_880	0.356482
Peak Time (s)	90.035
Peak Height 	0.3565
calc peak height	90,93
Baseline Time (s)	9.041
Baseline Value 	0.001696
subtract baseline	10,1


Time (s)	A880-A510	A880-A775	A880-A975	A880	I510	I775	I975	I880	
0.035500	-0.002557	-0.000145	0.000322	0.001562	6590.520785	44007.273208	4016.163675	22822.608319
0.539000	0.000133	0.000061	0.000340	0.003398	6597.551163	43853.816393	4011.903285	22739.054832
1.042500	-0.001670	-0.000931	-0.002267	0.002965	6586.281836	43801.263977	4006.829354	22758.710148
1.537500	-0.002867	-0.000701	-0.000363	0.003558	6571.620175	43767.247113	4009.886502	22731.788106
2.034500	-0.001114	0.001093	-0.001522	0.002033	6598.511713	44079.504770	4010.738808	22801.102534
2.538000	-0.003272	-0.000939	0.003677	0.000268	6595.274965	44054.341283	4027.137918	22881.661405
3.040500	0.000473	0.000642	0.004529	-0.000723	6634.461500	44297.824966	4031.521525	22927.039295
3.538000	-0.001940	-0.000438	-0.004119	0.000357	6605.522328	44093.233457	4008.590391	22877.593029
4.038000	-0.001045	-0.000815	-0.001005	-0.000371	6618.942009	44126.459978	4017.585189	22910.925916
4.538500	-0.000188	0.000177	0.000941	0.000122	6621.958790	44173.705190	4021.008749	22888.367009
5.035500	0.001203	-0.000448	0.000905	-0.000529	6638.933410	44176.203628	4022.462417	22918.176099
5.536500	-0.000625	0.000083	0.001739	-0.000051	6619.774294	44181.227510	4023.305255	22896.301408
6.036500	0.000571	-0.000239	0.001576	-0.000192	6630.872322	44164.075604	4023.252289	22902.756919
6.539500	0.000624	0.000301	0.002590	-0.000032	6629.981191	44200.036294	4025.272600	22895.427802
7.037500	-0.000971	-0.000279	0.000921	-0.000290	6618.888598	44169.476961	4021.935659	22907.220313
7.534500	-0.001187	0.000031	-0.007784	0.003333	6587.219905	43857.039292	3993.227360	22741.973255
8.041000	0.000721	0.000333	0.000829	-0.000013	6630.626811	44201.238389	4021.062697	22894.519099
8.535500	-0.001597	0.000557	0.003852	0.000000	6611.308354	44221.221089	4028.191728	22893.945252
9.041000	0.000000	0.000486	0.000000	0.000179	6623.048395	44197.529452	4018.657176	22885.757787
9.536500	-0.000394	-0.000273	-0.001772	0.000211	6619.516580	44122.704512	4014.418199	22884.296465
10.039000	-0.000949	-0.000034	0.002621	-0.000307	6619.210544	44194.351560	4025.998831	22908.017689
10.539000	0.001072	-0.000191	0.002603	-0.000179	6634.928311	44167.365631	4025.652250	22902.130037
11.037000	0.000727	0.000000	-0.002498	-0.000080	6631.230978	44176.048920	4013.400005	22897.603954
11.537500	0.000075	0.000359	-0.001665	0.001731	6610.821730	44038.834922	4011.112742	22814.903437
12.040500	-0.000066	-0.000173	0.000679	-0.000667	6629.522779	44215.273689	4022.255353	22924.505847
12.535000	-0.000322	-0.000071	-0.000837	-0.000110	6622.773387	44172.125748	4017.366625	22898.958816
13.034500	-0.000386	-0.000691	0.001694	-0.001159	6630.949498	44212.818740	4025.819567	22947.063609
13.536000	-0.004264	-0.001105	-0.001084	0.003460	6561.023346	43738.633070	4008.431784	22736.238294
14.036000	-0.001767	-0.000215	-0.002581	0.001751	6595.461778	43982.712381	4008.925251	22813.952919
14.536500	-0.002006	0.000468	-0.001718	0.002430	6587.918195	43983.113056	4009.354562	22783.032981
15.039500	0.000144	-0.000090	0.000244	-0.000297	6628.191320	44188.055159	4020.352698	22907.547738
15.536500	-0.001465	-0.000665	0.002344	0.003577	6582.937279	43768.782958	4016.178324	22730.894107
16.040000	0.000400	0.000275	0.002901	-0.000071	6628.443304	44201.212846	4026.101460	22897.186527
16.535500	-0.000843	0.000075	0.001451	-0.000251	6619.626316	44199.402030	4023.095712	22905.457287
17.040500	0.002354	0.000469	-0.000610	-0.002896	6668.359997	44488.334721	4024.479131	23026.947588
17.535000	0.000974	-0.000046	-0.000357	0.001452	6620.574365	44026.937632	4014.826320	22827.611784
18.038500	0.000370	0.000417	0.000899	0.001139	6618.160861	44100.175420	4018.514801	22841.890422
18.536000	-0.000916	-0.000640	0.001205	0.000231	6615.031379	44086.070979	4021.374352	22883.377565
19.035500	-0.000820	0.000236	0.000454	0.001069	6608.895788	44089.653848	4017.631166	22845.068349
19.536500	0.001366	0.000139	0.000502	0.001243	6625.558245	44064.168533	4017.336725	22837.161628
20.039000	0.000918	-0.000114	-0.001196	0.000619	6627.011496	44099.142533	4014.813548	22865.643442
20.537000	-0.001882	-0.000820	-0.003772	-0.000219	6610.758240	44111.629830	4010.742336	22903.951659
21.037000	-0.000212	-0.000142	-0.003568	0.000361	6619.781656	44120.891151	4009.865467	22877.426865
21.535000	0.000232	-0.000110	-0.000421	0.000920	6618.832174	44071.078965	4015.925437	22851.893856
22.035000	-0.001444	0.000249	0.003248	0.000503	6608.420281	44144.513977	4025.565767	22870.958325
22.535500	-0.000248	-0.000092	-0.001618	0.000136	6621.350622	44146.950506	4014.956749	22887.733659
23.041000	-0.001067	-0.000286	-0.000480	0.000010	6615.611978	44140.470594	4017.926142	22893.489225
23.536000	-0.001536	0.000323	-0.002796	0.001215	6601.778451	44084.130322	4009.674101	22838.410572
24.036000	-0.001689	0.000210	0.003647	0.000867	6603.388129	44106.248633	4025.647292	22854.286230
24.536000	-0.001553	-0.000895	0.000689	-0.000343	6614.508539	44116.269719	4021.510789	22909.642916
25.039500	-0.000837	-0.000484	0.000615	0.000394	6614.332052	44085.417141	4019.599492	22875.923222
25.537000	-0.000688	0.000067	-0.003260	0.000691	6613.108353	44109.397794	4009.816029	22862.342450
26.034500	-0.001323	-0.000283	0.002646	0.000749	6607.380481	44070.809706	4023.555750	22859.673938
26.535000	-0.000662	-0.000179	-0.001432	0.000521	6614.729395	44102.186225	4014.487846	22870.094501
27.040500	0.000709	-0.000211	0.000872	-0.002102	6647.927477	44347.896597	4026.107846	22990.374267
27.537500	0.002866	0.000684	0.007771	-0.000938	6656.226615	44322.256062	4039.795806	22936.906222
28.035500	-0.000615	-0.000709	0.000203	-0.001281	6630.061381	44222.690741	4022.580297	22952.668775
28.536500	0.001428	-0.000461	0.002582	-0.001057	6645.204331	44224.951505	4027.685333	22942.370307
29.036000	-0.000776	0.000470	-0.001759	0.000038	6617.786592	44209.384261	4014.854792	22892.194738
29.536500	-0.001332	-0.000365	0.004490	-0.000583	6618.318573	44189.109854	4031.096586	22920.632392
30.039000	0.000841	0.000265	-0.001398	-0.000072	6632.112326	44200.386980	4015.960518	22897.232581
30.537500	-0.001607	-0.000807	-0.001341	0.001441	6599.335895	43956.265243	4012.547923	22828.123903
31.037500	-0.004295	-0.001021	0.004274	0.002687	6567.069854	43818.982342	4022.822598	22771.363596
31.535000	-0.000079	-0.000122	0.005579	-0.000612	6628.961104	44214.906139	4033.765220	22921.976905
32.041000	0.001021	0.000069	0.000388	-0.000504	6637.208363	44222.783741	4021.180508	22917.019288
32.535500	0.001773	0.000197	0.001475	-0.000370	6642.359639	44222.188333	4023.433808	22910.890989
33.036000	-0.002458	-0.000160	0.003185	0.001333	6593.223625	44027.450093	4023.450109	22833.048191
33.536500	-0.002712	-0.000528	-0.001509	0.002531	6581.300081	43879.947855	4009.608294	22778.468878
34.036500	-0.003130	-0.000435	0.002851	0.000801	6592.065540	44051.639854	4023.918788	22857.319683
34.537000	-0.001666	-0.000997	0.000689	0.000461	6606.925873	44030.628204	4019.615346	22872.848082
35.034000	-0.000071	-0.000621	-0.002827	0.001657	6610.224579	43953.328411	4008.571009	22818.248406
35.537000	-0.000891	-0.001028	0.001305	0.000953	6609.266846	43981.423547	4019.908135	22850.389464
36.034500	-0.000070	-0.000244	-0.001816	0.001292	6613.250353	44023.302029	4011.785026	22834.900950
36.535000	-0.000826	-0.000075	-0.000729	0.001205	6607.716804	44047.451067	4014.532998	22838.860283
37.040500	-0.003908	-0.000422	0.002399	0.001965	6576.136453	43943.132898	4020.100327	22804.201710
37.536000	-0.000197	0.000173	0.000514	0.001894	6607.220842	44005.839446	4015.831519	22807.438508
38.041500	-0.000708	0.000005	-0.000322	0.001313	6607.809049	44044.838792	4015.236610	22833.965409
38.536500	0.000085	-0.000057	-0.002557	0.001100	6616.119650	44059.093673	4010.501688	22843.647673
39.039500	-0.000762	0.000723	0.000251	0.003549	6588.946484	43901.836129	4011.342202	22732.198766
39.537000	0.000312	0.000545	-0.001742	0.001498	6614.703307	44078.316059	4011.475109	22825.496542
40.034500	0.002450	-0.000261	-0.003468	0.001114	6635.636878	44038.484383	4008.344407	22843.031591
40.535000	0.000449	-0.000045	0.001044	0.001061	6619.463120	44063.977589	4019.040286	22845.465536
41.040500	0.000635	0.000545	0.002035	0.001361	6618.514428	44091.367215	4020.667727	22831.770216
41.535500	-0.000999	-0.000042	-0.002608	0.001276	6605.705732	44043.911924	4009.970953	22835.635606
42.035500	0.000627	0.000023	0.002493	0.001613	6616.360664	44018.193898	4021.151503	22820.245396
42.536000	0.000300	0.000256	0.003243	0.000968	6618.996803	44101.080736	4024.449523	22849.687261
43.038500	-0.001070	0.000141	-0.000896	0.001200	6605.752472	44068.397201	4014.153882	22839.104535
43.536500	-0.002509	-0.000605	-0.002157	-0.000274	6606.040622	44137.235391	4014.655164	22906.510410
44.042000	0.000101	0.000009	0.007281	-0.000493	6629.462501	44216.015528	4037.553024	22916.530387
44.537000	-0.001027	0.000075	-0.002226	-0.000571	6620.756436	44229.750002	4015.189359	22920.116447
45.034000	-0.000233	0.000528	0.002696	-0.000338	6625.404486	44250.575487	4026.249929	22909.416377
45.535000	-0.001566	0.000386	-0.005100	0.003549	6582.343390	43870.049542	3998.908662	22732.167689
46.034500	0.001496	0.001195	0.001422	0.000412	6633.538995	44242.624459	4021.460301	22875.095432
46.538000	0.000252	0.000420	-0.001569	-0.000542	6631.129394	44259.625284	4016.663684	22918.774370
47.035500	-0.001894	0.000082	0.002793	-0.000677	6614.446877	44240.377520	4027.282772	22924.941773
47.535500	-0.001479	0.000278	-0.000806	0.002547	6591.287950	43954.251361	4011.211239	22777.732503
48.035500	0.000791	0.000033	0.001829	0.000015	6630.971238	44170.157661	4023.359651	22893.238894
48.536500	-0.000289	0.000639	0.000833	-0.000194	6623.744263	44247.464722	4021.501029	22902.838649
49.036000	-0.003462	-0.000169	-0.004248	0.004511	6558.987323	43727.769583	3998.655912	22688.556107
49.537000	0.000492	-0.000786	-0.003911	0.000992	6620.384686	44000.527774	4007.596761	22848.603396
50.037000	-0.000420	-0.000520	0.002594	-0.002488	6641.726964	44355.179357	4031.116864	23008.114439
50.535000	0.002920	0.001209	0.007715	0.009080	6573.785648	43430.107606	4015.869165	22482.718281
51.038000	-0.001531	-0.013213	0.003142	0.040496	6292.199914	39385.766576	3934.779331	21124.419137
51.535500	-0.006452	-0.017649	-0.009190	0.233946	5092.892302	26089.603766	3580.571145	14616.016458
52.035500	-0.007871	-0.026425	-0.009083	-0.063378	7115.773392	47820.036213	4155.295914	26016.827500
52.536000	0.004064	-0.069618	0.003286	-0.239353	9332.376376	63829.729925	4784.590829	37506.902267
53.036000	0.001623	-0.069814	0.007857	-0.239895	9304.843763	63878.192138	4805.769722	37549.993573
53.536000	0.009396	-0.060150	0.024024	-0.226746	9227.533617	63391.958390	4818.387105	36520.144391
54.036500	0.008477	-0.035492	0.031630	-0.160933	8343.581479	57936.841277	4589.826683	31809.233514
54.537500	0.036970	-0.012023	0.041206	-0.113916	8121.340137	55040.126961	4458.193192	28855.048534
55.037500	0.035327	-0.011890	0.040946	-0.111852	8077.993805	54809.462603	4450.387901	28732.528964
55.535000	0.048762	-0.004083	0.054811	-0.109043	8203.254409	55408.620557	4487.886050	28566.792281
56.035000	0.077132	0.007911	0.087333	-0.084959	8254.637075	53971.264894	4517.152815	27188.523905
56.535500	0.105223	0.030319	0.119117	0.020558	7400.100357	45103.074898	4279.661441	21975.031883
57.035000	0.126526	0.046975	0.139114	0.101029	6842.397564	39356.859069	4112.827891	18768.679163
57.536000	0.151095	0.062759	0.165894	0.166686	6497.477555	35418.446504	4017.215540	16558.780695
58.036500	0.178647	0.080888	0.195394	0.224670	6262.240111	32580.606586	3952.399793	14866.413229
58.536500	0.205803	0.095803	0.214220	0.281044	6051.379018	29892.265850	3873.203215	13424.078441
59.036500	0.224906	0.109631	0.237638	0.329993	5850.143679	27807.298241	3823.130735	12314.907541
59.537000	0.249350	0.123680	0.264981	0.357835	5828.095454	27033.466229	3822.182479	11737.604852
60.038000	0.261723	0.135084	0.277587	0.395566	5668.911402	25623.018401	3775.753328	11012.048226
60.537500	0.278384	0.145525	0.289154	0.423546	5600.805507	24729.761197	3746.841941	10513.271651
61.035000	0.291704	0.152972	0.310715	0.450103	5523.371840	23796.649500	3738.256918	10068.679341
61.536000	0.303493	0.161354	0.312593	0.451252	5585.420308	24144.990675	3739.502472	10050.040059
62.036000	0.305812	0.169342	0.320052	0.481722	5424.496733	23080.931608	3701.144805	9573.598861
62.536000	0.309400	0.172609	0.313982	0.477939	5465.629318	23408.696359	3697.441521	9630.945593
63.037000	0.314862	0.178777	0.322588	0.481178	5478.174273	23546.465721	3706.160880	9581.814364
63.537000	0.321955	0.182046	0.329478	0.482345	5511.927558	23645.919017	3715.579274	9564.209164
64.044500	0.326058	0.185119	0.331715	0.486789	5509.973058	23580.965035	3711.933398	9497.560178
64.537500	0.328774	0.187268	0.337703	0.490992	5501.465269	23484.113411	3714.880016	9435.151750
65.035000	0.328721	0.188537	0.339733	0.495912	5473.228981	23313.087005	3710.113678	9362.874227
65.535500	0.334492	0.190027	0.344531	0.501074	5476.668945	23142.495772	3709.515551	9287.901542
66.036000	0.333147	0.190637	0.349431	0.504914	5447.533028	22993.666944	3711.258256	9232.707530
66.536000	0.335541	0.191713	0.340525	0.507439	5446.801783	22927.274932	3692.683377	9196.686579
67.036500	0.333305	0.194216	0.344770	0.509956	5420.402501	22926.613551	3695.460577	9160.985416
67.536000	0.337916	0.195535	0.347074	0.511119	5439.526092	22933.751877	3697.299817	9144.556640
68.037000	0.340104	0.197542	0.351845	0.514184	5434.647353	22885.367575	3700.059511	9101.468908
68.536000	0.338833	0.197890	0.342714	0.515152	5422.234764	22857.112624	3683.881063	9087.923751
69.037500	0.340278	0.198045	0.345374	0.518397	5412.305889	22716.674023	3682.954688	9042.736725
69.535000	0.338637	0.198041	0.350561	0.524857	5368.124159	22426.207080	3680.946236	8953.791345
70.038000	0.342688	0.198232	0.350737	0.523370	5398.238166	22501.202529	3683.572197	8974.144198
70.535500	0.341715	0.198552	0.356628	0.526142	5377.830697	22391.701266	3688.527490	8936.255693
71.036000	0.342828	0.199424	0.353721	0.527574	5376.101351	22366.798817	3681.644444	8916.768290
71.536000	0.346372	0.200645	0.354313	0.529795	5383.289590	22322.383978	3679.079420	8886.689676
72.036000	0.346325	0.200057	0.353404	0.530106	5381.339636	22282.506982	3677.163011	8882.481608
72.536000	0.347607	0.199835	0.352378	0.531014	5383.370965	22232.572077	3674.136744	8870.239484
73.035500	0.345827	0.201843	0.357233	0.538867	5331.557063	21976.174514	3669.472519	8765.361118
73.537000	0.351548	0.204831	0.358238	0.535593	5379.902393	22250.964532	3676.137828	8808.850879
74.038000	0.352118	0.203851	0.356288	0.534889	5386.831484	22238.775095	3674.190090	8818.247374
74.535000	0.354235	0.204365	0.361650	0.534896	5398.350867	22261.194799	3682.602459	8818.150788
75.035500	0.356095	0.205657	0.356966	0.534856	5408.774864	22320.217678	3675.301532	8818.692327
75.538500	0.350990	0.203541	0.352597	0.535638	5376.628688	22192.050034	3667.294650	8808.255854
76.035500	0.355393	0.204624	0.362074	0.532955	5415.373215	22358.760795	3686.351274	8844.140298
76.536500	0.353070	0.201579	0.357727	0.529276	5422.864277	22386.947466	3685.290854	8893.704299
77.036500	0.357008	0.205616	0.360159	0.533161	5423.156281	22393.739447	3682.988788	8841.378867
77.536000	0.355522	0.206822	0.372827	0.533466	5413.269255	22433.866218	3702.820255	8837.288082
78.037500	0.357609	0.206243	0.363134	0.533193	5426.302760	22420.215113	3687.658057	8840.945462
78.537000	0.357250	0.206046	0.367851	0.533770	5421.128509	22385.752164	3694.282570	8833.219195
79.035000	0.356947	0.204493	0.355757	0.532221	5428.019061	22385.582094	3677.535965	8853.994860
79.538000	0.355241	0.204939	0.361821	0.535775	5399.043227	22247.684155	3681.484115	8806.423915
80.035500	0.355610	0.203864	0.356633	0.533128	5415.617639	22317.335669	3677.487887	8841.821292
80.535500	0.353289	0.203155	0.355286	0.531717	5410.607029	22348.486729	3677.587142	8860.769562
81.036000	0.351451	0.203045	0.359480	0.534875	5383.275508	22203.825961	3679.214204	8818.434656
81.536500	0.353540	0.205564	0.369524	0.534657	5395.858260	22324.893987	3695.544649	8821.345228
82.036500	0.357421	0.205329	0.359201	0.534673	5417.082747	22313.769298	3679.093622	8821.135415
82.536500	0.355502	0.204381	0.362016	0.534867	5405.461040	22263.207893	3683.228386	8818.549656
83.037000	0.352370	0.203866	0.359737	0.539884	5361.143140	22020.061072	3671.781866	8751.924492
83.537500	0.353686	0.204136	0.364784	0.535314	5393.066534	22232.605806	3686.909809	8812.580487
84.040500	0.352449	0.203845	0.363485	0.535359	5386.074398	22217.750737	3684.773787	8811.972074
84.535500	0.353948	0.203409	0.370824	0.535686	5392.470767	22184.171370	3695.983789	8807.622236
85.035500	0.353553	0.204677	0.369819	0.542870	5351.448757	21925.314371	3682.911033	8712.641660
85.536000	0.357003	0.204640	0.365688	0.538243	5395.187837	22125.809690	3683.696394	8773.628870
86.036000	0.355424	0.203390	0.362934	0.537636	5389.880973	22097.618569	3680.305505	8781.679980
86.536500	0.353979	0.203133	0.370897	0.538485	5377.401090	22049.152492	3691.604848	8770.426487
87.037000	0.351814	0.202275	0.365424	0.543547	5338.521728	21791.976908	3674.937357	8703.768237
87.536500	0.354591	0.201780	0.367243	0.539258	5376.529426	21956.426081	3684.551471	8760.200095
88.037000	0.353114	0.201646	0.360601	0.539181	5368.949873	21953.926124	3674.224277	8761.216610
88.535000	0.355888	0.201734	0.360015	0.539526	5382.118214	21942.736396	3672.771813	8756.655455
89.035000	0.349111	0.199486	0.357569	0.543971	5321.896228	21653.895936	3662.121998	8698.220467
89.535000	0.354920	0.200979	0.366981	0.545039	5347.146961	21672.080984	3675.038643	8684.262993
90.035500	0.356482	0.200076	0.373368	0.542061	5371.587741	21761.255856	3689.835995	8723.249774
90.536000	0.353709	0.199527	0.367525	0.542061	5356.627109	21737.601499	3680.566294	8723.247880
91.035500	0.352621	0.199449	0.361298	0.542408	5348.924924	21719.361005	3670.285904	8718.697791
91.536500	0.351907	0.198657	0.366051	0.543644	5338.500136	21632.375066	3675.766527	8702.495525
92.037000	0.352896	0.200578	0.367912	0.544647	5338.422170	21671.670917	3677.110423	8689.377663
92.536500	0.353689	0.198758	0.361654	0.543882	5346.752780	21626.549780	3668.553648	8699.387925
93.034500	0.354610	0.200357	0.369552	0.545939	5340.679444	21606.950707	3677.656255	8672.540724
93.565000	0.352315	0.198564	0.365789	0.545439	5331.110707	21551.780670	3672.555660	8679.047162
94.035500	0.348724	0.198356	0.368744	0.545657	5310.944400	21533.664688	3676.831749	8676.214081
94.536000	0.353564	0.198765	0.364187	0.546893	5330.024363	21498.531514	3667.814265	8660.135293
95.036000	0.349776	0.198442	0.364751	0.547018	5309.310660	21479.464861	3668.492040	8658.503207
95.536500	0.355052	0.199140	0.365221	0.548243	5330.757931	21457.166080	3667.325687	8642.624907
96.036000	0.351401	0.197584	0.365806	0.547306	5316.365989	21430.921861	3669.680254	8654.767374
