sample name	sample
index	533
start time	 03-11-2021  04:49:23 PM
880	0.513494
Peak Time (s)	92.535
Peak Height 	0.5135
calc peak height	90,93
Baseline Time (s)	10.034
Baseline Value 	-0.004049
subtract baseline	10,4
Abs	0.314934
Peak Time (s)	92.535
Peak Height 	0.3149
calc peak height	90,93
Baseline Time (s)	9.537
Baseline Value 	0.003811
subtract baseline	10,3
PK_550	0.176011
Peak Time (s)	92.535
Peak Height 	0.176
calc peak height	90,93
Baseline Time (s)	10.536
Baseline Value 	2.2536E-4
subtract baseline	10,2
PK_880	0.304795
Peak Time (s)	92.535
Peak Height 	0.3048
calc peak height	90,93
Baseline Time (s)	10.034
Baseline Value 	0.001241
subtract baseline	10,1


Time (s)	A880-A510	A880-A775	A880-A975	A880	I510	I775	I975	I880	
0.034000	-0.001383	-0.000201	-0.003547	0.002078	7001.280125	45023.691222	3974.197176	23943.983499
0.535000	-0.003614	-0.000017	-0.003119	0.006915	6935.312628	44575.319269	3963.196562	23710.976309
1.035000	-0.003892	-0.000268	-0.002645	0.003640	6963.154389	44866.128036	3972.544035	23868.441482
1.537000	0.001349	0.000403	0.001655	0.001600	7031.574522	45128.571199	3988.531651	23967.105459
2.036000	0.000445	0.000255	0.002271	0.001127	7027.495212	45160.125021	3991.300657	23990.049608
2.539000	-0.000767	-0.000480	-0.003158	0.001701	7010.629439	45033.145813	3976.119972	23962.230198
3.039000	0.002374	-0.000450	-0.000177	-0.001562	7071.457272	45353.305901	3991.915619	24120.989859
3.537000	0.000269	-0.000405	-0.003789	0.000784	7029.082211	45129.435866	3976.839215	24006.748687
4.037000	-0.001535	0.000118	-0.003589	0.001376	7006.451263	45122.664522	3975.852797	23977.982761
4.534500	-0.001601	-0.000234	-0.006098	0.001044	7008.960916	45120.743366	3970.400352	23994.126011
5.035000	0.000432	-0.000549	0.001387	0.001181	7026.872814	45076.833205	3988.917824	23987.466340
5.535000	-0.000879	-0.000078	-0.001587	0.000205	7023.690613	45217.430981	3983.851192	24034.870074
6.035500	0.000811	-0.000139	0.000368	0.000105	7040.658958	45221.229751	3989.061851	24039.738293
6.536000	0.001772	-0.000035	0.000583	0.000576	7045.317434	45185.508327	3988.410758	24016.841130
7.036000	-0.000601	-0.000567	-0.004422	0.000046	7027.828818	45185.261829	3977.102103	24042.590750
7.539000	0.000026	0.000455	0.003112	0.000882	7025.852826	45203.412490	3994.072074	24001.963733
8.036500	-0.000699	0.000708	0.000046	0.000906	7018.773929	45225.746025	3986.211475	24000.821297
8.536500	-0.000427	-0.000046	-0.001902	0.000536	7024.844696	45188.409031	3982.219086	24018.798174
9.037000	0.000467	0.000111	0.002638	0.000279	7035.746769	45228.590844	3994.400392	24031.269030
9.537500	-0.000519	-0.000604	0.000000	-0.000174	7030.686109	45203.080627	3988.833976	24053.299000
10.034500	0.000000	0.000085	0.000472	0.000000	7033.961988	45253.201239	3989.592518	24044.848991
10.535500	0.000737	0.000000	-0.000480	-0.000326	7044.054504	45276.750328	3988.002792	24060.737641
11.035500	0.002475	0.000350	-0.000362	0.000379	7053.892271	45242.117016	3986.512234	24026.424304
11.536000	-0.001634	-0.000174	0.003213	-0.000248	7020.838115	45252.187871	3997.219147	24056.909126
12.038500	-0.000078	-0.000066	-0.001456	-0.000071	7033.890790	45245.401256	3984.878768	24048.293884
12.536500	0.000037	-0.000346	-0.004803	0.000979	7025.039414	45116.158299	3973.804083	23997.272838
13.036500	0.000540	-0.000284	-0.005178	-0.002343	7061.392671	45445.876781	3981.213733	24159.165814
13.537000	0.001982	-0.000046	-0.003152	0.000088	7051.969392	45231.930126	3980.194557	24040.583527
14.034500	-0.000141	-0.000084	-0.000304	-0.000410	7036.518678	45276.743864	3988.663198	24064.826348
14.534500	-0.001179	-0.000440	-0.001171	0.002271	7001.369357	44981.797287	3979.684478	23934.603066
15.035000	0.002082	0.000553	0.000815	0.000593	7048.102736	45241.063877	3988.956968	24016.014212
15.537000	0.000992	0.000165	0.002063	-0.000077	7044.115721	45268.605152	3993.842546	24048.612137
16.035500	-0.000275	-0.000105	0.002813	-0.000467	7035.785555	45280.232067	3996.754754	24067.583060
16.539000	0.000193	-0.000495	-0.001259	0.000001	7035.778588	45196.652426	3985.196965	24044.783628
17.036500	0.002567	0.000317	-0.001979	-0.000218	7060.457172	45297.094755	3983.928052	24055.453523
17.536500	0.004012	0.000126	0.001923	-0.003023	7101.215389	45552.734512	4001.027470	24192.494821
18.037000	0.001734	-0.000273	0.004148	-0.000517	7055.360937	45268.692805	4000.305370	24070.019648
18.537000	0.001408	0.000935	0.001203	0.001383	7034.202162	45201.389197	3987.935090	23977.650791
19.034500	0.000882	0.000286	0.003881	0.001097	7031.922506	45166.102194	3995.488544	23991.547623
19.534500	0.001248	0.000339	-0.003203	0.001078	7035.573346	45173.098155	3977.572280	23992.461381
20.035000	0.001226	0.000326	-0.004873	0.001240	7033.826312	45156.052781	3972.975223	23984.592169
20.535500	-0.001677	0.000424	-0.002503	0.001171	7007.047277	45172.326268	3979.099572	23987.944867
21.038500	-0.000864	0.000394	0.002333	0.001461	7011.972806	45141.193702	3990.609438	23973.863129
21.536000	0.000499	-0.000056	0.003400	0.001250	7026.839858	45117.928813	3993.867781	23984.086543
22.036000	0.000814	0.000687	0.001059	0.001157	7030.706416	45199.271896	3988.144186	23988.618522
22.536500	0.000384	0.000520	-0.002313	0.001313	7025.168321	45167.835080	3979.221067	23981.066989
23.034000	-0.001234	0.000192	-0.000194	0.001080	7012.077502	45158.539609	3985.160523	23992.341119
23.537500	-0.000140	0.000687	0.000131	0.001549	7017.972672	45161.049820	3984.795006	23969.577845
24.037500	0.000731	0.000247	-0.001140	0.000913	7032.231309	45180.105358	3983.188221	24000.443096
24.535000	-0.001417	0.000070	0.001777	0.001253	7008.722372	45129.918005	3989.724220	23983.954488
25.035500	0.000475	0.000171	0.001828	0.001060	7028.421472	45158.455819	3990.344518	23993.325297
25.538000	0.001373	0.001030	0.004513	0.001437	7033.356142	45205.398301	3996.233711	23975.048611
26.035500	0.000191	0.000563	0.000973	0.001414	7022.377880	45162.211101	3987.273479	23976.154159
26.536000	0.001225	0.000054	-0.000162	0.001169	7034.496785	45136.587815	3985.018372	23988.046899
27.036000	0.001017	0.000751	0.000794	0.001337	7030.931767	45187.988655	3987.014032	23979.886356
27.537000	0.000925	0.000566	0.000479	0.001645	7027.140064	45140.062212	3985.434600	23964.954243
28.034000	0.002605	0.000480	0.002976	-0.001014	7068.427595	45390.679112	3998.574990	24094.260934
28.537000	0.002253	0.000933	0.003051	0.000438	7051.213591	45293.262256	3995.052106	24023.562796
29.064500	0.000508	0.000090	-0.002731	-0.000168	7040.376588	45270.098791	3981.902025	24053.040337
29.535500	0.002283	-0.000004	0.003034	0.000070	7055.002874	45237.706248	3995.947308	24041.440225
30.038000	-0.000364	-0.000023	-0.004390	0.003890	6993.817126	44865.655529	3967.560872	23856.380409
30.535500	0.000142	0.000709	-0.001048	0.000848	7027.270848	45231.439071	3983.586496	24003.623277
31.036000	0.000965	-0.000001	0.002895	-0.000327	7046.234800	45276.686790	3996.606372	24060.770338
31.536500	-0.001315	-0.000679	-0.002578	0.001950	7003.108979	44989.726214	3976.949658	23950.142118
32.036500	-0.000878	0.000226	-0.000013	0.004770	6980.745725	44804.756135	3976.310132	23813.961764
32.537500	0.000158	0.000612	0.001462	0.000436	7031.328715	45262.083492	3991.001258	24023.648285
33.037000	0.001148	0.000583	0.002715	0.000491	7040.201436	45253.926543	3994.058165	24020.980162
33.534500	0.000260	0.000452	0.003261	0.000104	7035.446514	45278.849354	3996.442651	24039.801220
34.035000	-0.002268	-0.000244	-0.003380	0.003659	6978.140170	44866.660821	3970.657681	23867.522308
34.537000	0.001103	-0.000263	-0.002048	0.000067	7043.802471	45212.869901	3983.035018	24041.611774
35.035500	0.000905	0.000264	-0.000857	0.002069	7022.942273	45069.593493	3980.986683	23944.403698
35.536000	0.001756	0.001469	0.005762	0.003433	7018.088189	45054.146605	3994.325117	23878.435767
36.036000	-0.001610	0.000513	0.002524	0.003560	6985.228851	44949.317421	3985.765862	23872.311233
36.536500	-0.000430	0.000079	0.000839	0.001809	7012.779053	45076.801272	3985.930546	23956.984680
37.037000	0.000439	0.000650	0.003219	0.002377	7015.624140	45077.166057	3990.533182	23929.483584
37.537000	-0.001228	0.000058	0.001159	0.001559	7007.619625	45099.051969	3987.379033	23969.127958
38.037000	-0.000110	0.000373	-0.001911	0.001735	7016.497829	45112.509456	3979.170200	23960.575765
38.535000	0.000765	0.000636	-0.001901	0.002612	7016.483155	45053.041098	3976.988578	23918.126555
39.041000	-0.000249	0.000012	0.003669	0.001792	7014.648125	45071.987724	3993.170331	23957.804588
39.535500	-0.001270	0.000643	0.001994	0.002137	7001.779447	45099.701284	3988.029387	23941.103973
40.035500	-0.001581	0.000254	-0.003791	0.001667	7003.280970	45107.640940	3974.616865	23963.898623
40.535500	-0.000200	0.000645	-0.002080	0.002233	7010.958747	45090.651213	3977.491134	23936.453839
41.035500	0.000068	0.000415	-0.001761	0.001690	7018.609003	45121.078470	3979.663822	23962.784614
41.536500	0.001075	0.000932	-0.004023	0.002522	7020.268287	45090.472116	3971.893905	23922.490743
42.037000	-0.000304	0.000266	0.005719	0.001855	7013.542809	45090.574363	3998.250493	23954.767888
42.537500	0.001236	0.001262	-0.001171	0.002666	7020.420021	45108.440494	3978.689729	23915.482979
43.034500	0.001452	0.000607	0.004174	0.001931	7029.422982	45116.263640	3994.106708	23951.094172
43.537500	-0.000018	0.000740	-0.004680	0.002244	7012.570599	45098.800783	3970.945133	23935.916716
44.035500	-0.000687	0.000682	0.001660	0.004087	6988.936016	44914.691580	3982.243942	23846.872947
44.535500	-0.000603	0.000577	0.000138	0.001912	7010.182095	45115.140097	3983.894915	23951.983956
45.036000	0.004046	0.000503	0.000793	-0.002670	7098.143616	45555.049806	3997.224260	24175.182065
45.536000	0.002657	0.000840	0.005243	0.000711	7052.458882	45257.528913	3999.963590	24010.276876
46.066500	-0.001485	0.000425	-0.002021	0.005191	6971.139289	44783.479932	3970.226338	23793.730312
46.536500	0.001543	0.000478	0.002244	0.001511	7034.267727	45144.476459	3990.255110	23971.431139
47.045500	-0.000185	0.000780	0.002328	0.000396	7028.456898	45282.346547	3993.309246	24025.570646
47.537500	0.000443	0.000231	0.001873	0.000136	7036.872640	45254.190528	3992.814505	24038.225958
48.040000	-0.001179	0.000085	-0.002601	0.004541	6980.080243	44813.345088	3970.401179	23825.033207
48.535000	-0.000486	0.000750	-0.000051	0.004300	6988.829393	44900.762684	3977.398197	23836.636450
49.035000	0.001587	0.001046	-0.002046	0.003123	7019.416535	45043.182445	3975.341444	23893.390143
49.535500	0.003728	0.000861	0.007553	0.000924	7060.646356	45238.856672	4005.362465	23999.952058
50.036000	-0.003383	0.000389	-0.006659	0.005389	6951.620629	44760.919931	3958.212349	23784.224354
50.536000	0.000008	0.000616	-0.000279	0.005229	6984.748255	44798.170681	3974.490947	23791.898914
51.036500	0.001991	0.001036	0.002553	-0.001572	7067.892501	45499.679230	3998.921348	24121.491002
51.537000	0.000684	0.000710	0.004494	-0.000729	7047.383102	45385.260488	4001.739879	24080.348553
52.037000	-0.002841	-0.000202	-0.006110	0.008477	6928.031354	44408.334268	3951.958311	23636.332616
52.537000	0.010060	0.003613	0.006581	0.104734	6227.304135	36461.457683	3765.245217	19515.920347
53.034500	-0.029812	-0.006805	-0.016143	0.208440	5295.049751	28719.418666	3542.989234	15988.380218
53.535000	-0.038620	-0.016409	-0.013289	-0.055804	7200.181754	49260.043922	4101.847504	26942.804069
54.035500	-0.034572	-0.056573	-0.007986	-0.214561	9148.805992	63798.149937	4660.275859	37548.842994
54.536000	-0.004523	-0.023738	0.027170	-0.149221	8662.329385	59410.799071	4541.095912	32710.404750
55.036000	0.007787	-0.006024	0.029705	-0.073542	7882.131290	52357.517724	4284.442583	27944.720627
55.536000	0.031137	0.005725	0.047815	-0.065728	8063.006937	52807.064215	4318.009485	27498.274571
56.037000	0.063451	0.022353	0.072804	-0.018974	7894.678863	49466.522748	4247.976382	24988.698627
56.537000	0.099032	0.042697	0.100919	0.030036	7743.072437	46495.828367	4183.965602	22632.528471
57.040000	0.123442	0.059832	0.126891	0.084398	7421.353156	42919.453217	4101.781230	20311.989510
57.537000	0.156598	0.079083	0.158180	0.135023	7243.719593	40134.504792	4048.811191	18397.218339
58.035000	0.178354	0.093820	0.175935	0.163075	7181.429122	39012.077820	4021.546473	17428.465823
58.535000	0.194026	0.104717	0.197954	0.202980	6949.927944	36682.659340	3975.700730	16153.858536
59.035500	0.206582	0.113357	0.215220	0.249501	6646.438307	33865.786833	3904.665511	14808.492651
59.535500	0.217248	0.121442	0.227100	0.306919	6265.676271	30546.995450	3803.188824	13334.878308
60.036000	0.222082	0.127266	0.225878	0.329889	6128.662335	29479.105533	3753.456470	12797.826780
60.536000	0.239302	0.134603	0.244905	0.352118	6091.814005	28585.128280	3747.076806	12304.424440
61.036500	0.242025	0.137147	0.258209	0.377042	5933.532942	27298.013875	3724.324936	11780.440267
61.539500	0.242413	0.139664	0.264648	0.387471	5864.554889	26858.616023	3716.651863	11569.953903
62.039500	0.242882	0.141587	0.264726	0.437007	5549.518545	24377.006892	3627.165359	10636.401980
62.535000	0.257354	0.146085	0.271173	0.448556	5567.300549	24032.060170	3618.499190	10433.628075
63.035000	0.259380	0.150464	0.275392	0.444099	5607.183348	24465.232026	3633.294752	10511.243134
63.535500	0.269243	0.158944	0.284701	0.454434	5604.264444	24373.565638	3631.530341	10332.492071
64.035500	0.268905	0.159002	0.275685	0.455961	5592.737996	24301.245453	3613.631807	10306.430126
64.536000	0.275656	0.160787	0.286341	0.454116	5646.255947	24480.407092	3634.901916	10337.923428
65.041500	0.278757	0.164005	0.280392	0.454537	5663.159715	24619.449631	3623.987783	10330.731422
65.536500	0.280445	0.165355	0.287622	0.455769	5666.050850	24625.345596	3634.260582	10309.711742
66.048000	0.278958	0.166380	0.286356	0.461914	5618.131618	24371.419206	3621.586996	10205.735555
66.537000	0.286272	0.167789	0.293554	0.458858	5683.443762	24592.675904	3639.180105	10257.258975
67.034500	0.282905	0.166219	0.290040	0.457521	5670.531752	24581.090628	3635.409963	10279.912038
67.535000	0.286472	0.167624	0.292842	0.458703	5685.704050	24592.161374	3638.213759	10259.877437
68.035500	0.287120	0.167863	0.287521	0.462479	5665.824115	24416.710211	3622.605793	10196.245148
68.535000	0.287032	0.169060	0.293225	0.460041	5680.741712	24597.047670	3636.558965	10237.265678
69.036000	0.290752	0.169913	0.294477	0.459315	5709.196534	24675.893763	3639.988396	10249.528767
69.536000	0.290864	0.169831	0.294184	0.459214	5710.569348	24676.826893	3639.656084	10251.238130
70.035500	0.292938	0.171954	0.297544	0.461374	5710.015874	24675.001465	3641.742960	10214.816264
70.539000	0.291373	0.172076	0.297335	0.462408	5693.341164	24629.424135	3639.580790	10197.434534
71.034000	0.292403	0.172455	0.294600	0.462262	5700.870716	24655.631166	3635.096431	10199.887970
71.537500	0.295860	0.172837	0.295919	0.463326	5716.268613	24621.607875	3635.538584	10182.060057
72.034500	0.295787	0.172311	0.300655	0.463947	5711.790033	24564.467297	3642.679717	10171.660160
72.535000	0.291210	0.171479	0.301610	0.465617	5671.863013	24440.339373	3641.434541	10143.795360
73.035500	0.296236	0.171470	0.309612	0.466266	5699.777208	24407.841654	3654.347055	10132.991815
73.535500	0.295837	0.172852	0.300344	0.467887	5686.857441	24396.029069	3635.302601	10106.075547
74.036000	0.293767	0.170720	0.305415	0.473335	5639.298100	24025.115296	3634.651197	10016.355261
74.536000	0.296380	0.171818	0.303157	0.472680	5659.871039	24110.312118	3631.890832	10027.091067
75.039500	0.295444	0.174134	0.300748	0.475249	5637.812536	24097.978630	3623.381686	9985.104407
75.537000	0.293820	0.173461	0.310429	0.476698	5618.616711	23994.982255	3637.506462	9961.543695
76.036500	0.293930	0.173059	0.304566	0.480539	5595.498545	23790.444286	3620.883452	9899.447112
76.537500	0.296789	0.174634	0.303016	0.482719	5599.691248	23761.452714	3614.593283	9864.449084
77.035000	0.297746	0.174247	0.304661	0.483066	5603.462051	23726.303060	3616.775730	9858.888559
77.535000	0.300642	0.174476	0.308028	0.485065	5609.016500	23641.838995	3619.084630	9826.978158
78.035500	0.299370	0.173759	0.310273	0.486261	5593.753735	23550.948450	3620.858062	9807.952191
78.535500	0.297917	0.174470	0.306734	0.487980	5574.271884	23503.227837	3612.007447	9780.715746
79.035500	0.301325	0.175591	0.304545	0.491043	5576.383848	23411.577508	3603.271321	9732.422289
79.538500	0.299026	0.174668	0.308817	0.492264	5554.901251	23310.843563	3608.333151	9713.257201
80.036500	0.298236	0.174395	0.306323	0.494876	5534.306474	23176.092241	3599.882171	9672.463265
80.537000	0.295496	0.174782	0.313274	0.495204	5515.878060	23178.829925	3610.863627	9667.363098
81.037000	0.300043	0.174111	0.306353	0.495397	5542.076743	23138.659428	3599.073744	9664.353108
81.537500	0.299479	0.175110	0.310762	0.497165	5528.012924	23102.939158	3603.427898	9636.915785
82.035000	0.297094	0.174758	0.307746	0.499395	5500.397058	22983.526160	3594.805762	9602.458456
82.535500	0.298623	0.174715	0.300843	0.501087	5499.427120	22903.711854	3580.901649	9576.437631
83.038500	0.299234	0.174796	0.306198	0.500359	5507.406586	22940.876415	3590.713446	9587.614901
83.536000	0.295486	0.173083	0.305758	0.499902	5487.839999	22883.180090	3590.741091	9594.650038
84.042000	0.300921	0.176119	0.311585	0.502913	5502.235695	22884.346938	3595.329663	9548.462857
84.536500	0.299233	0.175862	0.304864	0.503644	5487.871867	22839.057782	3583.250743	9537.302642
85.036500	0.299186	0.174089	0.296582	0.503609	5487.799484	22759.668357	3570.121629	9537.836214
85.537000	0.296059	0.174270	0.308787	0.503753	5468.497578	22761.363413	3589.406955	9535.639005
86.037500	0.299536	0.175633	0.310402	0.505824	5476.774284	22729.103806	3588.668330	9504.113694
86.535000	0.301487	0.175284	0.309818	0.507002	5481.343973	22659.719171	3585.820208	9486.256811
87.038000	0.300618	0.174107	0.305833	0.506252	5480.635554	22640.381227	3580.620961	9497.619858
87.535500	0.300648	0.174571	0.309076	0.507525	5473.306947	22603.728174	3583.781633	9478.334356
88.035500	0.297085	0.173360	0.311768	0.507322	5453.595841	22558.155386	3588.454431	9481.403844
88.538500	0.301949	0.174949	0.313815	0.508733	5473.855974	22566.233160	3589.484193	9460.089100
89.039000	0.298303	0.172484	0.306049	0.507461	5459.908017	22512.433494	3579.033559	9479.307345
89.536500	0.302631	0.174568	0.308689	0.510288	5468.718681	22479.018300	3578.735279	9436.679544
90.037000	0.301143	0.175125	0.313346	0.510334	5459.714435	22502.011916	3586.136735	9435.987750
90.536500	0.298927	0.173535	0.312605	0.510212	5447.475912	22436.041984	3585.138526	9437.818368
91.037500	0.302701	0.175133	0.313559	0.511116	5464.260803	22467.180520	3585.217640	9424.242470
91.535000	0.302470	0.174765	0.313568	0.511431	5461.064225	22436.531044	3584.725155	9419.519900
92.035000	0.301275	0.175310	0.299009	0.512931	5445.314539	22393.735564	3559.333415	9397.070608
92.535500	0.304795	0.176011	0.314934	0.513494	5462.596578	22399.904231	3583.603574	9388.667854
93.038500	0.298969	0.174018	0.317943	0.512334	5435.379241	22362.690816	3590.340183	9406.000131
93.536500	0.300691	0.172706	0.301156	0.511571	5449.840897	22338.163242	3564.798563	9417.419972
94.036000	0.301184	0.174327	0.312954	0.515123	5432.056226	22252.224764	3577.825652	9364.420763
94.537000	0.300092	0.173032	0.309859	0.514319	5430.387604	22230.404203	3574.182168	9376.380760
95.039500	0.303251	0.173748	0.307720	0.513631	5452.761974	22292.799396	3571.882890	9386.630194
95.545500	0.302851	0.174655	0.314063	0.514334	5446.321237	22301.886583	3580.857323	9376.147514
96.054000	0.305205	0.174255	0.310731	0.515896	5450.941124	22214.675404	3573.063514	9352.934895
96.535000	0.304510	0.173436	0.312461	0.515722	5447.906507	22186.140976	3576.085873	9355.521890
97.040500	0.305009	0.174614	0.312517	0.515686	5451.025168	22239.951849	3576.232534	9356.057869
97.538500	0.302833	0.171978	0.312665	0.515056	5442.012078	22151.079671	3577.470944	9365.408522
98.051000	0.302305	0.174082	0.313583	0.517425	5425.216515	22139.381015	3575.162199	9330.287734
