sample name	sample
index	1409
start time	 05-10-2021  11:34:00 AM


Wavelength (nm)	Absorbance
494.344910	0.065262
494.563924	0.065262
494.782919	0.065262
495.001897	0.040249
495.220856	-0.007251
495.439797	-0.021195
495.658719	-0.036461
495.877624	-0.053593
496.096510	-0.058851
496.315378	-0.041197
496.534227	-0.028372
496.753059	-0.032879
496.971872	-0.021784
497.190667	0.045285
497.409444	0.076022
497.628203	0.088657
497.846943	0.096177
498.065665	0.097988
498.284369	0.098685
498.503055	0.098564
498.721723	0.099772
498.940372	0.100568
499.159003	0.100816
499.377616	0.099699
499.596210	0.099102
499.814787	0.099642
500.033345	0.100384
500.251885	0.100023
500.470406	0.101343
500.688910	0.101217
500.907395	0.100305
501.125862	0.100217
501.344311	0.100664
501.562742	0.100932
501.781154	0.100182
501.999548	0.100077
502.217924	0.101456
502.436282	0.100130
502.654621	0.100752
502.872942	0.102729
503.091245	0.103276
503.309530	0.103873
503.527797	0.104335
503.746045	0.103426
503.964275	0.103352
504.182487	0.102937
504.400681	0.103388
504.618856	0.102597
504.837013	0.101355
505.055152	0.100586
505.273273	0.100636
505.491376	0.100298
505.709460	0.101755
505.927526	0.101885
506.145574	0.101909
506.363604	0.101594
506.581615	0.101935
506.799608	0.103009
507.017583	0.103003
507.235540	0.103064
507.453478	0.102164
507.671399	0.101045
507.889301	0.101623
508.107185	0.100904
508.325050	0.100737
508.542898	0.100824
508.760727	0.099392
508.978538	0.100614
509.196330	0.100605
509.414105	0.101490
509.631861	0.102280
509.849599	0.101791
510.067319	0.102771
510.285021	0.103415
510.502704	0.104045
510.720369	0.105489
510.938016	0.104381
511.155645	0.103805
511.373255	0.104909
511.590848	0.104978
511.808422	0.105049
512.025977	0.104887
512.243515	0.106068
512.461034	0.105826
512.678536	0.105613
512.896018	0.106645
513.113483	0.107777
513.330930	0.107154
513.548358	0.106081
513.765768	0.106117
513.983160	0.106262
514.200533	0.105363
514.417889	0.106196
514.635226	0.106698
514.852545	0.106821
515.069845	0.107024
515.287128	0.107032
515.504392	0.108104
515.721638	0.108309
515.938866	0.107346
516.156075	0.107393
516.373267	0.107225
516.590440	0.106672
516.807594	0.106285
517.024731	0.105870
517.241850	0.105749
517.458950	0.105320
517.676032	0.105322
517.893095	0.106071
518.110141	0.106507
518.327168	0.106836
518.544177	0.107247
518.761168	0.107771
518.978141	0.107896
519.195095	0.108169
519.412031	0.108825
519.628949	0.109112
519.845849	0.109731
520.062731	0.109702
520.279594	0.109829
520.496439	0.109910
520.713266	0.108848
520.930074	0.108986
521.146865	0.109276
521.363637	0.109079
521.580391	0.109958
521.797127	0.109427
522.013844	0.110080
522.230543	0.109446
522.447224	0.109670
522.663887	0.110575
522.880532	0.111601
523.097158	0.111673
523.313766	0.111096
523.530356	0.110737
523.746928	0.110847
523.963481	0.110905
524.180017	0.111179
524.396534	0.111203
524.613032	0.111956
524.829513	0.111735
525.045975	0.112343
525.262420	0.113408
525.478845	0.113118
525.695253	0.114114
525.911643	0.113714
526.128014	0.114019
526.344367	0.113855
526.560702	0.113478
526.777018	0.113122
526.993316	0.112590
527.209597	0.113223
527.425858	0.114095
527.642102	0.113838
527.858328	0.114316
528.074535	0.114664
528.290724	0.114958
528.506894	0.114571
528.723047	0.114736
528.939181	0.115494
529.155297	0.115408
529.371395	0.115100
529.587475	0.114729
529.803536	0.114959
530.019579	0.115100
530.235604	0.114927
530.451611	0.115749
530.667600	0.116028
530.883570	0.115346
531.099522	0.115783
531.315456	0.115985
531.531372	0.116902
531.747269	0.116917
531.963148	0.116945
532.179009	0.117312
532.394852	0.117410
532.610676	0.117808
532.826482	0.118365
533.042271	0.118256
533.258040	0.119363
533.473792	0.119606
533.689525	0.119616
533.905240	0.120038
534.120937	0.120516
534.336616	0.120519
534.552277	0.120721
534.767919	0.121010
534.983543	0.121104
535.199149	0.120577
535.414736	0.120651
535.630306	0.121072
535.845857	0.120702
536.061390	0.121300
536.276904	0.121678
536.492401	0.121995
536.707879	0.122710
536.923339	0.122938
537.138781	0.122763
537.354204	0.122507
537.569610	0.122735
537.784997	0.123256
538.000366	0.123634
538.215716	0.123532
538.431049	0.123164
538.646363	0.122636
538.861659	0.122748
539.076937	0.123393
539.292196	0.123571
539.507438	0.123728
539.722661	0.123931
539.937866	0.123409
540.153052	0.124354
540.368221	0.124826
540.583371	0.124737
540.798503	0.125104
541.013617	0.124883
541.228712	0.125546
541.443789	0.125471
541.658848	0.125520
541.873889	0.126066
542.088912	0.126057
542.303916	0.125883
542.518902	0.126377
542.733870	0.126400
542.948820	0.126286
543.163752	0.126217
543.378665	0.126364
543.593560	0.126415
543.808437	0.126473
544.023295	0.126626
544.238136	0.126862
544.452958	0.126675
544.667762	0.127246
544.882548	0.127745
545.097315	0.127981
545.312064	0.128283
545.526795	0.128538
545.741508	0.128832
545.956203	0.129156
546.170879	0.129692
546.385537	0.130380
546.600177	0.130248
546.814799	0.130639
547.029402	0.130909
547.243988	0.131403
547.458555	0.132274
547.673103	0.132673
547.887634	0.132334
548.102146	0.132365
548.316640	0.132460
548.531116	0.132552
548.745574	0.132453
548.960013	0.132457
549.174435	0.132479
549.388838	0.132496
549.603222	0.132441
549.817589	0.132623
550.031937	0.132521
550.246267	0.132711
550.460579	0.132482
550.674873	0.132748
550.889148	0.132972
551.103405	0.133093
551.317644	0.132400
551.531865	0.132313
551.746068	0.132555
551.960252	0.132711
552.174418	0.132353
552.388566	0.132710
552.602696	0.132472
552.816807	0.132374
553.030900	0.132270
553.244975	0.132642
553.459032	0.132869
553.673070	0.132831
553.887091	0.133334
554.101093	0.133817
554.315077	0.133857
554.529042	0.134132
554.742990	0.134100
554.956919	0.134350
555.170830	0.134544
555.384722	0.134735
555.598597	0.134905
555.812453	0.134607
556.026291	0.134515
556.240111	0.134753
556.453913	0.134837
556.667696	0.135386
556.881461	0.135684
557.095208	0.135971
557.308937	0.135928
557.522647	0.136110
557.736339	0.136279
557.950013	0.136533
558.163669	0.136763
558.377307	0.136941
558.590926	0.137196
558.804527	0.137053
559.018110	0.137123
559.231675	0.137269
559.445221	0.137544
559.658749	0.138113
559.872259	0.138407
560.085751	0.138491
560.299225	0.138658
560.512680	0.138484
560.726117	0.138662
560.939536	0.138855
561.152937	0.138881
561.366319	0.138676
561.579683	0.138500
561.793029	0.138681
562.006357	0.138448
562.219667	0.138595
562.432958	0.138823
562.646231	0.139372
562.859486	0.139649
563.072723	0.139842
563.285941	0.140140
563.499141	0.140273
563.712323	0.140390
563.925487	0.140963
564.138632	0.140976
564.351760	0.140841
564.564869	0.140349
564.777960	0.140423
564.991032	0.140566
565.204087	0.141054
565.417123	0.140739
565.630141	0.140848
565.843140	0.140924
566.056122	0.141269
566.269085	0.141554
566.482030	0.141751
566.694957	0.141830
566.907866	0.141643
567.120756	0.141551
567.333628	0.142239
567.546482	0.142390
567.759318	0.142344
567.972135	0.142206
568.184935	0.142409
568.397716	0.142378
568.610478	0.142424
568.823223	0.142806
569.035949	0.142974
569.248657	0.142995
569.461347	0.143190
569.674019	0.143303
569.886672	0.143783
570.099308	0.143959
570.311925	0.144301
570.524523	0.144494
570.737104	0.144682
570.949666	0.144467
571.162210	0.144587
571.374736	0.144618
571.587244	0.144974
571.799733	0.144912
572.012205	0.145046
572.224658	0.145264
572.437092	0.145333
572.649509	0.145637
572.861907	0.145977
573.074287	0.145916
573.286649	0.146040
573.498993	0.145830
573.711318	0.146051
573.923625	0.146191
574.135914	0.146449
574.348185	0.146791
574.560438	0.146807
574.772672	0.146874
574.984888	0.147322
575.197086	0.146948
575.409266	0.147026
575.621427	0.147052
575.833570	0.146877
576.045695	0.146790
576.257802	0.146168
576.469890	0.146125
576.681961	0.146326
576.894013	0.146203
577.106046	0.147042
577.318062	0.147588
577.530059	0.147954
577.742039	0.148361
577.954000	0.148653
578.165942	0.149463
578.377867	0.149484
578.589773	0.149605
578.801661	0.149930
579.013531	0.149967
579.225382	0.150245
579.437216	0.150286
579.649031	0.150548
579.860828	0.150961
580.072606	0.151042
580.284367	0.151604
580.496109	0.151790
580.707833	0.151777
580.919539	0.151491
581.131227	0.151683
581.342896	0.152035
581.554547	0.152078
581.766180	0.152117
581.977795	0.152053
582.189391	0.151997
582.400969	0.152050
582.612529	0.152418
582.824071	0.153040
583.035595	0.153077
583.247100	0.152675
583.458587	0.152952
583.670056	0.152721
583.881506	0.153151
584.092939	0.153239
584.304353	0.153342
584.515749	0.153759
584.727127	0.153886
584.938486	0.153849
585.149828	0.154352
585.361151	0.154384
585.572456	0.154456
585.783742	0.154390
585.995011	0.154864
586.206261	0.155134
586.417493	0.155002
586.628706	0.154922
586.839902	0.154869
587.051079	0.155155
587.262238	0.155290
587.473379	0.155715
587.684502	0.156032
587.895606	0.155579
588.106692	0.155756
588.317760	0.155892
588.528810	0.155754
588.739841	0.156126
588.950855	0.156198
589.161850	0.156356
589.372827	0.156614
589.583785	0.156787
589.794726	0.157367
590.005648	0.157337
590.216552	0.157798
590.427437	0.158066
590.638305	0.158474
590.849154	0.158417
591.059985	0.158621
591.270798	0.158662
591.481592	0.158579
591.692369	0.158566
591.903127	0.158502
592.113867	0.158700
592.324588	0.159344
592.535292	0.158897
592.745977	0.158942
592.956644	0.158711
593.167293	0.158739
593.377923	0.158846
593.588536	0.158516
593.799130	0.159028
594.009706	0.158688
594.220263	0.158662
594.430803	0.159047
594.641324	0.159209
594.851827	0.159453
595.062312	0.159756
595.272778	0.159680
595.483227	0.160600
595.693657	0.160219
595.904069	0.160440
596.114462	0.160351
596.324838	0.160688
596.535195	0.160937
596.745534	0.161219
596.955855	0.161435
597.166157	0.161566
597.376441	0.161201
597.586707	0.162014
597.796955	0.162311
598.007185	0.162546
598.217396	0.162350
598.427589	0.162329
598.637764	0.162305
598.847921	0.161923
599.058060	0.162074
599.268180	0.162247
599.478282	0.162247
599.688366	0.162003
599.898431	0.161891
600.108479	0.162018
600.318508	0.162047
600.528519	0.162274
600.738511	0.162519
600.948486	0.162739
601.158442	0.162928
601.368380	0.162822
601.578300	0.163069
601.788202	0.163301
601.998085	0.163519
602.207950	0.163483
602.417797	0.163049
602.627626	0.163145
602.837436	0.163432
603.047228	0.163274
603.257002	0.163253
603.466758	0.163260
603.676496	0.163563
603.886215	0.163574
604.095916	0.163953
604.305599	0.164730
604.515264	0.164940
604.724910	0.164874
604.934538	0.165102
605.144148	0.165325
605.353740	0.165552
605.563314	0.165649
605.772869	0.165889
605.982406	0.166043
606.191925	0.165910
606.401425	0.165877
606.610908	0.166025
606.820372	0.166418
607.029818	0.166481
607.239246	0.166677
607.448655	0.166841
607.658047	0.166935
607.867420	0.167265
608.076775	0.167452
608.286111	0.167778
608.495430	0.167991
608.704730	0.167766
608.914012	0.168026
609.123275	0.168207
609.332521	0.167925
609.541748	0.167912
609.750957	0.167630
609.960148	0.167876
610.169321	0.168055
610.378475	0.168226
610.587611	0.168651
610.796729	0.168929
611.005829	0.169006
611.214910	0.169183
611.423974	0.169596
611.633019	0.170159
611.842045	0.169970
612.051054	0.169783
612.260044	0.169765
612.469017	0.169672
612.677970	0.169449
612.886906	0.169388
613.095824	0.169317
613.304723	0.169100
613.513604	0.169134
613.722467	0.169190
613.931311	0.169376
614.140138	0.169421
614.348946	0.169605
614.557736	0.169793
614.766507	0.169763
614.975261	0.170250
615.183996	0.170442
615.392713	0.170221
615.601412	0.170692
615.810092	0.170837
616.018754	0.171107
616.227399	0.171319
616.436024	0.171530
616.644632	0.171598
616.853222	0.171583
617.061793	0.171812
617.270346	0.171845
617.478880	0.171703
617.687397	0.171935
617.895895	0.172010
618.104375	0.172040
618.312837	0.171951
618.521281	0.172251
618.729706	0.172362
618.938113	0.172344
619.146502	0.172669
619.354873	0.173110
619.563226	0.172999
619.771560	0.173209
619.979876	0.173343
620.188174	0.173570
620.396453	0.173640
620.604715	0.173824
620.812958	0.174096
621.021183	0.174190
621.229390	0.174055
621.437578	0.174374
621.645748	0.174251
621.853900	0.174505
622.062034	0.174746
622.270150	0.174895
622.478247	0.175275
622.686326	0.175090
622.894387	0.175060
623.102430	0.175180
623.310454	0.175331
623.518461	0.175445
623.726449	0.175563
623.934418	0.175659
624.142370	0.175671
624.350303	0.175511
624.558218	0.175828
624.766115	0.176070
624.973994	0.176165
625.181855	0.175991
625.389697	0.175907
625.597521	0.175993
625.805327	0.176096
626.013114	0.176203
626.220883	0.176327
626.428634	0.176427
626.636367	0.176675
626.844082	0.176965
627.051778	0.177400
627.259457	0.178067
627.467117	0.178106
627.674758	0.178040
627.882382	0.178218
628.089987	0.178342
628.297574	0.178199
628.505143	0.178340
628.712694	0.178250
628.920226	0.178150
629.127740	0.177799
629.335236	0.177763
629.542714	0.177946
629.750174	0.177896
629.957615	0.177871
630.165038	0.177926
630.372443	0.177375
630.579829	0.177141
630.787198	0.177326
630.994548	0.177330
631.201880	0.177265
631.409194	0.177321
631.616489	0.177550
631.823766	0.177759
632.031025	0.177965
632.238266	0.178355
632.445489	0.178664
632.652693	0.178785
632.859879	0.179037
633.067047	0.179396
633.274197	0.179442
633.481329	0.179427
633.688442	0.179400
633.895537	0.179625
634.102614	0.180047
634.309672	0.180399
634.516713	0.180422
634.723735	0.180600
634.930739	0.180523
635.137724	0.180832
635.344692	0.181279
635.551641	0.181651
635.758572	0.181651
635.965485	0.181731
636.172379	0.181522
636.379256	0.181544
636.586114	0.181615
636.792954	0.182115
636.999775	0.182082
637.206579	0.181996
637.413364	0.181827
637.620131	0.182065
637.826880	0.182165
638.033610	0.182558
638.240323	0.182764
638.447017	0.183160
638.653692	0.183154
638.860350	0.183373
639.066990	0.183676
639.273611	0.183870
639.480214	0.184015
639.686798	0.184182
639.893365	0.184157
640.099913	0.184425
640.306443	0.184620
640.512955	0.184928
640.719449	0.185115
640.925924	0.185434
641.132381	0.185743
641.338820	0.185922
641.545241	0.185789
641.751644	0.186179
641.958028	0.186427
642.164394	0.186073
642.370742	0.185910
642.577071	0.186072
642.783383	0.185772
642.989676	0.185949
643.195951	0.185997
643.402207	0.186376
643.608446	0.186252
643.814666	0.186257
644.020868	0.186601
644.227052	0.186616
644.433218	0.186723
644.639365	0.187163
644.845494	0.187218
645.051605	0.187581
645.257698	0.187801
645.463772	0.188032
645.669828	0.188184
645.875866	0.188272
646.081886	0.188709
646.287888	0.188614
646.493871	0.188667
646.699836	0.188475
646.905783	0.188485
647.111712	0.188308
647.317622	0.188508
647.523514	0.188685
647.729388	0.188848
647.935244	0.188604
648.141082	0.188812
648.346901	0.188827
648.552702	0.189126
648.758485	0.189146
648.964250	0.189343
649.169996	0.189449
649.375724	0.189099
649.581434	0.189228
649.787126	0.189359
649.992800	0.189665
650.198455	0.189848
650.404092	0.189970
650.609711	0.190123
650.815311	0.190132
651.020894	0.190003
651.226458	0.190348
651.432004	0.190525
651.637532	0.190758
651.843041	0.190639
652.048532	0.190662
652.254006	0.190721
652.459460	0.190888
652.664897	0.191046
652.870315	0.191213
653.075716	0.191211
653.281097	0.191460
653.486461	0.191718
653.691807	0.192022
653.897134	0.192193
654.102443	0.192306
654.307734	0.192303
654.513006	0.192474
654.718261	0.192854
654.923497	0.193255
655.128715	0.193376
655.333915	0.193487
655.539096	0.193615
655.744259	0.193621
655.949404	0.193752
656.154531	0.194029
656.359640	0.194125
656.564730	0.194181
656.769802	0.194279
656.974856	0.194240
657.179892	0.194362
657.384909	0.194364
657.589908	0.194515
657.794889	0.194746
657.999852	0.195020
658.204797	0.195274
658.409723	0.195424
658.614631	0.195599
658.819521	0.195767
659.024393	0.195959
659.229246	0.196187
659.434081	0.196353
659.638898	0.196376
659.843697	0.196391
660.048478	0.196538
660.253240	0.196859
660.457984	0.196886
660.662710	0.196957
660.867417	0.197056
661.072107	0.197064
661.276778	0.197298
661.481431	0.197518
661.686066	0.197462
661.890682	0.197441
662.095281	0.197482
662.299861	0.197670
662.504422	0.198039
662.708966	0.198366
662.913491	0.198414
663.117999	0.198587
663.322488	0.198846
663.526958	0.199090
663.731411	0.199437
663.935845	0.199335
664.140261	0.199458
664.344659	0.199390
664.549038	0.199221
664.753400	0.199674
664.957743	0.199793
665.162068	0.199808
665.366375	0.199789
665.570663	0.199747
665.774933	0.200014
665.979185	0.200147
666.183419	0.200422
666.387635	0.200789
666.591832	0.200897
666.796011	0.201021
667.000172	0.201166
667.204315	0.201308
667.408439	0.201423
667.612545	0.201599
667.816634	0.201827
668.020703	0.201793
668.224755	0.201813
668.428788	0.202010
668.632803	0.202159
668.836800	0.202171
669.040779	0.202601
669.244739	0.202854
669.448681	0.203148
669.652605	0.203299
669.856511	0.203510
670.060399	0.203695
670.264268	0.203932
670.468119	0.203893
670.671952	0.204106
670.875767	0.204090
671.079563	0.204432
671.283341	0.204494
671.487101	0.204825
671.690843	0.205231
671.894567	0.205390
672.098272	0.205281
672.301959	0.205497
672.505628	0.205741
672.709278	0.206173
672.912911	0.206002
673.116525	0.205992
673.320121	0.205682
673.523699	0.205745
673.727258	0.205927
673.930799	0.206188
674.134322	0.206408
674.337827	0.206502
674.541314	0.206211
674.744782	0.206542
674.948232	0.206458
675.151664	0.206830
675.355078	0.206689
675.558474	0.206555
675.761851	0.206395
675.965210	0.206514
676.168551	0.206679
676.371873	0.207127
676.575178	0.207261
676.778464	0.207803
676.981732	0.207868
677.184981	0.208272
677.388213	0.208811
677.591426	0.209272
677.794621	0.209556
677.997798	0.209697
678.200956	0.209844
678.404097	0.209926
678.607219	0.209953
678.810323	0.210382
679.013408	0.210407
679.216476	0.210366
679.419525	0.210317
679.622556	0.210476
679.825569	0.210637
680.028563	0.210817
680.231540	0.211130
680.434498	0.211042
680.637438	0.211089
680.840359	0.211200
681.043263	0.211395
681.246148	0.211570
681.449015	0.211519
681.651864	0.211716
681.854694	0.211731
682.057506	0.211664
682.260301	0.211890
682.463076	0.212094
682.665834	0.212191
682.868573	0.212122
683.071295	0.212251
683.273998	0.212202
683.476682	0.212154
683.679349	0.212320
683.881997	0.212553
684.084627	0.212688
684.287239	0.212711
684.489833	0.212889
684.692408	0.213029
684.894965	0.213099
685.097504	0.213445
685.300025	0.213675
685.502527	0.213696
685.705012	0.213622
685.907478	0.213797
686.109925	0.213789
686.312355	0.213804
686.514766	0.214158
686.717159	0.214565
686.919534	0.214875
687.121891	0.215101
687.324230	0.215162
687.526550	0.215477
687.728852	0.215472
687.931136	0.215604
688.133401	0.215731
688.335649	0.215601
688.537878	0.215386
688.740089	0.215303
688.942281	0.215296
689.144456	0.215423
689.346612	0.215456
689.548750	0.215548
689.750870	0.215632
689.952971	0.215722
690.155055	0.215973
690.357120	0.216273
690.559167	0.216424
690.761195	0.216644
690.963206	0.216766
691.165198	0.216780
691.367172	0.216963
691.569128	0.217118
691.771065	0.217268
691.972984	0.217475
692.174885	0.217556
692.376768	0.217521
692.578633	0.217591
692.780479	0.217773
692.982308	0.218063
693.184118	0.218425
693.385909	0.218534
