sample name	sample
index	1347
start time	 05-03-2021  12:57:03 PM


Wavelength (nm)	Absorbance
494.344910	-0.180791
494.563924	-0.180791
494.782919	-0.180791
495.001897	-0.364960
495.220856	-0.159920
495.439797	-0.116898
495.658719	-0.065408
495.877624	-0.048942
496.096510	0.044809
496.315378	0.284777
496.534227	0.678701
496.753059	0.328178
496.971872	0.209637
497.190667	0.164201
497.409444	0.168139
497.628203	0.167657
497.846943	0.165873
498.065665	0.165754
498.284369	0.163052
498.503055	0.161270
498.721723	0.163834
498.940372	0.163760
499.159003	0.164277
499.377616	0.164831
499.596210	0.164596
499.814787	0.164807
500.033345	0.164550
500.251885	0.164759
500.470406	0.166267
500.688910	0.165840
500.907395	0.166493
501.125862	0.166964
501.344311	0.165246
501.562742	0.163105
501.781154	0.163141
501.999548	0.163256
502.217924	0.163269
502.436282	0.162415
502.654621	0.161821
502.872942	0.162365
503.091245	0.161478
503.309530	0.161469
503.527797	0.163831
503.746045	0.163240
503.964275	0.163102
504.182487	0.164049
504.400681	0.164194
504.618856	0.164102
504.837013	0.163393
505.055152	0.164767
505.273273	0.165803
505.491376	0.164440
505.709460	0.164054
505.927526	0.163996
506.145574	0.163114
506.363604	0.163052
506.581615	0.163294
506.799608	0.161701
507.017583	0.162038
507.235540	0.162322
507.453478	0.163541
507.671399	0.165438
507.889301	0.165286
508.107185	0.165784
508.325050	0.166541
508.542898	0.167159
508.760727	0.168382
508.978538	0.168521
509.196330	0.167573
509.414105	0.166903
509.631861	0.165599
509.849599	0.165854
510.067319	0.166421
510.285021	0.167382
510.502704	0.166385
510.720369	0.166706
510.938016	0.166050
511.155645	0.166484
511.373255	0.167044
511.590848	0.168087
511.808422	0.168932
512.025977	0.168860
512.243515	0.167827
512.461034	0.168163
512.678536	0.168560
512.896018	0.168426
513.113483	0.168257
513.330930	0.168427
513.548358	0.169156
513.765768	0.168645
513.983160	0.168199
514.200533	0.168181
514.417889	0.169611
514.635226	0.169847
514.852545	0.170547
515.069845	0.170563
515.287128	0.171781
515.504392	0.170906
515.721638	0.171707
515.938866	0.172311
516.156075	0.172654
516.373267	0.171927
516.590440	0.171957
516.807594	0.171930
517.024731	0.172222
517.241850	0.171413
517.458950	0.172010
517.676032	0.172761
517.893095	0.172284
518.110141	0.172695
518.327168	0.172205
518.544177	0.172295
518.761168	0.172470
518.978141	0.172129
519.195095	0.172070
519.412031	0.172176
519.628949	0.172045
519.845849	0.173096
520.062731	0.173307
520.279594	0.174050
520.496439	0.173967
520.713266	0.173825
520.930074	0.174604
521.146865	0.174894
521.363637	0.175124
521.580391	0.175307
521.797127	0.175092
522.013844	0.174643
522.230543	0.174476
522.447224	0.175551
522.663887	0.175649
522.880532	0.176434
523.097158	0.176830
523.313766	0.177019
523.530356	0.176931
523.746928	0.177225
523.963481	0.178492
524.180017	0.179002
524.396534	0.178905
524.613032	0.179790
524.829513	0.179335
525.045975	0.179443
525.262420	0.179835
525.478845	0.179921
525.695253	0.180052
525.911643	0.179754
526.128014	0.179561
526.344367	0.179299
526.560702	0.178935
526.777018	0.179287
526.993316	0.180190
527.209597	0.180644
527.425858	0.180635
527.642102	0.181276
527.858328	0.181498
528.074535	0.181937
528.290724	0.183164
528.506894	0.183825
528.723047	0.183843
528.939181	0.183014
529.155297	0.183142
529.371395	0.184032
529.587475	0.183593
529.803536	0.184038
530.019579	0.184922
530.235604	0.184769
530.451611	0.184711
530.667600	0.185546
530.883570	0.186423
531.099522	0.186474
531.315456	0.186312
531.531372	0.186962
531.747269	0.187873
531.963148	0.187724
532.179009	0.187991
532.394852	0.188200
532.610676	0.188424
532.826482	0.188737
533.042271	0.189431
533.258040	0.189742
533.473792	0.190246
533.689525	0.190271
533.905240	0.190758
534.120937	0.191156
534.336616	0.191840
534.552277	0.191833
534.767919	0.191663
534.983543	0.191706
535.199149	0.191879
535.414736	0.192053
535.630306	0.191971
535.845857	0.192085
536.061390	0.192253
536.276904	0.192479
536.492401	0.193009
536.707879	0.193407
536.923339	0.193502
537.138781	0.194075
537.354204	0.194293
537.569610	0.194250
537.784997	0.194321
538.000366	0.194402
538.215716	0.194321
538.431049	0.194684
538.646363	0.195340
538.861659	0.195402
539.076937	0.195643
539.292196	0.195736
539.507438	0.195774
539.722661	0.195991
539.937866	0.195852
540.153052	0.196206
540.368221	0.196783
540.583371	0.196698
540.798503	0.197770
541.013617	0.197588
541.228712	0.197880
541.443789	0.198326
541.658848	0.199201
541.873889	0.199812
542.088912	0.200038
542.303916	0.199914
542.518902	0.200481
542.733870	0.200476
542.948820	0.201236
543.163752	0.201354
543.378665	0.201555
543.593560	0.201387
543.808437	0.201666
544.023295	0.202222
544.238136	0.202557
544.452958	0.202463
544.667762	0.202829
544.882548	0.202892
545.097315	0.203363
545.312064	0.203821
545.526795	0.203801
545.741508	0.204186
545.956203	0.204368
546.170879	0.204778
546.385537	0.204995
546.600177	0.204440
546.814799	0.204411
547.029402	0.204362
547.243988	0.204470
547.458555	0.205030
547.673103	0.205085
547.887634	0.204788
548.102146	0.204534
548.316640	0.204477
548.531116	0.204780
548.745574	0.205171
548.960013	0.205368
549.174435	0.205884
549.388838	0.206582
549.603222	0.206655
549.817589	0.207067
550.031937	0.207098
550.246267	0.207747
550.460579	0.208003
550.674873	0.208358
550.889148	0.209076
551.103405	0.209260
551.317644	0.209270
551.531865	0.209538
551.746068	0.209670
551.960252	0.210790
552.174418	0.210865
552.388566	0.210934
552.602696	0.211034
552.816807	0.210414
553.030900	0.210460
553.244975	0.210225
553.459032	0.210496
553.673070	0.210933
553.887091	0.210085
554.101093	0.210658
554.315077	0.211182
554.529042	0.211501
554.742990	0.212033
554.956919	0.212224
555.170830	0.212621
555.384722	0.212827
555.598597	0.212795
555.812453	0.213695
556.026291	0.213385
556.240111	0.213673
556.453913	0.213853
556.667696	0.214285
556.881461	0.214539
557.095208	0.215087
557.308937	0.215277
557.522647	0.215885
557.736339	0.215782
557.950013	0.216054
558.163669	0.215959
558.377307	0.215590
558.590926	0.215881
558.804527	0.215951
559.018110	0.215708
559.231675	0.215722
559.445221	0.215561
559.658749	0.215860
559.872259	0.216144
560.085751	0.216101
560.299225	0.216551
560.512680	0.216391
560.726117	0.216604
560.939536	0.216222
561.152937	0.216337
561.366319	0.216458
561.579683	0.216709
561.793029	0.216494
562.006357	0.217187
562.219667	0.217234
562.432958	0.217699
562.646231	0.217859
562.859486	0.218682
563.072723	0.218980
563.285941	0.219418
563.499141	0.219313
563.712323	0.219962
563.925487	0.219949
564.138632	0.220441
564.351760	0.220495
564.564869	0.220451
564.777960	0.220789
564.991032	0.220880
565.204087	0.221071
565.417123	0.220918
565.630141	0.220864
565.843140	0.220671
566.056122	0.220789
566.269085	0.221117
566.482030	0.221431
566.694957	0.221381
566.907866	0.221638
567.120756	0.221274
567.333628	0.221785
567.546482	0.222067
567.759318	0.222444
567.972135	0.222307
568.184935	0.222126
568.397716	0.222033
568.610478	0.222134
568.823223	0.222401
569.035949	0.222497
569.248657	0.222335
569.461347	0.222459
569.674019	0.222178
569.886672	0.222522
570.099308	0.222899
570.311925	0.223166
570.524523	0.222717
570.737104	0.222479
570.949666	0.222802
571.162210	0.223309
571.374736	0.223098
571.587244	0.223832
571.799733	0.223723
572.012205	0.223617
572.224658	0.223729
572.437092	0.224361
572.649509	0.224711
572.861907	0.225115
573.074287	0.225462
573.286649	0.225810
573.498993	0.225545
573.711318	0.225706
573.923625	0.226281
574.135914	0.226748
574.348185	0.227106
574.560438	0.227038
574.772672	0.227245
574.984888	0.227414
575.197086	0.227216
575.409266	0.227865
575.621427	0.228236
575.833570	0.227958
576.045695	0.227802
576.257802	0.227473
576.469890	0.227921
576.681961	0.227726
576.894013	0.227517
577.106046	0.228111
577.318062	0.227881
577.530059	0.228004
577.742039	0.228317
577.954000	0.228380
578.165942	0.228722
578.377867	0.228375
578.589773	0.228586
578.801661	0.228504
579.013531	0.228474
579.225382	0.228487
579.437216	0.228324
579.649031	0.227965
579.860828	0.227902
580.072606	0.227880
580.284367	0.228413
580.496109	0.228439
580.707833	0.228333
580.919539	0.228460
581.131227	0.228637
581.342896	0.228640
581.554547	0.229171
581.766180	0.229591
581.977795	0.230009
582.189391	0.229996
582.400969	0.230455
582.612529	0.230926
582.824071	0.231182
583.035595	0.231339
583.247100	0.231950
583.458587	0.232162
583.670056	0.232093
583.881506	0.232088
584.092939	0.232214
584.304353	0.231855
584.515749	0.231598
584.727127	0.231695
584.938486	0.231955
585.149828	0.232190
585.361151	0.231966
585.572456	0.232156
585.783742	0.232069
585.995011	0.232401
586.206261	0.232748
586.417493	0.233439
586.628706	0.233544
586.839902	0.233354
587.051079	0.232949
587.262238	0.233242
587.473379	0.233600
587.684502	0.234029
587.895606	0.233877
588.106692	0.234153
588.317760	0.234384
588.528810	0.234587
588.739841	0.234867
588.950855	0.235340
589.161850	0.235880
589.372827	0.236077
589.583785	0.235968
589.794726	0.236021
590.005648	0.236087
590.216552	0.236007
590.427437	0.236225
590.638305	0.236492
590.849154	0.236522
591.059985	0.236581
591.270798	0.236584
591.481592	0.236925
591.692369	0.237062
591.903127	0.237124
592.113867	0.237357
592.324588	0.236977
592.535292	0.237042
592.745977	0.237102
592.956644	0.236875
593.167293	0.237055
593.377923	0.236922
593.588536	0.237350
593.799130	0.237368
594.009706	0.237559
594.220263	0.237873
594.430803	0.238081
594.641324	0.238518
594.851827	0.238316
595.062312	0.238295
595.272778	0.238302
595.483227	0.238488
595.693657	0.238813
595.904069	0.238651
596.114462	0.238940
596.324838	0.238906
596.535195	0.238582
596.745534	0.239130
596.955855	0.239272
597.166157	0.239852
597.376441	0.239728
597.586707	0.239686
597.796955	0.239637
598.007185	0.239591
598.217396	0.240006
598.427589	0.239861
598.637764	0.240293
598.847921	0.240587
599.058060	0.240418
599.268180	0.240477
599.478282	0.240735
599.688366	0.241321
599.898431	0.241215
600.108479	0.241249
600.318508	0.242004
600.528519	0.241884
600.738511	0.242115
600.948486	0.242370
601.158442	0.242517
601.368380	0.242623
601.578300	0.242845
601.788202	0.243131
601.998085	0.243245
602.207950	0.242911
602.417797	0.243214
602.627626	0.243441
602.837436	0.243726
603.047228	0.244266
603.257002	0.244331
603.466758	0.244172
603.676496	0.244822
603.886215	0.244988
604.095916	0.245458
604.305599	0.245432
604.515264	0.245417
604.724910	0.245578
604.934538	0.245508
605.144148	0.246011
605.353740	0.245764
605.563314	0.245398
605.772869	0.245365
605.982406	0.245333
606.191925	0.245189
606.401425	0.245019
606.610908	0.244742
606.820372	0.244590
607.029818	0.244617
607.239246	0.245329
607.448655	0.245656
607.658047	0.245616
607.867420	0.245493
608.076775	0.245642
608.286111	0.245705
608.495430	0.246316
608.704730	0.246677
608.914012	0.246769
609.123275	0.246358
609.332521	0.246528
609.541748	0.246824
609.750957	0.246878
609.960148	0.247063
610.169321	0.247209
610.378475	0.247265
610.587611	0.246941
610.796729	0.246946
611.005829	0.247219
611.214910	0.247249
611.423974	0.247401
611.633019	0.248072
611.842045	0.248305
612.051054	0.248640
612.260044	0.248347
612.469017	0.248741
612.677970	0.248721
612.886906	0.249114
613.095824	0.249169
613.304723	0.249127
613.513604	0.249174
613.722467	0.249295
613.931311	0.249256
614.140138	0.249841
614.348946	0.249821
614.557736	0.250183
614.766507	0.249984
614.975261	0.250043
615.183996	0.250399
615.392713	0.250225
615.601412	0.250395
615.810092	0.250520
616.018754	0.250245
616.227399	0.250129
616.436024	0.250038
616.644632	0.250088
616.853222	0.250216
617.061793	0.250298
617.270346	0.250385
617.478880	0.250414
617.687397	0.250131
617.895895	0.250325
618.104375	0.250917
618.312837	0.251007
618.521281	0.251343
618.729706	0.251648
618.938113	0.251423
619.146502	0.251821
619.354873	0.251662
619.563226	0.252093
619.771560	0.252334
619.979876	0.252111
620.188174	0.252384
620.396453	0.252366
620.604715	0.252313
620.812958	0.252908
621.021183	0.253075
621.229390	0.253240
621.437578	0.253473
621.645748	0.253311
621.853900	0.253678
622.062034	0.253523
622.270150	0.253728
622.478247	0.254077
622.686326	0.253612
622.894387	0.253554
623.102430	0.254069
623.310454	0.254289
623.518461	0.254586
623.726449	0.254894
623.934418	0.255212
624.142370	0.255412
624.350303	0.255237
624.558218	0.255688
624.766115	0.255934
624.973994	0.255912
625.181855	0.256051
625.389697	0.256442
625.597521	0.256459
625.805327	0.256642
626.013114	0.256743
626.220883	0.256906
626.428634	0.256875
626.636367	0.256749
626.844082	0.256889
627.051778	0.256824
627.259457	0.256560
627.467117	0.256503
627.674758	0.256609
627.882382	0.256893
628.089987	0.256985
628.297574	0.257207
628.505143	0.257487
628.712694	0.257682
628.920226	0.258165
629.127740	0.258309
629.335236	0.258824
629.542714	0.258933
629.750174	0.258925
629.957615	0.259165
630.165038	0.259459
630.372443	0.259631
630.579829	0.259738
630.787198	0.259646
630.994548	0.259851
631.201880	0.259752
631.409194	0.259939
631.616489	0.260065
631.823766	0.260230
632.031025	0.260586
632.238266	0.261048
632.445489	0.261129
632.652693	0.261109
632.859879	0.261269
633.067047	0.261221
633.274197	0.261309
633.481329	0.261352
633.688442	0.261425
633.895537	0.261358
634.102614	0.261232
634.309672	0.261196
634.516713	0.261318
634.723735	0.261583
634.930739	0.261603
635.137724	0.261986
635.344692	0.262073
635.551641	0.262224
635.758572	0.262581
635.965485	0.262606
636.172379	0.262684
636.379256	0.262669
636.586114	0.262677
636.792954	0.263028
636.999775	0.262779
637.206579	0.262742
637.413364	0.262931
637.620131	0.262688
637.826880	0.262583
638.033610	0.262920
638.240323	0.263156
638.447017	0.263312
638.653692	0.263130
638.860350	0.263269
639.066990	0.263582
639.273611	0.263492
639.480214	0.263587
639.686798	0.263996
639.893365	0.264040
640.099913	0.264334
640.306443	0.264697
640.512955	0.265346
640.719449	0.265502
640.925924	0.265819
641.132381	0.265855
641.338820	0.266121
641.545241	0.266336
641.751644	0.266647
641.958028	0.266853
642.164394	0.266742
642.370742	0.266901
642.577071	0.267191
642.783383	0.267448
642.989676	0.268127
643.195951	0.268436
643.402207	0.268452
643.608446	0.268574
643.814666	0.268508
644.020868	0.269073
644.227052	0.269048
644.433218	0.268811
644.639365	0.268651
644.845494	0.268596
645.051605	0.268774
645.257698	0.269027
645.463772	0.269238
645.669828	0.269581
645.875866	0.269392
646.081886	0.269617
646.287888	0.270259
646.493871	0.270688
646.699836	0.270799
646.905783	0.271039
647.111712	0.271178
647.317622	0.271190
647.523514	0.271245
647.729388	0.271288
647.935244	0.271515
648.141082	0.271334
648.346901	0.271392
648.552702	0.271684
648.758485	0.271790
648.964250	0.272231
649.169996	0.272392
649.375724	0.272718
649.581434	0.273086
649.787126	0.273424
649.992800	0.273683
650.198455	0.273930
650.404092	0.274052
650.609711	0.274217
650.815311	0.274064
651.020894	0.274401
651.226458	0.274695
651.432004	0.274872
651.637532	0.274831
651.843041	0.274931
652.048532	0.275194
652.254006	0.275610
652.459460	0.275686
652.664897	0.276002
652.870315	0.276180
653.075716	0.276223
653.281097	0.276498
653.486461	0.276614
653.691807	0.277003
653.897134	0.277087
654.102443	0.276978
654.307734	0.277013
654.513006	0.277092
654.718261	0.277152
654.923497	0.277119
655.128715	0.277426
655.333915	0.277750
655.539096	0.277966
655.744259	0.278078
655.949404	0.278171
656.154531	0.278691
656.359640	0.279164
656.564730	0.279522
656.769802	0.279792
656.974856	0.279931
657.179892	0.280292
657.384909	0.280411
657.589908	0.280636
657.794889	0.280932
657.999852	0.280960
658.204797	0.280690
658.409723	0.280652
658.614631	0.280803
658.819521	0.280796
659.024393	0.280775
659.229246	0.280822
659.434081	0.281011
659.638898	0.281153
659.843697	0.281128
660.048478	0.281316
660.253240	0.281391
660.457984	0.281707
660.662710	0.281628
660.867417	0.281573
661.072107	0.281890
661.276778	0.281641
661.481431	0.281778
661.686066	0.281975
661.890682	0.282431
662.095281	0.282727
662.299861	0.282931
662.504422	0.283309
662.708966	0.283677
662.913491	0.283725
663.117999	0.284364
663.322488	0.284755
663.526958	0.284897
663.731411	0.284905
663.935845	0.285328
664.140261	0.285471
664.344659	0.285717
664.549038	0.285960
664.753400	0.286146
664.957743	0.286401
665.162068	0.286093
665.366375	0.286282
665.570663	0.286408
665.774933	0.286378
665.979185	0.286552
666.183419	0.286603
666.387635	0.286772
666.591832	0.287055
666.796011	0.287108
667.000172	0.287677
667.204315	0.287834
667.408439	0.288277
667.612545	0.288416
667.816634	0.288620
668.020703	0.288824
668.224755	0.288932
668.428788	0.289317
668.632803	0.289453
668.836800	0.289485
669.040779	0.289793
669.244739	0.289751
669.448681	0.290107
669.652605	0.290338
669.856511	0.290459
670.060399	0.290645
670.264268	0.290702
670.468119	0.291054
670.671952	0.291691
670.875767	0.291996
671.079563	0.292363
671.283341	0.292573
671.487101	0.292838
671.690843	0.293218
671.894567	0.293543
672.098272	0.293763
672.301959	0.293814
672.505628	0.293945
672.709278	0.294002
672.912911	0.294054
673.116525	0.294177
673.320121	0.294173
673.523699	0.294504
673.727258	0.294746
673.930799	0.295082
674.134322	0.295242
674.337827	0.295335
674.541314	0.295328
674.744782	0.295581
674.948232	0.295579
675.151664	0.295791
675.355078	0.295813
675.558474	0.295832
675.761851	0.295731
675.965210	0.296071
676.168551	0.296110
676.371873	0.296660
676.575178	0.296830
676.778464	0.297038
676.981732	0.297301
677.184981	0.297300
677.388213	0.297445
677.591426	0.297692
677.794621	0.298075
677.997798	0.298156
678.200956	0.298170
678.404097	0.298466
678.607219	0.298615
678.810323	0.298910
679.013408	0.299304
679.216476	0.299631
679.419525	0.299974
679.622556	0.299705
679.825569	0.300212
680.028563	0.300689
680.231540	0.300757
680.434498	0.300974
680.637438	0.300863
680.840359	0.301089
681.043263	0.301060
681.246148	0.301250
681.449015	0.301881
681.651864	0.301754
681.854694	0.301725
682.057506	0.302001
682.260301	0.302266
682.463076	0.302749
682.665834	0.303017
682.868573	0.303485
683.071295	0.303562
683.273998	0.303612
683.476682	0.304069
683.679349	0.304467
683.881997	0.304690
684.084627	0.304937
684.287239	0.305084
684.489833	0.305136
684.692408	0.305255
684.894965	0.305658
685.097504	0.305939
685.300025	0.306190
685.502527	0.306214
685.705012	0.306309
685.907478	0.306555
686.109925	0.306950
686.312355	0.306997
686.514766	0.307057
686.717159	0.307199
686.919534	0.307083
687.121891	0.307032
687.324230	0.307385
687.526550	0.307768
687.728852	0.307970
687.931136	0.307993
688.133401	0.308338
688.335649	0.308681
688.537878	0.308828
688.740089	0.309157
688.942281	0.309286
689.144456	0.309285
689.346612	0.309156
689.548750	0.309574
689.750870	0.309924
689.952971	0.310058
690.155055	0.310004
690.357120	0.309900
690.559167	0.309954
690.761195	0.310170
690.963206	0.310247
691.165198	0.310547
691.367172	0.310377
691.569128	0.310499
691.771065	0.310728
691.972984	0.310958
692.174885	0.311366
692.376768	0.311696
692.578633	0.312045
692.780479	0.312383
692.982308	0.312405
693.184118	0.312614
693.385909	0.312781
