sample name	sample
index	869
start time	 04-08-2021  01:21:50 PM


Wavelength (nm)	Absorbance
494.344910	0.042112
494.563924	0.042112
494.782919	0.042112
495.001897	-0.014253
495.220856	0.007476
495.439797	-0.001495
495.658719	-0.010793
495.877624	-0.018269
496.096510	-0.018357
496.315378	-0.021103
496.534227	-0.019928
496.753059	-0.011916
496.971872	-0.011490
497.190667	0.065751
497.409444	0.111449
497.628203	0.129717
497.846943	0.140031
498.065665	0.146451
498.284369	0.152188
498.503055	0.156477
498.721723	0.158435
498.940372	0.160313
499.159003	0.160095
499.377616	0.160686
499.596210	0.161441
499.814787	0.161803
500.033345	0.162861
500.251885	0.162253
500.470406	0.161605
500.688910	0.163873
500.907395	0.163787
501.125862	0.163827
501.344311	0.163469
501.562742	0.164689
501.781154	0.164939
501.999548	0.164807
502.217924	0.165603
502.436282	0.167229
502.654621	0.166528
502.872942	0.166911
503.091245	0.167889
503.309530	0.169017
503.527797	0.168480
503.746045	0.169146
503.964275	0.169161
504.182487	0.170000
504.400681	0.169354
504.618856	0.170176
504.837013	0.170934
505.055152	0.170752
505.273273	0.170747
505.491376	0.170965
505.709460	0.170557
505.927526	0.170405
506.145574	0.169615
506.363604	0.170624
506.581615	0.169576
506.799608	0.170030
507.017583	0.171554
507.235540	0.171591
507.453478	0.171934
507.671399	0.173325
507.889301	0.173473
508.107185	0.174316
508.325050	0.172902
508.542898	0.174533
508.760727	0.174530
508.978538	0.174424
509.196330	0.174654
509.414105	0.174819
509.631861	0.174690
509.849599	0.175377
510.067319	0.175286
510.285021	0.176390
510.502704	0.176325
510.720369	0.176578
510.938016	0.176327
511.155645	0.176429
511.373255	0.176280
511.590848	0.176866
511.808422	0.177893
512.025977	0.178492
512.243515	0.179149
512.461034	0.178731
512.678536	0.179544
512.896018	0.180855
513.113483	0.181633
513.330930	0.182069
513.548358	0.181367
513.765768	0.180847
513.983160	0.181309
514.200533	0.181494
514.417889	0.181745
514.635226	0.181768
514.852545	0.181765
515.069845	0.181838
515.287128	0.183000
515.504392	0.183649
515.721638	0.183895
515.938866	0.183990
516.156075	0.183980
516.373267	0.184498
516.590440	0.184057
516.807594	0.185315
517.024731	0.185839
517.241850	0.185980
517.458950	0.187034
517.676032	0.187467
517.893095	0.187891
518.110141	0.188094
518.327168	0.188436
518.544177	0.189138
518.761168	0.188190
518.978141	0.188443
519.195095	0.188707
519.412031	0.188332
519.628949	0.188207
519.845849	0.188373
520.062731	0.189331
520.279594	0.189843
520.496439	0.190081
520.713266	0.190801
520.930074	0.191104
521.146865	0.190766
521.363637	0.191764
521.580391	0.193876
521.797127	0.194612
522.013844	0.194771
522.230543	0.195789
522.447224	0.196085
522.663887	0.195915
522.880532	0.196544
523.097158	0.197374
523.313766	0.197885
523.530356	0.197654
523.746928	0.197231
523.963481	0.198356
524.180017	0.198394
524.396534	0.198095
524.613032	0.198364
524.829513	0.198304
525.045975	0.198325
525.262420	0.198208
525.478845	0.198053
525.695253	0.198839
525.911643	0.198443
526.128014	0.199017
526.344367	0.200791
526.560702	0.201709
526.777018	0.201375
526.993316	0.202621
527.209597	0.202846
527.425858	0.203408
527.642102	0.203274
527.858328	0.204026
528.074535	0.203999
528.290724	0.203990
528.506894	0.203731
528.723047	0.205140
528.939181	0.204749
529.155297	0.204886
529.371395	0.204953
529.587475	0.205886
529.803536	0.205930
530.019579	0.206446
530.235604	0.206665
530.451611	0.207542
530.667600	0.208135
530.883570	0.208778
531.099522	0.209707
531.315456	0.210416
531.531372	0.210695
531.747269	0.211095
531.963148	0.211611
532.179009	0.211847
532.394852	0.212514
532.610676	0.212725
532.826482	0.213221
533.042271	0.213078
533.258040	0.213711
533.473792	0.214171
533.689525	0.214748
533.905240	0.214603
534.120937	0.215741
534.336616	0.216071
534.552277	0.216584
534.767919	0.217091
534.983543	0.217988
535.199149	0.218525
535.414736	0.218660
535.630306	0.218676
535.845857	0.219425
536.061390	0.219468
536.276904	0.219677
536.492401	0.219979
536.707879	0.219742
536.923339	0.219925
537.138781	0.220438
537.354204	0.221432
537.569610	0.221840
537.784997	0.222180
538.000366	0.222806
538.215716	0.222943
538.431049	0.222898
538.646363	0.223609
538.861659	0.223556
539.076937	0.223163
539.292196	0.223029
539.507438	0.223258
539.722661	0.223450
539.937866	0.223508
540.153052	0.223763
540.368221	0.224610
540.583371	0.224740
540.798503	0.226149
541.013617	0.226887
541.228712	0.227274
541.443789	0.228148
541.658848	0.228724
541.873889	0.229276
542.088912	0.229589
542.303916	0.229652
542.518902	0.230235
542.733870	0.230151
542.948820	0.230055
543.163752	0.230606
543.378665	0.230331
543.593560	0.230946
543.808437	0.231176
544.023295	0.231587
544.238136	0.232098
544.452958	0.232666
544.667762	0.232911
544.882548	0.234048
545.097315	0.234627
545.312064	0.235029
545.526795	0.234724
545.741508	0.234967
545.956203	0.235452
546.170879	0.235590
546.385537	0.235596
546.600177	0.235858
546.814799	0.236145
547.029402	0.236120
547.243988	0.236323
547.458555	0.237069
547.673103	0.237082
547.887634	0.236915
548.102146	0.237172
548.316640	0.237781
548.531116	0.237930
548.745574	0.237785
548.960013	0.238289
549.174435	0.239335
549.388838	0.239635
549.603222	0.240400
549.817589	0.241044
550.031937	0.241547
550.246267	0.241622
550.460579	0.242149
550.674873	0.242502
550.889148	0.242455
551.103405	0.242506
551.317644	0.242588
551.531865	0.242895
551.746068	0.243106
551.960252	0.243323
552.174418	0.243389
552.388566	0.243701
552.602696	0.243777
552.816807	0.243944
553.030900	0.243932
553.244975	0.244055
553.459032	0.244173
553.673070	0.244583
553.887091	0.245022
554.101093	0.245652
554.315077	0.246260
554.529042	0.246548
554.742990	0.246849
554.956919	0.247735
555.170830	0.248130
555.384722	0.248371
555.598597	0.248711
555.812453	0.248601
556.026291	0.248658
556.240111	0.248270
556.453913	0.248421
556.667696	0.248997
556.881461	0.249024
557.095208	0.249044
557.308937	0.249133
557.522647	0.248935
557.736339	0.249347
557.950013	0.249471
558.163669	0.250036
558.377307	0.250366
558.590926	0.250473
558.804527	0.250468
559.018110	0.250951
559.231675	0.251374
559.445221	0.251839
559.658749	0.252382
559.872259	0.252918
560.085751	0.252959
560.299225	0.252586
560.512680	0.252847
560.726117	0.253458
560.939536	0.253728
561.152937	0.254092
561.366319	0.254466
561.579683	0.254155
561.793029	0.254426
562.006357	0.254702
562.219667	0.255328
562.432958	0.255730
562.646231	0.255374
562.859486	0.255730
563.072723	0.255543
563.285941	0.255898
563.499141	0.256322
563.712323	0.256376
563.925487	0.256728
564.138632	0.257154
564.351760	0.257206
564.564869	0.257748
564.777960	0.257258
564.991032	0.257678
565.204087	0.257911
565.417123	0.257847
565.630141	0.258316
565.843140	0.258088
566.056122	0.258410
566.269085	0.258271
566.482030	0.257939
566.694957	0.258179
566.907866	0.258535
567.120756	0.258573
567.333628	0.258466
567.546482	0.257991
567.759318	0.258450
567.972135	0.258682
568.184935	0.258901
568.397716	0.259711
568.610478	0.260191
568.823223	0.260279
569.035949	0.260522
569.248657	0.261226
569.461347	0.261784
569.674019	0.262084
569.886672	0.262082
570.099308	0.262408
570.311925	0.262060
570.524523	0.262308
570.737104	0.262075
570.949666	0.262032
571.162210	0.261813
571.374736	0.261837
571.587244	0.262280
571.799733	0.262486
572.012205	0.262596
572.224658	0.263190
572.437092	0.263391
572.649509	0.263572
572.861907	0.264039
573.074287	0.264762
573.286649	0.264868
573.498993	0.264773
573.711318	0.265182
573.923625	0.265287
574.135914	0.265240
574.348185	0.265575
574.560438	0.266241
574.772672	0.265976
574.984888	0.265771
575.197086	0.266308
575.409266	0.266485
575.621427	0.266149
575.833570	0.266967
576.045695	0.266860
576.257802	0.267215
576.469890	0.267108
576.681961	0.267129
576.894013	0.267616
577.106046	0.267701
577.318062	0.267904
577.530059	0.268542
577.742039	0.268362
577.954000	0.269211
578.165942	0.269142
578.377867	0.269164
578.589773	0.269571
578.801661	0.269755
579.013531	0.269925
579.225382	0.269983
579.437216	0.269748
579.649031	0.269949
579.860828	0.269821
580.072606	0.270079
580.284367	0.270665
580.496109	0.271040
580.707833	0.271492
580.919539	0.271466
581.131227	0.271170
581.342896	0.271830
581.554547	0.272025
581.766180	0.272144
581.977795	0.271763
582.189391	0.271499
582.400969	0.271623
582.612529	0.271276
582.824071	0.271447
583.035595	0.272130
583.247100	0.272264
583.458587	0.272396
583.670056	0.272513
583.881506	0.272701
584.092939	0.272922
584.304353	0.273142
584.515749	0.273446
584.727127	0.273488
584.938486	0.273478
585.149828	0.273262
585.361151	0.273083
585.572456	0.273380
585.783742	0.273654
585.995011	0.274238
586.206261	0.274616
586.417493	0.275073
586.628706	0.275752
586.839902	0.276011
587.051079	0.276215
587.262238	0.276653
587.473379	0.276646
587.684502	0.276894
587.895606	0.276952
588.106692	0.276969
588.317760	0.276781
588.528810	0.276679
588.739841	0.276572
588.950855	0.276891
589.161850	0.277393
589.372827	0.277816
589.583785	0.278299
589.794726	0.278389
590.005648	0.278377
590.216552	0.278656
590.427437	0.278869
590.638305	0.279386
590.849154	0.279506
591.059985	0.279228
591.270798	0.279375
591.481592	0.279446
591.692369	0.279504
591.903127	0.280326
592.113867	0.280209
592.324588	0.280237
592.535292	0.280211
592.745977	0.280270
592.956644	0.280410
593.167293	0.280775
593.377923	0.281131
593.588536	0.281391
593.799130	0.280969
594.009706	0.281324
594.220263	0.281599
594.430803	0.282214
594.641324	0.282642
594.851827	0.283351
595.062312	0.283432
595.272778	0.283404
595.483227	0.283578
595.693657	0.283769
595.904069	0.283858
596.114462	0.283888
596.324838	0.283844
596.535195	0.283752
596.745534	0.283543
596.955855	0.283214
597.166157	0.283014
597.376441	0.283109
597.586707	0.283678
597.796955	0.284172
598.007185	0.284241
598.217396	0.284326
598.427589	0.284399
598.637764	0.284756
598.847921	0.285396
599.058060	0.286027
599.268180	0.286367
599.478282	0.285981
599.688366	0.286017
599.898431	0.286307
600.108479	0.286342
600.318508	0.286497
600.528519	0.286505
600.738511	0.286705
600.948486	0.286760
601.158442	0.287019
601.368380	0.287389
601.578300	0.287658
601.788202	0.288087
601.998085	0.288402
602.207950	0.288614
602.417797	0.288636
602.627626	0.288671
602.837436	0.288610
603.047228	0.288617
603.257002	0.288765
603.466758	0.289082
603.676496	0.289128
603.886215	0.289052
604.095916	0.289097
604.305599	0.289507
604.515264	0.289471
604.724910	0.289825
604.934538	0.289822
605.144148	0.289892
605.353740	0.289923
605.563314	0.290271
605.772869	0.290240
605.982406	0.290533
606.191925	0.290695
606.401425	0.290949
606.610908	0.291242
606.820372	0.291678
607.029818	0.291949
607.239246	0.291883
607.448655	0.291811
607.658047	0.292385
607.867420	0.292710
608.076775	0.292574
608.286111	0.292610
608.495430	0.292595
608.704730	0.292888
608.914012	0.292701
609.123275	0.292910
609.332521	0.293043
609.541748	0.293316
609.750957	0.293368
609.960148	0.293476
610.169321	0.293570
610.378475	0.293764
610.587611	0.293770
610.796729	0.294080
611.005829	0.293962
611.214910	0.294265
611.423974	0.294080
611.633019	0.294569
611.842045	0.294796
612.051054	0.294978
612.260044	0.295275
612.469017	0.295176
612.677970	0.295434
612.886906	0.295642
613.095824	0.295443
613.304723	0.295829
613.513604	0.295732
613.722467	0.296196
613.931311	0.296565
614.140138	0.296645
614.348946	0.296815
614.557736	0.297146
614.766507	0.297511
614.975261	0.298258
615.183996	0.298499
615.392713	0.298915
615.601412	0.298933
615.810092	0.299299
616.018754	0.299537
616.227399	0.299601
616.436024	0.299596
616.644632	0.299788
616.853222	0.299653
617.061793	0.299780
617.270346	0.299695
617.478880	0.299894
617.687397	0.299704
617.895895	0.299680
618.104375	0.299986
618.312837	0.300301
618.521281	0.300336
618.729706	0.300283
618.938113	0.300267
619.146502	0.300448
619.354873	0.300350
619.563226	0.300842
619.771560	0.300828
619.979876	0.301205
620.188174	0.301250
620.396453	0.301699
620.604715	0.302016
620.812958	0.302263
621.021183	0.302446
621.229390	0.302996
621.437578	0.302734
621.645748	0.303194
621.853900	0.302941
622.062034	0.303153
622.270150	0.303209
622.478247	0.303407
622.686326	0.303428
622.894387	0.303627
623.102430	0.303578
623.310454	0.303806
623.518461	0.303819
623.726449	0.304290
623.934418	0.304500
624.142370	0.304674
624.350303	0.304803
624.558218	0.305327
624.766115	0.305371
624.973994	0.305427
625.181855	0.305780
625.389697	0.306289
625.597521	0.306424
625.805327	0.306447
626.013114	0.306463
626.220883	0.306642
626.428634	0.306570
626.636367	0.306678
626.844082	0.306880
627.051778	0.306773
627.259457	0.306549
627.467117	0.306581
627.674758	0.306841
627.882382	0.307094
628.089987	0.307194
628.297574	0.307569
628.505143	0.307796
628.712694	0.307752
628.920226	0.307641
629.127740	0.307882
629.335236	0.308026
629.542714	0.308060
629.750174	0.308509
629.957615	0.308666
630.165038	0.308423
630.372443	0.308707
630.579829	0.308847
630.787198	0.309319
630.994548	0.309458
631.201880	0.309517
631.409194	0.309724
631.616489	0.309519
631.823766	0.309893
632.031025	0.310083
632.238266	0.310260
632.445489	0.310655
632.652693	0.311205
632.859879	0.311391
633.067047	0.311773
633.274197	0.312255
633.481329	0.312525
633.688442	0.312623
633.895537	0.312998
634.102614	0.313090
634.309672	0.313363
634.516713	0.313148
634.723735	0.313331
634.930739	0.313189
635.137724	0.312926
635.344692	0.313065
635.551641	0.312966
635.758572	0.313125
635.965485	0.313205
636.172379	0.313327
636.379256	0.313643
636.586114	0.313621
636.792954	0.314101
636.999775	0.314371
637.206579	0.314693
637.413364	0.314913
637.620131	0.315063
637.826880	0.315351
638.033610	0.315613
638.240323	0.315587
638.447017	0.316221
638.653692	0.316379
638.860350	0.316402
639.066990	0.316464
639.273611	0.316634
639.480214	0.316612
639.686798	0.316548
639.893365	0.316872
640.099913	0.317326
640.306443	0.317043
640.512955	0.317146
640.719449	0.317544
640.925924	0.317675
641.132381	0.317922
641.338820	0.318406
641.545241	0.318790
641.751644	0.318408
641.958028	0.318450
642.164394	0.318665
642.370742	0.318788
642.577071	0.319055
642.783383	0.319296
642.989676	0.319494
643.195951	0.319477
643.402207	0.319681
643.608446	0.320035
643.814666	0.320168
644.020868	0.320649
644.227052	0.320987
644.433218	0.321017
644.639365	0.320818
644.845494	0.320859
645.051605	0.320945
645.257698	0.320886
645.463772	0.321085
645.669828	0.321306
645.875866	0.321115
646.081886	0.321148
646.287888	0.321180
646.493871	0.321592
646.699836	0.321827
646.905783	0.322301
647.111712	0.322668
647.317622	0.323077
647.523514	0.323289
647.729388	0.323571
647.935244	0.323790
648.141082	0.324296
648.346901	0.324658
648.552702	0.325052
648.758485	0.325199
648.964250	0.325322
649.169996	0.325521
649.375724	0.325649
649.581434	0.325966
649.787126	0.326122
649.992800	0.326347
650.198455	0.326284
650.404092	0.326540
650.609711	0.326843
650.815311	0.326964
651.020894	0.326943
651.226458	0.327113
651.432004	0.327550
651.637532	0.327578
651.843041	0.327584
652.048532	0.327689
652.254006	0.327970
652.459460	0.327575
652.664897	0.327991
652.870315	0.328306
653.075716	0.328551
653.281097	0.328526
653.486461	0.329106
653.691807	0.329515
653.897134	0.330085
654.102443	0.330081
654.307734	0.330541
654.513006	0.330619
654.718261	0.330992
654.923497	0.331425
655.128715	0.331652
655.333915	0.331930
655.539096	0.332097
655.744259	0.332433
655.949404	0.332645
656.154531	0.333278
656.359640	0.333703
656.564730	0.333769
656.769802	0.334087
656.974856	0.334440
657.179892	0.334463
657.384909	0.334738
657.589908	0.334767
657.794889	0.335100
657.999852	0.335153
658.204797	0.335182
658.409723	0.335439
658.614631	0.335343
658.819521	0.335796
659.024393	0.336205
659.229246	0.336042
659.434081	0.336127
659.638898	0.336114
659.843697	0.336072
660.048478	0.336513
660.253240	0.336603
660.457984	0.336814
660.662710	0.336520
660.867417	0.336833
661.072107	0.337449
661.276778	0.337644
661.481431	0.338006
661.686066	0.338244
661.890682	0.338227
662.095281	0.338687
662.299861	0.339104
662.504422	0.339495
662.708966	0.339621
662.913491	0.339828
663.117999	0.340094
663.322488	0.340339
663.526958	0.340805
663.731411	0.341253
663.935845	0.341458
664.140261	0.341591
664.344659	0.341738
664.549038	0.342207
664.753400	0.342282
664.957743	0.342670
665.162068	0.343058
665.366375	0.343277
665.570663	0.343313
665.774933	0.343327
665.979185	0.343454
666.183419	0.343760
666.387635	0.343759
666.591832	0.343961
666.796011	0.344477
667.000172	0.344625
667.204315	0.344852
667.408439	0.345462
667.612545	0.346030
667.816634	0.346684
668.020703	0.346853
668.224755	0.347237
668.428788	0.347606
668.632803	0.347507
668.836800	0.347908
669.040779	0.348245
669.244739	0.348112
669.448681	0.347946
669.652605	0.348120
669.856511	0.348448
670.060399	0.348420
670.264268	0.348328
670.468119	0.348609
670.671952	0.348501
670.875767	0.348516
671.079563	0.348938
671.283341	0.349456
671.487101	0.349473
671.690843	0.349849
671.894567	0.350261
672.098272	0.350522
672.301959	0.350701
672.505628	0.351169
672.709278	0.351616
672.912911	0.351783
673.116525	0.351738
673.320121	0.352035
673.523699	0.352068
673.727258	0.352154
673.930799	0.352529
674.134322	0.352781
674.337827	0.353001
674.541314	0.353141
674.744782	0.353161
674.948232	0.353631
675.151664	0.353690
675.355078	0.354096
675.558474	0.354402
675.761851	0.354627
675.965210	0.354844
676.168551	0.354963
676.371873	0.355152
676.575178	0.355518
676.778464	0.355751
676.981732	0.356292
677.184981	0.356496
677.388213	0.356421
677.591426	0.356690
677.794621	0.357001
677.997798	0.357174
678.200956	0.357374
678.404097	0.357795
678.607219	0.357980
678.810323	0.358011
679.013408	0.358209
679.216476	0.358396
679.419525	0.358511
679.622556	0.358559
679.825569	0.358782
680.028563	0.359126
680.231540	0.359104
680.434498	0.359294
680.637438	0.359745
680.840359	0.359979
681.043263	0.360399
681.246148	0.360756
681.449015	0.360962
681.651864	0.361109
681.854694	0.361263
682.057506	0.361418
682.260301	0.361544
682.463076	0.361364
682.665834	0.361536
682.868573	0.361858
683.071295	0.362131
683.273998	0.362633
683.476682	0.363075
683.679349	0.363283
683.881997	0.363943
684.084627	0.364391
684.287239	0.364933
684.489833	0.365321
684.692408	0.365473
684.894965	0.365575
685.097504	0.365448
685.300025	0.365601
685.502527	0.365720
685.705012	0.365393
685.907478	0.365525
686.109925	0.365498
686.312355	0.365614
686.514766	0.365877
686.717159	0.366162
686.919534	0.366679
687.121891	0.366968
687.324230	0.367343
687.526550	0.368058
687.728852	0.368314
687.931136	0.368553
688.133401	0.368700
688.335649	0.368690
688.537878	0.369041
688.740089	0.369116
688.942281	0.368916
689.144456	0.368899
689.346612	0.368639
689.548750	0.368690
689.750870	0.369015
689.952971	0.369276
690.155055	0.369528
690.357120	0.369379
690.559167	0.369669
690.761195	0.370206
690.963206	0.370835
691.165198	0.371212
691.367172	0.371574
691.569128	0.371650
691.771065	0.371937
691.972984	0.372120
692.174885	0.372398
692.376768	0.372540
692.578633	0.372502
692.780479	0.372353
692.982308	0.372423
693.184118	0.372366
693.385909	0.372514
