sample name	sample
index	1013
start time	 04-19-2021  11:38:28 AM
880	0.271827
Peak Time (s)	100.036
Peak Height 	0.2718
calc peak height	100,103
Baseline Time (s)	10.037
Baseline Value 	-0.003678
subtract baseline	10,4
Abs	0.170527
Peak Time (s)	102.537
Peak Height 	0.1705
calc peak height	100,103
Baseline Time (s)	11.54
Baseline Value 	4.6903E-4
subtract baseline	10,3
PK_550	0.099016
Peak Time (s)	101.54
Peak Height 	0.09902
calc peak height	100,103
Baseline Time (s)	11.037
Baseline Value 	2.0785E-4
subtract baseline	10,2
PK_880	0.163475
Peak Time (s)	101.036
Peak Height 	0.1635
calc peak height	100,103
Baseline Time (s)	11.037
Baseline Value 	8.2232E-5
subtract baseline	10,1


Time (s)	A880-A510	A880-A775	A880-A975	A880	I510	I775	I975	I880	
0.035500	-0.001631	-0.000420	-0.005522	0.006793	6504.563419	45465.292289	3923.072539	24045.097184
0.536500	-0.000528	-0.000381	-0.005382	0.004603	6532.904305	45684.815130	3929.341673	24152.650617
1.036500	-0.000503	-0.000705	-0.000561	0.003826	6539.836903	45729.570658	3944.535734	24190.921751
1.537000	-0.002158	0.000991	0.000349	0.005999	6506.857700	45682.387061	3941.089623	24084.026417
2.037500	0.002321	0.000006	0.003327	0.001653	6583.316983	46015.491975	3961.207132	24298.310493
2.540500	0.000854	-0.000173	0.000118	0.000718	6578.653023	46090.677671	3954.923262	24344.664473
3.034500	0.000880	-0.000616	0.000975	-0.001265	6596.268273	46244.505607	3962.778525	24443.401519
3.535000	-0.001273	0.000723	-0.004153	0.005542	6518.384198	45701.094990	3930.120424	24106.447526
4.035500	0.000300	-0.000414	0.002556	0.000733	6573.684509	46065.207463	3961.618782	24343.921813
4.536000	0.000026	-0.000524	-0.000318	0.000268	6575.359900	46100.601876	3954.963457	24367.065755
5.036000	0.000241	0.000039	-0.000296	0.000877	6571.916428	46095.971746	3953.345930	24336.793573
5.536500	0.000487	0.000386	0.002459	0.000623	6576.278651	46155.937167	3961.654087	24349.385927
6.037000	0.000417	-0.000230	-0.001719	0.000140	6579.895003	46142.721508	3951.461384	24373.406120
6.536500	-0.001299	0.000246	-0.002639	0.000259	6563.879451	46178.229979	3948.607772	24367.470099
7.040000	-0.000072	-0.001100	0.004548	-0.000394	6580.281822	46109.155252	3970.294419	24399.953719
7.537500	0.000073	0.000845	0.001626	0.000866	6570.544157	46177.513757	3958.677258	24337.317606
8.035000	0.001313	-0.000114	-0.001197	0.000231	6586.943366	46145.157671	3952.644641	24368.892493
8.535000	0.000436	0.000525	-0.007330	0.000024	6581.070184	46229.607563	3936.454558	24379.165628
9.036000	-0.000029	-0.000309	0.001891	-0.000205	6579.011926	46169.227332	3962.377393	24390.556651
9.536000	-0.000473	0.000286	-0.003616	-0.000035	6573.642562	46211.661414	3946.738322	24382.111095
10.036500	0.000570	0.000537	0.006633	0.000000	6582.451594	46233.255490	3975.024005	24380.369486
10.536000	-0.000065	-0.000073	-0.002563	-0.000405	6580.447983	46212.734731	3950.638842	24400.530093
11.036500	0.000000	0.000000	0.001383	0.000148	6576.182354	46164.873327	3959.994336	24373.030020
11.540000	0.001385	-0.000179	0.000000	0.000084	6588.858734	46153.393649	3956.348081	24376.205992
12.037500	0.000898	0.000472	0.002488	0.000145	6584.060581	46212.290623	3963.062604	24373.162678
12.535000	0.002493	0.000467	0.000370	0.000056	6598.832473	46220.738768	3957.446216	24377.605466
13.035000	0.000671	0.000199	0.001426	-0.001877	6599.807005	46387.379968	3965.728088	24473.936963
13.536000	-0.002266	-0.000152	-0.003803	0.004224	6521.185608	45744.893949	3934.633186	24171.297719
14.035500	-0.002480	0.000326	0.001426	0.004132	6520.136963	45801.231238	3949.135046	24175.821305
14.536000	-0.001040	-0.000609	-0.005333	0.001337	6556.761027	45985.793904	3938.312956	24313.978713
15.036500	0.000069	-0.000044	0.000828	-0.000311	6580.786381	46206.190238	3959.725440	24395.826175
15.543500	-0.002980	0.000571	-0.000174	0.004044	6516.581135	45834.195531	3944.993224	24180.133421
16.040000	-0.001863	-0.001059	0.003091	0.000536	6556.564925	46020.629823	3963.651642	24353.736399
16.537500	-0.000797	0.000500	-0.002202	-0.000377	6573.803979	46267.294840	3951.553271	24399.144038
17.037500	0.000674	0.000668	-0.001876	-0.000532	6588.024917	46299.593320	3952.877406	24406.868564
17.535000	-0.002137	-0.000328	-0.004459	0.001858	6542.727891	45961.934632	3939.274053	24288.169413
18.034000	-0.002739	-0.000360	0.000688	-0.000841	6560.926160	46227.664416	3960.805466	24422.244064
18.535000	0.002496	0.000819	-0.001400	0.001339	6587.594174	46127.679451	3949.043538	24313.853968
19.035000	0.000890	0.000336	-0.000219	0.000571	6580.258897	46156.152281	3954.402150	24351.994034
19.536500	0.000727	0.000404	-0.000050	0.000851	6576.383841	46134.979003	3954.094024	24338.059457
20.036500	0.000322	0.000426	0.000364	0.001131	6570.412434	46109.298606	3954.466151	24324.203716
20.539500	-0.001086	0.000917	0.003018	0.001178	6557.736548	46153.519975	3961.665139	24321.836615
21.037000	0.000268	0.000948	0.004890	0.001341	6568.107085	46140.405390	3966.412610	24313.774315
21.537000	0.000918	0.000359	0.001251	0.000821	6578.317243	46133.510358	3957.767184	24339.580904
22.035000	-0.001865	0.000551	-0.004373	0.001280	6550.082191	46106.837156	3941.077987	24316.772689
22.535000	0.001326	0.000077	-0.002015	0.001005	6580.276881	46087.129044	3948.275460	24330.458715
23.035000	-0.000194	0.000513	-0.001330	0.000709	6569.590031	46160.051943	3950.965283	24345.143987
23.536000	-0.000414	0.000344	0.001802	0.001003	6565.110858	46113.858514	3958.786807	24330.539299
24.036000	0.000972	0.001183	0.000396	0.001363	6574.057296	46161.670259	3953.914536	24312.676161
24.536500	-0.001672	0.001073	0.002776	0.001323	6551.396949	46154.690228	3960.596457	24314.685576
25.039500	0.000338	0.000202	0.000687	0.000675	6574.523811	46132.340983	3956.611727	24346.800558
25.537000	0.001092	0.000798	0.000459	0.001141	6577.039047	46145.337372	3954.698468	24323.687534
26.037000	-0.000437	0.000595	0.000251	0.001517	6560.443044	46087.730384	3953.090857	24305.066635
26.535000	0.002361	0.000885	0.001534	0.001229	6587.372528	46145.277093	3957.419466	24319.304725
27.038000	-0.000748	0.000285	0.006426	0.000596	6565.745609	46148.523961	3972.774837	24350.738140
27.535500	-0.001053	0.000931	0.000076	0.001417	6555.954928	46131.169924	3952.883792	24310.013240
28.035500	0.003196	0.001793	0.002324	-0.001369	6617.572209	46496.530196	3966.812400	24448.570088
28.536000	0.000137	-0.000030	0.003721	-0.000862	6586.205402	46262.749763	3969.292371	24423.269515
29.041000	-0.000506	0.001100	0.003837	-0.000163	6574.477169	46305.921582	3967.667408	24388.484272
29.539000	-0.001380	0.000893	0.003917	0.004786	6523.976988	45792.631518	3954.184706	24143.625677
30.037000	-0.000128	0.000863	-0.001536	0.004342	6538.619677	45833.634877	3940.469480	24165.499741
30.537500	0.002501	0.000697	0.002025	-0.000300	6602.023369	46279.322428	3963.013390	24395.297323
31.037000	0.000426	0.000054	0.003483	-0.000932	6589.360279	46278.141518	3968.825120	24426.785186
31.534500	-0.003765	0.000816	0.000002	0.003432	6515.098190	45919.179967	3947.152382	24210.337170
32.035500	-0.001533	-0.000409	-0.002136	0.001295	6552.839824	46009.812955	3947.150574	24316.068957
32.544500	-0.001177	0.000035	-0.002360	-0.001082	6576.642643	46291.308526	3953.059218	24434.271746
33.038000	0.001749	0.000507	0.003069	-0.000473	6596.937461	46277.550761	3966.391128	24403.894462
33.535500	-0.002491	0.000597	-0.002097	0.004605	6515.975190	45781.249051	3938.227748	24152.544736
34.039000	-0.001893	-0.000603	-0.001655	0.000639	6555.416673	46055.782609	3950.267970	24348.631024
34.536500	0.002125	0.000817	0.000980	-0.002001	6613.692657	46461.874326	3964.833781	24480.125843
35.036500	-0.000457	0.001033	-0.000130	0.002164	6554.637996	46066.855351	3950.264821	24273.007301
35.537000	-0.000793	-0.000215	-0.001649	0.002261	6550.881866	45933.026392	3945.838610	24268.197349
36.035000	-0.001249	0.000152	0.001567	0.000915	6558.609101	46103.560113	3958.380717	24334.927280
36.538000	0.000961	0.000782	0.000954	0.001306	6574.464026	46127.308550	3955.607648	24315.518086
37.035000	-0.002962	-0.000530	0.004147	0.000341	6548.719654	46092.707703	3967.127206	24363.404373
37.535500	-0.000068	0.000106	0.000901	0.002814	6552.369110	45910.047443	3951.309834	24240.832882
38.039000	-0.000512	0.000319	0.003536	0.000943	6564.772064	46117.325549	3963.755544	24333.496980
38.539000	-0.001269	0.000073	0.002703	0.001236	6555.647904	46063.674328	3960.633793	24318.996791
39.036500	-0.000238	0.000719	0.000122	0.001572	6561.688285	46094.563087	3952.584841	24302.341299
39.537000	-0.000920	-0.000210	0.004482	0.000666	6563.640216	46092.291044	3967.155746	24347.289428
40.037000	-0.001459	-0.000075	-0.002180	0.001175	6554.520799	46054.929587	3947.356365	24322.001725
40.537000	0.000334	0.000493	0.001168	0.001380	6568.338564	46091.141572	3955.994734	24311.837365
41.035000	-0.000463	0.000072	0.002269	0.000899	6565.586662	46097.064216	3960.363760	24335.679357
41.535000	0.000328	0.001531	0.002150	0.001468	6567.527426	46185.961058	3958.463137	24307.486260
42.038500	0.001004	0.001082	0.002572	0.001934	6569.350993	46094.574129	3958.340368	24284.384577
42.536000	-0.001894	0.000553	0.001822	0.001319	6549.495959	46103.138802	3957.967931	24314.849877
43.038500	0.000840	0.000557	0.003103	0.001164	6574.641650	46119.090021	3961.943571	24322.568116
43.536000	-0.000113	0.000353	-0.000389	0.001476	6563.606420	46067.637693	3951.443946	24307.064014
44.037000	-0.000535	-0.000108	-0.002033	0.001562	6559.198495	46013.212900	3946.701811	24302.839226
44.537000	-0.002347	0.000808	0.004762	0.001437	6544.549481	46116.780953	3965.787888	24308.987101
45.037000	0.000162	0.000379	0.002893	-0.003775	6612.035251	46596.453381	3975.122278	24568.973461
45.537000	-0.000707	0.000472	0.001630	0.001104	6561.680182	46116.540351	3958.030899	24325.535627
46.041000	-0.001764	0.000123	-0.002195	0.004734	6521.117523	45721.604909	3937.609946	24146.181840
46.535000	0.000102	0.000013	0.003044	-0.000936	6586.549136	46274.467114	3967.612255	24426.978548
47.035500	0.000399	0.000280	0.003726	-0.000472	6585.087931	46254.792071	3968.219849	24403.859658
47.539000	0.001399	0.000909	0.001294	-0.000262	6592.017515	46296.676118	3960.881878	24393.415303
48.036000	-0.001444	0.000489	0.001098	0.005564	6516.723531	45675.833651	3944.317549	24105.385291
48.536500	-0.000733	0.000931	0.000155	0.001488	6558.108841	46124.031176	3952.904828	24306.479070
49.036500	-0.000341	-0.000157	0.005710	0.001386	6562.412416	46025.839742	3968.572078	24311.560288
49.537500	0.002420	0.000765	0.004213	0.000486	6594.411997	46207.515528	3966.907730	24356.225962
50.035000	-0.004570	-0.000427	0.001010	0.004675	6497.541638	45673.123890	3946.509017	24149.078725
50.537500	-0.000837	-0.000107	0.002901	-0.001084	6579.633534	46277.286812	3967.625475	24434.346251
51.035500	0.002785	0.000774	0.002490	-0.001318	6613.489391	46388.917424	3967.131785	24446.007372
51.535500	-0.000942	-0.000179	0.000101	-0.000907	6577.160690	46252.358270	3959.362246	24425.512444
52.038500	-0.003728	-0.000018	0.002941	0.012582	6437.597426	44939.616076	3930.269254	23763.535980
52.535500	0.007928	-0.007058	0.048826	0.354048	4492.881990	21696.225537	3351.601602	12338.287348
53.036000	0.006218	-0.003580	0.012573	0.344540	4523.870922	22269.326791	3316.158261	12549.886783
53.536500	-0.025170	-0.016399	-0.042108	-0.020508	6536.959800	46591.890836	3898.432284	25424.920460
54.037000	-0.031358	-0.034193	-0.040783	-0.143785	7698.759775	58626.905597	4277.351490	32858.301270
54.537000	-0.021643	-0.050111	-0.024231	-0.191558	8394.560625	62874.615403	4519.888617	36355.996749
55.036000	-0.008639	-0.100491	-0.016646	-0.260762	9564.057795	65535.000000	4860.620555	42156.318024
55.535000	-0.006043	-0.036209	-0.007710	-0.172701	8352.637702	62193.217326	4510.435502	34929.272601
56.035000	0.001498	-0.018761	0.003168	-0.117954	7778.925038	57306.395812	4342.079637	31121.410235
56.538000	0.001293	-0.012611	0.000682	-0.099868	7572.870103	55829.272431	4268.796746	29965.334942
57.036000	0.004009	-0.011838	-0.000355	-0.121448	7848.493127	58629.224828	4341.969262	31350.325770
57.536000	0.010347	-0.007378	0.002524	-0.111628	7808.037486	57944.609857	4316.859054	30711.562826
58.036500	0.018217	-0.002802	0.010153	-0.107291	7849.085139	57974.947337	4328.719479	30433.993652
58.536500	0.026256	0.002212	0.014445	-0.093096	7777.775798	56821.218828	4293.312425	29544.711421
59.037000	0.030485	0.007675	0.022614	-0.057045	7424.850039	53148.383043	4197.850332	27412.572664
59.537000	0.033872	0.012033	0.028197	-0.028153	7160.071083	50383.726859	4122.616398	25827.091445
60.034500	0.042138	0.017304	0.035151	0.001733	6947.475210	47762.574796	4052.435963	24294.329056
60.535000	0.044568	0.019959	0.042672	0.024709	6755.025090	45707.904786	4007.187211	23185.644979
61.037500	0.052382	0.024263	0.048515	0.044604	6646.046201	44195.362365	3967.418342	22271.885445
61.536000	0.055886	0.028538	0.049368	0.071243	6445.622841	42118.432301	3897.709960	21112.153794
62.036000	0.064225	0.030906	0.064927	0.092476	6338.467767	40447.751867	3882.917634	20237.378392
62.536000	0.070466	0.037391	0.071960	0.100171	6326.583206	40343.031614	3881.204226	19930.759544
63.036000	0.079462	0.041775	0.080056	0.120770	6233.149204	38967.711815	3849.333741	19136.217152
63.536500	0.085158	0.045173	0.083672	0.146391	6078.418040	37164.300971	3795.421540	18199.121910
64.037000	0.095475	0.050652	0.095935	0.153809	6100.491167	37011.249060	3807.058823	17937.980037
64.534500	0.098982	0.053790	0.102734	0.169997	6005.015460	35999.053269	3784.625959	17383.328846
65.035000	0.106219	0.057180	0.108946	0.182539	5965.887523	35307.051002	3769.771422	16967.582383
65.537500	0.109099	0.061591	0.114858	0.195822	5890.542500	34650.019768	3752.747211	16540.185300
66.035500	0.116801	0.064457	0.123313	0.205999	5872.878534	34118.545900	3748.811317	16221.457346
66.536000	0.121738	0.067087	0.125975	0.212542	5861.466515	33837.797569	3739.998194	16020.443761
67.035500	0.121871	0.070129	0.126164	0.207191	5900.598454	34443.147499	3752.603631	16184.618113
67.537000	0.121274	0.074022	0.126171	0.187541	6040.427782	36204.992444	3798.647504	16805.088455
68.058000	0.127823	0.074319	0.127965	0.182638	6127.479991	36607.166061	3814.816707	16964.341376
68.537000	0.126483	0.074820	0.126657	0.187170	6082.558419	36294.995782	3800.704928	16817.086418
69.037000	0.131255	0.076013	0.131561	0.189146	6103.877721	36234.707599	3807.756652	16753.364906
69.534000	0.133463	0.077728	0.132163	0.194014	6083.595107	35992.947995	3797.496849	16597.602542
70.037500	0.131852	0.078148	0.137861	0.197260	6046.881218	35777.778736	3803.382736	16494.687421
70.535500	0.133239	0.079042	0.134529	0.201468	6025.747543	35527.210469	3785.391111	16362.442060
71.035500	0.134805	0.079840	0.138647	0.205973	6003.871160	35249.136139	3784.475700	16222.255776
71.536000	0.136001	0.081553	0.139062	0.211411	5972.567398	34972.209009	3772.674318	16054.986549
72.036000	0.137243	0.081721	0.139139	0.217732	5935.469358	34519.746506	3758.192219	15863.138863
72.536500	0.138359	0.082414	0.136529	0.218508	5937.941313	34513.718557	3750.425985	15839.779632
73.037000	0.137431	0.082694	0.143978	0.221698	5908.164667	34302.040047	3760.204422	15744.201144
73.537000	0.138533	0.082766	0.140643	0.224960	5892.654662	34071.572345	3745.097360	15647.172560
74.035000	0.141823	0.083760	0.138798	0.229749	5881.942712	33799.653442	3730.136666	15506.061809
74.540500	0.140938	0.084353	0.144652	0.230399	5871.010252	33795.642085	3741.853666	15487.028081
75.035500	0.141348	0.084028	0.141029	0.232587	5858.383774	33616.824046	3728.778724	15423.155566
75.535500	0.143871	0.085143	0.148170	0.235420	5856.189643	33495.219169	3738.455117	15340.938023
76.035500	0.142547	0.086129	0.144301	0.239148	5820.645647	33302.185122	3721.456898	15233.582246
76.536000	0.144055	0.085839	0.146618	0.238447	5836.139348	33331.075820	3728.175174	15253.704351
77.036000	0.147917	0.088083	0.154055	0.241862	5839.287308	33248.839560	3737.198598	15155.988754
77.536500	0.150127	0.087738	0.149529	0.243093	5846.175933	33138.599315	3724.305019	15120.939860
78.037000	0.145342	0.086937	0.145807	0.246847	5786.532965	32822.219687	3707.817327	15014.719928
78.540000	0.148857	0.089625	0.151708	0.246828	5811.076367	33009.831483	3720.850801	15015.245679
79.037000	0.149090	0.087802	0.153116	0.246785	5813.001271	32886.363952	3724.071962	15016.468097
79.535000	0.148963	0.087850	0.157692	0.247971	5803.856507	32807.685055	3731.643146	14983.100918
80.035500	0.150562	0.090013	0.152997	0.250281	5798.910820	32797.479451	3716.064702	14918.340604
80.535000	0.148798	0.088681	0.149554	0.250046	5788.314239	32721.880190	3709.016903	14924.934820
81.036000	0.151548	0.090475	0.154848	0.252443	5790.749730	32680.350784	3715.378148	14858.058095
81.536000	0.154108	0.090250	0.157925	0.252212	5810.151836	32680.830304	3722.699061	14864.508495
82.036500	0.150265	0.089531	0.153617	0.254863	5765.219147	32449.962935	3707.368254	14790.958802
82.536500	0.152729	0.090764	0.157270	0.254481	5784.820913	32560.327290	3716.225633	14801.510275
83.037000	0.153554	0.091838	0.158714	0.255962	5780.295494	32532.535635	3716.145021	14760.600712
83.540000	0.156024	0.091925	0.160954	0.256536	5793.408645	32499.193007	3719.826668	14744.770147
84.037500	0.152198	0.091503	0.159764	0.257427	5760.886668	32409.580785	3715.230058	14720.241715
84.535000	0.153942	0.092144	0.158867	0.257547	5772.047346	32445.141404	3712.992010	14716.949659
85.035500	0.153962	0.091928	0.159329	0.258077	5768.533516	32394.192985	3712.840391	14702.372558
85.536000	0.154722	0.093661	0.163413	0.259381	5764.791715	32423.450757	3718.971660	14666.622843
86.036000	0.153655	0.094252	0.159823	0.261763	5741.206541	32301.618644	3705.851566	14601.605613
86.536000	0.155212	0.094167	0.161221	0.260294	5761.892674	32395.715866	3712.127982	14641.665818
87.037000	0.153826	0.092562	0.161469	0.260854	5748.568005	32248.614138	3711.441049	14626.365006
87.537000	0.157230	0.094496	0.165187	0.261474	5767.644015	32337.772127	3718.265792	14609.463637
88.040000	0.157955	0.095510	0.159754	0.262175	5767.809188	32359.092037	3704.801354	14590.398863
88.537500	0.158060	0.094396	0.161617	0.261493	5773.229641	32329.752251	3710.365378	14608.963334
89.035000	0.156949	0.094853	0.166461	0.263675	5750.635650	32212.688824	3716.218576	14549.663346
89.535000	0.157333	0.094437	0.169670	0.262794	5759.297248	32244.254365	3725.285722	14573.580965
90.035000	0.157410	0.094540	0.163270	0.262854	5759.409108	32247.181382	3711.005730	14571.950835
90.535500	0.159955	0.096330	0.164089	0.263894	5769.746789	32297.993057	3710.520904	14543.735024
91.036000	0.160230	0.095766	0.162651	0.265584	5760.024590	32145.361174	3703.685557	14498.038071
91.536500	0.157454	0.095243	0.161811	0.263545	5754.978801	32247.935361	3706.299571	14553.195293
92.036500	0.157790	0.096428	0.166465	0.267289	5731.739585	32075.002154	3708.289535	14452.116022
92.539500	0.161129	0.096796	0.165396	0.264499	5773.656678	32288.560109	3712.061640	14527.346529
93.037500	0.157943	0.096623	0.164270	0.267674	5730.170867	32062.235656	3702.661510	14441.787897
93.534500	0.160022	0.095819	0.164167	0.264737	5764.412455	32206.217428	3708.845368	14520.918057
94.035500	0.161126	0.096407	0.166414	0.267904	5750.279415	32032.174430	3706.832493	14435.596824
94.535000	0.158379	0.096860	0.164629	0.265879	5745.352157	32199.403182	3707.358717	14490.094559
95.035500	0.158429	0.097511	0.167068	0.269577	5720.568037	31993.925821	3704.608491	14390.783156
95.535500	0.162449	0.097074	0.168203	0.266978	5765.685711	32139.569635	3712.781864	14460.479671
96.036000	0.159697	0.097380	0.159970	0.269593	5729.046133	31984.075537	3689.232463	14390.351798
96.536500	0.163249	0.097881	0.169050	0.267555	5767.223352	32155.119850	3713.375636	14444.982038
97.039000	0.159858	0.097615	0.163283	0.270903	5721.260694	31911.946991	3693.536508	14355.377141
97.537000	0.162547	0.098526	0.174702	0.268633	5755.009039	32125.871801	3723.488398	14416.041317
