sample name	sample
index	859
start time	 04-08-2021  12:23:17 PM


Wavelength (nm)	Absorbance
494.344910	0.021628
494.563924	0.021628
494.782919	0.021628
495.001897	-0.041894
495.220856	-0.003710
495.439797	-0.006493
495.658719	-0.006345
495.877624	0.000360
496.096510	0.005390
496.315378	0.009079
496.534227	0.014357
496.753059	0.016882
496.971872	0.007297
497.190667	0.091877
497.409444	0.129476
497.628203	0.141072
497.846943	0.148764
498.065665	0.151926
498.284369	0.154005
498.503055	0.156038
498.721723	0.158000
498.940372	0.159708
499.159003	0.160035
499.377616	0.159562
499.596210	0.160554
499.814787	0.159347
500.033345	0.159641
500.251885	0.160476
500.470406	0.160528
500.688910	0.161392
500.907395	0.162373
501.125862	0.162725
501.344311	0.163128
501.562742	0.162737
501.781154	0.163090
501.999548	0.163910
502.217924	0.164838
502.436282	0.166196
502.654621	0.165706
502.872942	0.166845
503.091245	0.165693
503.309530	0.165628
503.527797	0.165779
503.746045	0.165775
503.964275	0.166243
504.182487	0.166128
504.400681	0.165104
504.618856	0.166587
504.837013	0.165853
505.055152	0.167184
505.273273	0.168285
505.491376	0.168156
505.709460	0.168924
505.927526	0.169358
506.145574	0.169539
506.363604	0.170557
506.581615	0.169495
506.799608	0.170303
507.017583	0.170355
507.235540	0.170507
507.453478	0.171970
507.671399	0.172452
507.889301	0.172066
508.107185	0.170977
508.325050	0.170826
508.542898	0.171779
508.760727	0.171494
508.978538	0.171784
509.196330	0.171709
509.414105	0.171112
509.631861	0.171228
509.849599	0.171506
510.067319	0.173130
510.285021	0.172972
510.502704	0.173017
510.720369	0.173575
510.938016	0.173386
511.155645	0.173784
511.373255	0.174098
511.590848	0.174631
511.808422	0.174717
512.025977	0.173999
512.243515	0.174853
512.461034	0.175155
512.678536	0.175150
512.896018	0.175783
513.113483	0.176122
513.330930	0.176682
513.548358	0.176892
513.765768	0.177636
513.983160	0.178006
514.200533	0.177837
514.417889	0.177302
514.635226	0.177999
514.852545	0.178133
515.069845	0.178146
515.287128	0.178216
515.504392	0.177806
515.721638	0.178286
515.938866	0.179220
516.156075	0.179289
516.373267	0.181304
516.590440	0.180885
516.807594	0.180888
517.024731	0.180751
517.241850	0.181192
517.458950	0.181972
517.676032	0.181940
517.893095	0.182644
518.110141	0.183210
518.327168	0.182448
518.544177	0.182656
518.761168	0.183546
518.978141	0.183149
519.195095	0.183355
519.412031	0.183324
519.628949	0.184154
519.845849	0.184158
520.062731	0.184029
520.279594	0.184596
520.496439	0.185262
520.713266	0.184700
520.930074	0.186115
521.146865	0.185755
521.363637	0.185604
521.580391	0.185421
521.797127	0.184868
522.013844	0.185077
522.230543	0.184581
522.447224	0.184329
522.663887	0.184364
522.880532	0.183933
523.097158	0.185699
523.313766	0.186108
523.530356	0.186050
523.746928	0.187165
523.963481	0.188054
524.180017	0.189396
524.396534	0.190441
524.613032	0.191027
524.829513	0.191567
525.045975	0.191238
525.262420	0.191695
525.478845	0.191850
525.695253	0.190939
525.911643	0.190971
526.128014	0.190764
526.344367	0.190628
526.560702	0.191027
526.777018	0.192109
526.993316	0.192154
527.209597	0.192556
527.425858	0.193123
527.642102	0.193990
527.858328	0.194664
528.074535	0.194587
528.290724	0.195131
528.506894	0.196363
528.723047	0.196345
528.939181	0.196715
529.155297	0.196786
529.371395	0.196966
529.587475	0.197737
529.803536	0.197095
530.019579	0.197850
530.235604	0.198308
530.451611	0.197889
530.667600	0.198071
530.883570	0.198735
531.099522	0.199570
531.315456	0.200397
531.531372	0.200961
531.747269	0.201473
531.963148	0.201696
532.179009	0.201870
532.394852	0.202327
532.610676	0.203104
532.826482	0.203456
533.042271	0.203891
533.258040	0.204247
533.473792	0.204321
533.689525	0.205360
533.905240	0.205469
534.120937	0.205220
534.336616	0.205559
534.552277	0.205131
534.767919	0.205579
534.983543	0.205503
535.199149	0.205732
535.414736	0.206057
535.630306	0.205892
535.845857	0.205913
536.061390	0.207106
536.276904	0.207837
536.492401	0.208692
536.707879	0.208192
536.923339	0.208775
537.138781	0.208841
537.354204	0.209173
537.569610	0.209698
537.784997	0.210583
538.000366	0.210601
538.215716	0.210571
538.431049	0.210341
538.646363	0.210835
538.861659	0.211272
539.076937	0.211921
539.292196	0.212337
539.507438	0.212818
539.722661	0.213395
539.937866	0.213637
540.153052	0.214013
540.368221	0.214300
540.583371	0.215060
540.798503	0.214591
541.013617	0.214928
541.228712	0.215002
541.443789	0.215163
541.658848	0.214954
541.873889	0.215525
542.088912	0.215860
542.303916	0.216569
542.518902	0.216346
542.733870	0.217011
542.948820	0.216894
543.163752	0.216838
543.378665	0.216863
543.593560	0.216955
543.808437	0.217246
544.023295	0.217522
544.238136	0.217609
544.452958	0.217940
544.667762	0.218601
544.882548	0.218574
545.097315	0.219211
545.312064	0.219329
545.526795	0.219677
545.741508	0.220060
545.956203	0.219776
546.170879	0.220159
546.385537	0.220548
546.600177	0.220470
546.814799	0.221712
547.029402	0.221806
547.243988	0.222427
547.458555	0.223150
547.673103	0.222856
547.887634	0.222994
548.102146	0.223135
548.316640	0.223574
548.531116	0.223972
548.745574	0.223900
548.960013	0.224280
549.174435	0.224902
549.388838	0.225446
549.603222	0.226247
549.817589	0.227049
550.031937	0.227421
550.246267	0.227519
550.460579	0.227640
550.674873	0.227817
550.889148	0.228580
551.103405	0.228291
551.317644	0.228173
551.531865	0.227596
551.746068	0.228046
551.960252	0.228287
552.174418	0.228589
552.388566	0.228971
552.602696	0.228835
552.816807	0.228412
553.030900	0.229088
553.244975	0.229289
553.459032	0.230066
553.673070	0.229954
553.887091	0.230345
554.101093	0.230294
554.315077	0.230288
554.529042	0.231030
554.742990	0.231441
554.956919	0.231182
555.170830	0.230935
555.384722	0.231113
555.598597	0.231060
555.812453	0.231418
556.026291	0.231993
556.240111	0.232140
556.453913	0.231933
556.667696	0.232015
556.881461	0.232730
557.095208	0.233271
557.308937	0.232945
557.522647	0.233137
557.736339	0.232929
557.950013	0.233210
558.163669	0.233293
558.377307	0.233492
558.590926	0.233881
558.804527	0.233632
559.018110	0.233942
559.231675	0.234642
559.445221	0.234865
559.658749	0.235077
559.872259	0.234746
560.085751	0.234942
560.299225	0.234769
560.512680	0.234561
560.726117	0.234914
560.939536	0.234870
561.152937	0.234711
561.366319	0.234945
561.579683	0.234903
561.793029	0.235383
562.006357	0.236076
562.219667	0.236694
562.432958	0.237404
562.646231	0.237358
562.859486	0.237568
563.072723	0.238284
563.285941	0.238795
563.499141	0.239469
563.712323	0.239782
563.925487	0.239910
564.138632	0.240468
564.351760	0.240245
564.564869	0.240665
564.777960	0.240958
564.991032	0.240851
565.204087	0.240893
565.417123	0.240468
565.630141	0.240502
565.843140	0.241018
566.056122	0.240496
566.269085	0.240587
566.482030	0.240985
566.694957	0.240679
566.907866	0.240355
567.120756	0.240641
567.333628	0.240786
567.546482	0.240479
567.759318	0.240076
567.972135	0.240524
568.184935	0.240960
568.397716	0.240979
568.610478	0.241851
568.823223	0.242446
569.035949	0.242309
569.248657	0.242739
569.461347	0.243259
569.674019	0.243769
569.886672	0.243954
570.099308	0.243864
570.311925	0.243962
570.524523	0.243910
570.737104	0.244785
570.949666	0.244996
571.162210	0.244969
571.374736	0.245069
571.587244	0.244996
571.799733	0.245178
572.012205	0.245464
572.224658	0.245768
572.437092	0.246111
572.649509	0.245441
572.861907	0.245593
573.074287	0.245970
573.286649	0.245851
573.498993	0.245827
573.711318	0.245361
573.923625	0.245270
574.135914	0.245370
574.348185	0.245408
574.560438	0.245668
574.772672	0.245679
574.984888	0.245534
575.197086	0.246136
575.409266	0.246179
575.621427	0.246731
575.833570	0.247163
576.045695	0.246989
576.257802	0.247024
576.469890	0.247169
576.681961	0.247515
576.894013	0.247931
577.106046	0.248103
577.318062	0.248536
577.530059	0.248792
577.742039	0.248618
577.954000	0.248892
578.165942	0.248934
578.377867	0.248846
578.589773	0.248783
578.801661	0.248788
579.013531	0.248817
579.225382	0.249068
579.437216	0.249247
579.649031	0.250024
579.860828	0.250694
580.072606	0.251131
580.284367	0.251626
580.496109	0.252273
580.707833	0.252581
580.919539	0.252558
581.131227	0.252127
581.342896	0.252259
581.554547	0.252027
581.766180	0.251729
581.977795	0.251394
582.189391	0.251380
582.400969	0.251014
582.612529	0.251151
582.824071	0.251215
583.035595	0.251963
583.247100	0.251821
583.458587	0.251961
583.670056	0.251853
583.881506	0.252081
584.092939	0.252325
584.304353	0.253015
584.515749	0.252789
584.727127	0.253047
584.938486	0.252830
585.149828	0.253588
585.361151	0.253731
585.572456	0.253861
585.783742	0.254094
585.995011	0.254136
586.206261	0.253864
586.417493	0.254263
586.628706	0.254484
586.839902	0.254571
587.051079	0.254336
587.262238	0.254488
587.473379	0.254810
587.684502	0.255061
587.895606	0.255530
588.106692	0.255492
588.317760	0.255550
588.528810	0.255629
588.739841	0.256367
588.950855	0.256517
589.161850	0.256864
589.372827	0.256790
589.583785	0.256953
589.794726	0.256910
590.005648	0.257180
590.216552	0.257210
590.427437	0.257491
590.638305	0.257423
590.849154	0.257376
591.059985	0.257511
591.270798	0.257971
591.481592	0.258101
591.692369	0.258405
591.903127	0.258711
592.113867	0.259186
592.324588	0.259314
592.535292	0.259357
592.745977	0.259684
592.956644	0.259386
593.167293	0.259711
593.377923	0.259541
593.588536	0.259482
593.799130	0.259601
594.009706	0.259888
594.220263	0.260070
594.430803	0.260363
594.641324	0.260473
594.851827	0.261149
595.062312	0.261089
595.272778	0.261512
595.483227	0.261720
595.693657	0.261970
595.904069	0.262074
596.114462	0.262236
596.324838	0.261981
596.535195	0.262180
596.745534	0.262098
596.955855	0.262093
597.166157	0.262057
597.376441	0.262194
597.586707	0.262118
597.796955	0.262062
598.007185	0.261979
598.217396	0.262052
598.427589	0.262476
598.637764	0.262277
598.847921	0.262362
599.058060	0.262617
599.268180	0.262818
599.478282	0.263095
599.688366	0.263547
599.898431	0.263900
600.108479	0.264259
600.318508	0.264205
600.528519	0.264754
600.738511	0.265214
600.948486	0.265216
601.158442	0.265459
601.368380	0.265435
601.578300	0.265141
601.788202	0.265487
601.998085	0.265772
602.207950	0.265795
602.417797	0.265886
602.627626	0.265631
602.837436	0.265797
603.047228	0.265502
603.257002	0.265720
603.466758	0.265759
603.676496	0.265434
603.886215	0.265593
604.095916	0.266031
604.305599	0.266146
604.515264	0.266327
604.724910	0.266812
604.934538	0.267259
605.144148	0.267074
605.353740	0.267222
605.563314	0.267775
605.772869	0.267794
605.982406	0.267756
606.191925	0.267853
606.401425	0.267940
606.610908	0.267894
606.820372	0.267803
607.029818	0.268427
607.239246	0.268777
607.448655	0.268815
607.658047	0.268661
607.867420	0.268459
608.076775	0.268412
608.286111	0.269015
608.495430	0.269222
608.704730	0.269390
608.914012	0.269195
609.123275	0.269479
609.332521	0.269353
609.541748	0.269630
609.750957	0.270106
609.960148	0.270269
610.169321	0.270200
610.378475	0.270169
610.587611	0.270297
610.796729	0.270445
611.005829	0.270291
611.214910	0.270390
611.423974	0.270449
611.633019	0.270465
611.842045	0.270859
612.051054	0.270867
612.260044	0.270972
612.469017	0.271259
612.677970	0.271355
612.886906	0.271559
613.095824	0.272125
613.304723	0.272262
613.513604	0.272566
613.722467	0.272262
613.931311	0.272374
614.140138	0.272544
614.348946	0.272561
614.557736	0.272883
614.766507	0.273240
614.975261	0.273131
615.183996	0.273150
615.392713	0.272984
615.601412	0.273229
615.810092	0.273359
616.018754	0.273526
616.227399	0.273915
616.436024	0.274105
616.644632	0.273773
616.853222	0.273697
617.061793	0.274073
617.270346	0.274314
617.478880	0.274763
617.687397	0.274680
617.895895	0.274925
618.104375	0.274771
618.312837	0.275130
618.521281	0.275350
618.729706	0.275447
618.938113	0.275386
619.146502	0.275653
619.354873	0.275770
619.563226	0.276211
619.771560	0.276102
619.979876	0.276363
620.188174	0.276273
620.396453	0.276694
620.604715	0.277029
620.812958	0.276897
621.021183	0.276993
621.229390	0.277030
621.437578	0.276911
621.645748	0.276979
621.853900	0.276796
622.062034	0.276786
622.270150	0.276740
622.478247	0.277171
622.686326	0.277703
622.894387	0.277853
623.102430	0.277939
623.310454	0.278300
623.518461	0.278473
623.726449	0.278912
623.934418	0.279016
624.142370	0.279189
624.350303	0.279028
624.558218	0.279315
624.766115	0.279140
624.973994	0.279182
625.181855	0.279339
625.389697	0.279464
625.597521	0.279577
625.805327	0.279849
626.013114	0.279819
626.220883	0.279783
626.428634	0.279836
626.636367	0.280180
626.844082	0.280370
627.051778	0.280261
627.259457	0.280332
627.467117	0.280258
627.674758	0.280338
627.882382	0.280607
628.089987	0.280532
628.297574	0.280540
628.505143	0.280639
628.712694	0.280912
628.920226	0.281112
629.127740	0.281469
629.335236	0.281872
629.542714	0.281994
629.750174	0.282147
629.957615	0.282618
630.165038	0.282952
630.372443	0.283344
630.579829	0.283522
630.787198	0.283792
630.994548	0.283616
631.201880	0.283514
631.409194	0.283692
631.616489	0.283937
631.823766	0.284118
632.031025	0.284299
632.238266	0.284194
632.445489	0.284272
632.652693	0.284248
632.859879	0.284625
633.067047	0.284712
633.274197	0.284823
633.481329	0.284829
633.688442	0.284945
633.895537	0.284997
634.102614	0.285199
634.309672	0.284979
634.516713	0.285262
634.723735	0.285471
634.930739	0.285661
635.137724	0.285726
635.344692	0.285901
635.551641	0.286105
635.758572	0.286282
635.965485	0.286190
636.172379	0.286539
636.379256	0.286487
636.586114	0.286312
636.792954	0.286607
636.999775	0.287009
637.206579	0.287209
637.413364	0.287352
637.620131	0.287675
637.826880	0.288133
638.033610	0.288210
638.240323	0.288686
638.447017	0.289231
638.653692	0.289439
638.860350	0.289513
639.066990	0.289668
639.273611	0.290008
639.480214	0.289835
639.686798	0.289914
639.893365	0.290333
640.099913	0.290323
640.306443	0.290669
640.512955	0.290737
640.719449	0.291022
640.925924	0.291136
641.132381	0.291195
641.338820	0.291166
641.545241	0.291347
641.751644	0.291479
641.958028	0.291663
642.164394	0.291803
642.370742	0.291820
642.577071	0.291725
642.783383	0.291813
642.989676	0.291669
643.195951	0.292251
643.402207	0.292419
643.608446	0.292538
643.814666	0.292781
644.020868	0.292650
644.227052	0.292864
644.433218	0.292973
644.639365	0.293095
644.845494	0.292994
645.051605	0.292808
645.257698	0.292959
645.463772	0.293118
645.669828	0.293343
645.875866	0.293397
646.081886	0.293512
646.287888	0.293883
646.493871	0.294198
646.699836	0.294643
646.905783	0.295051
647.111712	0.295216
647.317622	0.295266
647.523514	0.295352
647.729388	0.295635
647.935244	0.296109
648.141082	0.296445
648.346901	0.296615
648.552702	0.296934
648.758485	0.296901
648.964250	0.297097
649.169996	0.297460
649.375724	0.298004
649.581434	0.298356
649.787126	0.298546
649.992800	0.298479
650.198455	0.298738
650.404092	0.298737
650.609711	0.298985
650.815311	0.299402
651.020894	0.299473
651.226458	0.299179
651.432004	0.299144
651.637532	0.299517
651.843041	0.299659
652.048532	0.299891
652.254006	0.300307
652.459460	0.300498
652.664897	0.300380
652.870315	0.300541
653.075716	0.300642
653.281097	0.301063
653.486461	0.301177
653.691807	0.301213
653.897134	0.301540
654.102443	0.301752
654.307734	0.301865
654.513006	0.302015
654.718261	0.302169
654.923497	0.302615
655.128715	0.302865
655.333915	0.302644
655.539096	0.303013
655.744259	0.303011
655.949404	0.303308
656.154531	0.303846
656.359640	0.304167
656.564730	0.304442
656.769802	0.304865
656.974856	0.304892
657.179892	0.305229
657.384909	0.305653
657.589908	0.305785
657.794889	0.305773
657.999852	0.305781
658.204797	0.306040
658.409723	0.306054
658.614631	0.306208
658.819521	0.306308
659.024393	0.306408
659.229246	0.306372
659.434081	0.306389
659.638898	0.306663
659.843697	0.306600
660.048478	0.306711
660.253240	0.306808
660.457984	0.306667
660.662710	0.306921
660.867417	0.307372
661.072107	0.307449
661.276778	0.307858
661.481431	0.307872
661.686066	0.308334
661.890682	0.308216
662.095281	0.308690
662.299861	0.308589
662.504422	0.308681
662.708966	0.308631
662.913491	0.308863
663.117999	0.308849
663.322488	0.308973
663.526958	0.309145
663.731411	0.309642
663.935845	0.309967
664.140261	0.310469
664.344659	0.310793
664.549038	0.311118
664.753400	0.311300
664.957743	0.311643
665.162068	0.312158
665.366375	0.312463
665.570663	0.312568
665.774933	0.312442
665.979185	0.312641
666.183419	0.312678
666.387635	0.312720
666.591832	0.312963
666.796011	0.313222
667.000172	0.313347
667.204315	0.313461
667.408439	0.313716
667.612545	0.314378
667.816634	0.314698
668.020703	0.314965
668.224755	0.315305
668.428788	0.315566
668.632803	0.315761
668.836800	0.315972
669.040779	0.316174
669.244739	0.316376
669.448681	0.316419
669.652605	0.316633
669.856511	0.317030
670.060399	0.317327
670.264268	0.317422
670.468119	0.317678
670.671952	0.317620
670.875767	0.317761
671.079563	0.317920
671.283341	0.317959
671.487101	0.318057
671.690843	0.317975
671.894567	0.318324
672.098272	0.318659
672.301959	0.318526
672.505628	0.318927
672.709278	0.318999
672.912911	0.319408
673.116525	0.319516
673.320121	0.319600
673.523699	0.319794
673.727258	0.319810
673.930799	0.320057
674.134322	0.320527
674.337827	0.320656
674.541314	0.321092
674.744782	0.321030
674.948232	0.321292
675.151664	0.321579
675.355078	0.321660
675.558474	0.321919
675.761851	0.322131
675.965210	0.322429
676.168551	0.322446
676.371873	0.322625
676.575178	0.322743
676.778464	0.322918
676.981732	0.323269
677.184981	0.323630
677.388213	0.323738
677.591426	0.324003
677.794621	0.323857
677.997798	0.324236
678.200956	0.324596
678.404097	0.324750
678.607219	0.324844
678.810323	0.324909
679.013408	0.325122
679.216476	0.325051
679.419525	0.325003
679.622556	0.325442
679.825569	0.325838
680.028563	0.325916
680.231540	0.326204
680.434498	0.326539
680.637438	0.326858
680.840359	0.327178
681.043263	0.327677
681.246148	0.327901
681.449015	0.328032
681.651864	0.328047
681.854694	0.327998
682.057506	0.328290
682.260301	0.328479
682.463076	0.328652
682.665834	0.328554
682.868573	0.328471
683.071295	0.328555
683.273998	0.328865
683.476682	0.329311
683.679349	0.329491
683.881997	0.329573
684.084627	0.329751
684.287239	0.329873
684.489833	0.330167
684.692408	0.330593
684.894965	0.330714
685.097504	0.330739
685.300025	0.330658
685.502527	0.330880
685.705012	0.331051
685.907478	0.331109
686.109925	0.331180
686.312355	0.331328
686.514766	0.331573
686.717159	0.331765
686.919534	0.332013
687.121891	0.332109
687.324230	0.332405
687.526550	0.332698
687.728852	0.333047
687.931136	0.333199
688.133401	0.333544
688.335649	0.333761
688.537878	0.334157
688.740089	0.334496
688.942281	0.334865
689.144456	0.334865
689.346612	0.335058
689.548750	0.335360
689.750870	0.335687
689.952971	0.335919
690.155055	0.335902
690.357120	0.335914
690.559167	0.335801
690.761195	0.335839
690.963206	0.336156
691.165198	0.336502
691.367172	0.336699
691.569128	0.336728
691.771065	0.336886
691.972984	0.336776
692.174885	0.337109
692.376768	0.337360
692.578633	0.337324
692.780479	0.337527
692.982308	0.337260
693.184118	0.337062
693.385909	0.337100
