sample name	sample
index	212
start time	 02-22-2021  09:55:30 AM
880	0.483913
Peak Time (s)	91.538
Peak Height 	0.4839
calc peak height	90,93
Baseline Time (s)	11.537
Baseline Value 	-0.00256
subtract baseline	10,4
Abs	0.331439
Peak Time (s)	90.535
Peak Height 	0.3314
calc peak height	90,93
Baseline Time (s)	10.537
Baseline Value 	0.001513
subtract baseline	10,3
PK_550	0.158824
Peak Time (s)	90.535
Peak Height 	0.1588
calc peak height	90,93
Baseline Time (s)	8.539
Baseline Value 	-9.3609E-5
subtract baseline	10,2
PK_880	0.307536
Peak Time (s)	90.535
Peak Height 	0.3075
calc peak height	90,93
Baseline Time (s)	10.036
Baseline Value 	1.1762E-4
subtract baseline	10,1


Time (s)	A880-A510	A880-A775	A880-A975	A880	I510	I775	I975	I880	
0.036000	-0.002092	0.000048	-0.003397	0.005348	6793.896498	46748.966208	3870.849611	24466.589500
0.536500	-0.000927	-0.000793	-0.003750	0.004365	6814.298927	46763.238008	3872.623937	24515.983456
1.036500	-0.002350	-0.000287	-0.003565	0.003568	6808.337254	46895.673689	3875.395062	24556.121091
1.537000	0.000339	0.000228	-0.003777	0.000721	6861.326930	47239.298124	3882.871277	24700.173995
2.037000	-0.002137	-0.000262	-0.000835	0.005331	6793.628210	46719.144723	3878.134461	24467.435787
2.538000	0.000382	0.000417	-0.001785	0.000401	6864.827864	47291.495239	3889.465511	24716.418077
3.037500	0.000258	0.000259	-0.003435	-0.001625	6883.205289	47483.875430	3890.540735	24819.570659
3.535000	-0.001265	0.000233	0.000932	0.000282	6850.124798	47284.930238	3897.604474	24722.483594
4.038500	-0.002885	0.000256	-0.002581	0.004958	6790.072876	46809.639666	3874.249881	24486.177826
4.535500	-0.000638	0.000340	0.000649	0.001015	6849.096707	47220.619071	3894.682419	24685.246755
5.036000	-0.000273	0.000264	-0.001638	0.000790	6854.775171	47235.894004	3888.773018	24696.670476
5.536500	0.002034	0.000609	0.001767	0.000426	6880.538369	47308.674263	3899.592406	24715.127256
6.037000	0.001280	0.000039	0.001464	0.000509	6872.455393	47241.704110	3898.482772	24710.957032
6.537000	0.000501	0.000327	0.000349	0.000389	6866.094549	47283.545402	3895.619020	24717.046311
7.037000	0.002259	0.000574	-0.004675	0.000564	6881.383797	47290.843507	3880.763055	24708.117330
7.534500	0.000701	0.000211	-0.003392	0.000283	6869.044085	47282.549338	3885.213538	24722.425418
8.034500	0.000394	0.000772	0.000481	0.001041	6858.771228	47262.221299	3894.124710	24683.917792
8.538500	0.000927	0.000000	0.000137	-0.000184	6875.736509	47308.813790	3896.655771	24746.156931
9.035500	-0.000119	0.000019	0.000794	0.000421	6859.807521	47248.635160	3896.806340	24715.399278
9.536000	0.000370	0.000114	0.002056	0.000561	6863.172484	47244.074245	3900.038690	24708.315826
10.036000	0.000000	0.000337	-0.001295	0.000761	6857.674262	47246.285973	3889.836743	24698.117295
10.536500	-0.000117	-0.000268	0.000000	-0.000012	6863.998889	47263.696865	3895.769210	24737.427140
11.036500	0.001414	-0.000138	-0.004801	-0.000022	6878.878096	47278.026289	3882.073144	24737.930690
11.536500	-0.001006	-0.000135	-0.002613	0.000000	6855.322370	47276.044194	3888.246259	24736.795989
12.037500	0.002311	0.000475	-0.002945	0.000456	6882.926378	47291.783413	3885.995817	24713.612576
12.535000	0.000650	0.000742	0.004026	0.000709	6864.438279	47293.304426	3905.303608	24700.777773
13.038000	0.001777	0.000726	0.002645	-0.001792	6899.565712	47549.326217	3908.553843	24828.101673
13.536000	0.000536	0.000675	0.000895	-0.000227	6872.376982	47382.644368	3898.965119	24748.358379
14.036000	0.001298	0.000631	-0.001204	-0.000003	6877.566845	47355.003520	3892.286658	24736.935262
14.536000	-0.000390	0.000313	-0.002077	0.002550	6836.756107	47060.752530	3882.503884	24607.539440
15.036000	-0.000078	0.000940	-0.001484	0.001550	6849.337376	47227.238711	3887.042707	24658.124195
15.547500	0.001273	0.000536	0.001428	-0.000556	6882.675136	47402.206893	3901.449909	24765.072168
16.037000	0.001025	0.000173	-0.001040	-0.000678	6881.465419	47377.397279	3894.695037	24771.304545
16.537000	0.001795	0.000282	-0.003879	-0.000613	6888.286899	47381.883175	3886.380649	24767.989361
17.037500	-0.000383	0.000446	0.000787	0.000393	6857.527766	47295.314224	3896.865246	24716.811713
17.535000	0.001398	0.000176	0.001675	-0.002991	6907.536184	47616.375656	3909.217193	24889.379189
18.035500	0.000391	0.000475	0.002253	0.001165	6857.556768	47219.103057	3898.864366	24677.645501
18.536000	0.000847	0.000643	0.002159	0.001851	6855.336402	47165.975978	3896.619106	24642.893625
19.036000	-0.000824	0.000604	-0.000215	0.002008	6837.788545	47145.889128	3889.359199	24634.940904
19.536000	0.000197	0.001356	0.001446	0.002700	6840.944411	47152.097656	3892.134299	24599.953255
20.036500	0.001482	0.000427	0.001631	0.001665	6863.240717	47162.920585	3895.634272	24652.306572
20.536500	-0.001370	0.000165	0.002344	0.001388	6838.510057	47164.526505	3898.484803	24666.360273
21.037000	0.000484	0.000775	0.003705	0.002124	6849.235051	47151.619070	3900.286998	24629.098527
21.537000	0.001048	0.000912	0.002011	0.001984	6856.001687	47179.989012	3895.812038	24636.181071
22.035000	0.000741	0.001427	0.001064	0.002226	6850.714291	47207.827854	3892.397257	24623.890518
22.535000	0.000635	0.000141	-0.000583	0.001832	6853.481016	47116.533759	3888.811026	24643.848383
23.035500	0.000665	-0.000143	0.002551	0.001551	6856.475365	47116.173277	3898.610119	24658.058052
23.536000	-0.002052	0.000084	-0.001113	0.001050	6835.207151	47190.756680	3889.531250	24683.479399
24.036500	0.001225	0.000843	-0.002376	0.002016	6857.393029	47169.642545	3883.174136	24634.562794
24.536500	0.000677	0.000747	0.000904	0.002053	6851.769408	47155.997959	3892.435196	24632.678575
25.037000	0.000957	0.000477	0.003060	0.001697	6857.882123	47164.748559	3899.657250	24650.673829
25.537000	-0.000740	0.000278	-0.003449	0.001727	6841.297731	47141.346157	3880.945400	24649.193923
26.037500	-0.000123	0.001238	0.000525	0.002205	6842.625040	47190.684792	3890.913533	24624.987167
26.534500	-0.002024	0.000623	0.001426	0.001789	6828.410327	47170.313046	3894.692334	24646.050764
27.038000	-0.000869	0.000565	-0.001188	0.002341	6834.175948	47107.866821	3885.631350	24618.105111
27.535500	0.001886	-0.000323	0.003391	-0.000841	6891.379225	47343.068345	3907.957747	24779.578911
28.035500	0.000488	0.000766	0.001057	-0.000730	6876.772061	47443.803041	3900.882509	24773.947280
28.536000	0.000493	0.000029	-0.000025	-0.000940	6878.851317	47389.479525	3898.366837	24784.631891
29.036000	-0.000054	0.000290	0.001227	0.001579	6849.293155	47157.724216	3894.722682	24656.652469
29.536500	-0.000194	0.000577	0.002946	-0.000325	6866.270196	47382.698586	3905.172800	24753.330768
30.037000	-0.000240	0.000936	0.001978	0.002798	6835.815122	47098.996084	3893.378786	24594.981080
30.537000	0.002987	0.000454	0.002053	-0.000183	6895.687593	47355.355415	3902.179446	24746.114336
31.042000	0.001546	0.000596	-0.001204	0.001811	6862.456259	47165.226907	3887.097413	24644.903705
31.538000	0.000252	0.000603	0.000952	0.003120	6837.448220	47032.141216	3889.517204	24578.752579
32.035000	-0.002690	0.000578	-0.001014	0.003223	6808.386218	47019.082845	3883.614860	24573.556904
32.535500	0.002777	0.000224	0.001199	-0.000251	6894.312358	47338.781138	3899.909535	24749.581035
33.036000	0.000805	0.000008	0.003145	-0.000586	6878.444241	47350.979053	3906.503321	24766.600206
33.535500	0.000139	0.000551	0.001104	-0.000275	6869.000705	47374.844257	3899.704502	24750.792866
34.036500	0.000124	0.000223	0.003297	0.003335	6834.163645	46971.344508	3895.622394	24567.872267
34.536500	0.002111	0.001038	0.002393	-0.001041	6895.516145	47503.955048	3905.645679	24789.806235
35.037000	-0.000122	0.000441	-0.000294	0.002274	6841.962868	47101.971332	3888.373004	24621.462048
35.537500	-0.001168	-0.000558	-0.001975	0.001901	6835.526083	47038.099602	3884.642143	24640.366730
36.038000	0.000886	0.000948	0.003570	0.002848	6846.128000	47095.187353	3897.809507	24592.453612
36.535000	-0.001152	0.000318	0.001480	0.002248	6832.358655	47092.149978	3893.529733	24622.817453
37.035500	-0.000359	0.000167	-0.001114	0.002077	6841.590427	47094.133409	3886.595597	24631.458021
37.535500	0.001225	0.001356	0.001740	0.003357	6844.501079	47084.874834	3891.092815	24566.781812
38.035500	-0.001329	0.000451	-0.001461	0.002262	6830.533952	47104.267033	3885.076568	24622.091878
38.536000	0.001975	0.000851	0.002067	0.002652	6858.488414	47105.339343	3894.053101	24602.376431
39.036500	-0.001265	0.000470	-0.001106	0.002788	6826.115255	47052.394767	3884.589934	24595.494222
39.536500	0.000345	0.000744	-0.002135	0.002652	6842.822476	47094.368664	3882.048356	24602.352938
40.037500	-0.000736	0.000861	0.001622	0.002603	6832.941477	47111.395014	3892.917853	24604.853842
40.537500	-0.001404	0.000858	0.000337	0.003009	6822.685024	47069.596972	3888.078184	24584.367040
41.037500	-0.000540	0.000565	-0.000684	0.002766	6833.256506	47064.417467	3885.854182	24596.600617
41.535000	-0.000720	0.000795	-0.002529	0.002927	6829.988285	47071.432049	3880.147043	24588.479600
42.035500	0.000451	0.001063	-0.001858	0.003011	6840.402697	47090.305507	3881.817089	24584.260763
42.536000	-0.001220	0.000810	-0.000332	0.002813	6826.311258	47084.717967	3886.727162	24594.260737
43.036000	0.000457	0.000667	0.001810	0.003172	6838.911600	47033.373213	3891.823246	24576.107651
43.536500	0.000326	0.001290	0.003937	0.003063	6838.704430	47108.176161	3898.249560	24581.615804
44.036500	-0.001890	0.000169	0.004892	0.002431	6823.560690	47058.202804	3902.827682	24613.552379
44.536500	0.000838	0.000835	0.000852	0.002794	6846.188723	47089.112291	3890.165147	24595.205359
45.035500	-0.001635	0.000163	-0.001159	0.003993	6811.095432	46898.288179	3881.010314	24534.719987
45.540500	0.000684	0.000447	0.006189	-0.000089	6872.465423	47344.961285	3913.908685	24741.297434
46.045500	0.002093	0.001296	0.004376	0.000226	6883.043575	47399.856095	3907.719423	24725.288522
46.535000	0.001447	0.000462	-0.000385	0.000106	6877.962459	47326.487825	3894.323133	24731.428369
47.035500	-0.000407	0.000273	-0.000142	0.005082	6812.427434	46798.779199	3880.808051	24479.945212
47.536000	0.001051	0.001411	0.003640	0.000253	6872.707030	47408.924861	3905.507591	24723.914138
48.036000	0.002930	0.001070	0.002190	0.001369	6880.090086	47259.215582	3898.097648	24667.329321
48.536500	-0.001603	0.000853	0.001962	0.003468	6816.402888	47022.112201	3891.411441	24561.190546
49.036000	0.001500	0.000738	-0.000322	0.003452	6846.229930	47012.020728	3884.932093	24561.968645
49.537500	0.002290	0.000731	0.001350	0.000602	6881.314427	47303.207921	3897.886298	24706.221227
50.040000	0.002094	0.000559	0.000957	0.001777	6868.058436	47164.913135	3893.378407	24646.616582
50.538000	0.001134	0.001190	0.000883	0.000425	6871.845050	47368.507902	3897.049691	24715.174487
51.035000	0.000480	0.000239	0.000109	0.003283	6838.073039	46978.370883	3886.643451	24570.532959
51.535500	0.001655	0.001138	0.007121	0.000194	6879.127164	47387.005899	3915.807140	24726.953877
52.036000	0.002427	0.000856	0.005445	0.000252	6886.034960	47352.022158	3910.750199	24723.987719
52.536000	0.006259	-0.000593	0.005070	-0.014075	7065.722235	48696.208364	3951.995803	25464.088146
53.036000	-0.004060	-0.019961	0.011324	-0.010451	6927.080439	46323.800696	3959.921608	25274.556963
53.536500	0.001100	-0.027521	0.006888	-0.123699	8258.961105	58346.908023	4333.653445	32012.789660
54.036500	0.003034	-0.026293	0.015172	-0.121967	8261.551985	58282.336020	4359.288225	31895.959392
54.539500	-0.003346	-0.014289	0.007496	-0.075984	7627.315253	54098.286931	4160.311163	28958.371879
55.034500	0.001675	-0.010572	0.001617	-0.087900	7824.157142	55982.715331	4181.494273	29690.054635
55.535000	0.012953	-0.003394	0.008846	-0.049501	7512.609677	52285.807650	4075.243433	27402.503142
56.035500	0.020144	-0.000651	0.021875	-0.011959	7186.254845	48466.483343	3996.879107	25353.225328
56.535500	0.032728	0.001483	0.033938	0.004263	7148.643748	47005.258045	3984.016634	24521.109942
57.036000	0.042796	0.005093	0.043935	0.035183	6939.056850	44304.205908	3921.148091	23018.635676
57.536000	0.057125	0.009952	0.063499	0.079982	6650.331347	40647.477569	3849.241475	21022.954173
58.036500	0.074405	0.018399	0.086338	0.126734	6389.691732	37442.708391	3784.850461	19148.557488
58.537000	0.099275	0.027876	0.110082	0.166347	6265.798655	35112.739932	3744.037387	17710.902851
59.037000	0.121093	0.040968	0.135348	0.212426	6070.862598	32740.988445	3692.719371	16195.490695
59.537500	0.145712	0.054494	0.164721	0.258890	5904.401571	30545.825470	3652.377077	14821.825765
60.034500	0.169782	0.068739	0.187834	0.297933	5795.059332	28999.613502	3616.183008	13775.946554
60.535000	0.188576	0.083579	0.210581	0.330282	5699.268647	27959.871053	3594.997730	12977.836899
61.035000	0.209667	0.097505	0.232418	0.360615	5635.643209	27022.832302	3576.636145	12281.571012
61.535000	0.224599	0.107665	0.243920	0.390884	5533.013899	25921.745712	3537.336627	11633.627734
62.035500	0.233856	0.115252	0.263316	0.396901	5554.393579	26005.845193	3565.178506	11510.110719
62.536000	0.250595	0.125635	0.268516	0.384619	5753.188634	27255.203051	3602.879433	11764.057455
63.036000	0.256202	0.130902	0.276670	0.414717	5584.561046	25889.866161	3555.799927	11154.292568
63.539000	0.259280	0.136427	0.280668	0.405663	5666.902306	26681.968971	3583.514458	11333.286623
64.037000	0.263181	0.140350	0.281479	0.403428	5709.433151	27024.658481	3590.103287	11378.057666
64.534500	0.266066	0.142008	0.285820	0.407051	5704.288743	26914.778755	3591.662665	11305.604262
65.077000	0.267862	0.143314	0.288905	0.407961	5710.471272	26936.910744	3596.404284	11287.503877
65.535500	0.270554	0.145070	0.291176	0.411113	5707.257796	26859.077836	3594.481644	11225.095960
66.035500	0.270725	0.145694	0.293233	0.415348	5679.039542	26658.918519	3589.743174	11141.951721
66.538000	0.274882	0.147951	0.292195	0.418366	5686.926662	26616.969029	3580.983845	11083.193577
67.036500	0.271703	0.147368	0.297495	0.420363	5651.273672	26475.195507	3588.111068	11044.532869
67.546000	0.275557	0.147804	0.294787	0.423885	5653.541717	26306.755503	3574.711784	10976.779023
68.037000	0.278580	0.150016	0.300347	0.427653	5648.448348	26222.309218	3578.546168	10904.924403
68.539000	0.277529	0.151094	0.296901	0.429830	5626.442861	26162.803266	3566.567037	10863.672613
69.036500	0.281676	0.150377	0.297362	0.431975	5640.067242	26008.576524	3563.009881	10823.236728
69.534500	0.279988	0.151386	0.301267	0.433597	5617.575329	25975.699755	3567.836019	10792.797840
70.035000	0.284371	0.153768	0.307270	0.437552	5620.479360	25891.521594	3572.186421	10719.044321
70.537500	0.283096	0.153114	0.306831	0.437558	5611.807781	25856.277602	3571.239681	10718.935461
71.035500	0.283861	0.154413	0.306384	0.441118	5592.986274	25735.934642	3562.754360	10653.120611
71.535000	0.287122	0.153593	0.304785	0.440902	5616.423222	25703.916370	3559.844544	10657.101903
72.035500	0.284922	0.154299	0.307557	0.442315	5592.076615	25666.519922	3562.705145	10631.120122
72.536500	0.285611	0.154838	0.307782	0.444386	5582.817915	25585.549388	3558.820187	10593.173319
73.036500	0.287054	0.156109	0.310952	0.447484	5571.765097	25489.395126	3558.972029	10536.760830
73.537500	0.289164	0.156823	0.311875	0.448435	5579.503695	25476.989239	3558.914776	10519.539222
74.034500	0.288231	0.156561	0.308403	0.449238	5567.922502	25421.161281	3549.984066	10505.005343
74.535500	0.290050	0.157418	0.311472	0.450000	5574.966715	25426.141639	3554.792406	10491.245232
75.035500	0.291467	0.157273	0.312915	0.452557	5567.372290	25285.073407	3552.466670	10445.254780
75.536000	0.294420	0.157403	0.316522	0.453713	5579.350578	25231.732186	3557.590418	10424.549382
76.035500	0.293290	0.158374	0.313709	0.455748	5558.282222	25176.603805	3547.486434	10388.245701
76.536000	0.293301	0.158267	0.315476	0.455898	5557.366831	25163.303148	3550.844497	10385.577670
77.039000	0.294304	0.157473	0.321311	0.456370	5560.881106	25097.871000	3562.068390	10377.174586
77.536500	0.292706	0.157292	0.320037	0.457859	5540.465781	25011.846554	3556.267557	10350.755856
78.036500	0.295101	0.158135	0.319780	0.459061	5548.336992	24993.379191	3553.220410	10329.487770
78.537000	0.293986	0.157946	0.319778	0.459556	5537.714817	24958.280404	3552.184554	10320.751060
79.034000	0.296874	0.158152	0.326280	0.462600	5536.690481	24813.207774	3559.416971	10267.220929
79.538000	0.295156	0.158082	0.322288	0.463700	5518.202975	24753.714365	3548.786452	10247.979916
80.038000	0.296345	0.158985	0.324098	0.463535	5527.065962	24808.045755	3552.894553	10250.853728
80.535500	0.298863	0.157744	0.322667	0.464042	5540.298830	24719.205127	3548.864672	10242.006776
81.036000	0.297760	0.158113	0.316992	0.464748	5528.392677	24702.090740	3535.713162	10229.671191
81.536500	0.298441	0.159521	0.318691	0.468473	5508.484184	24584.950464	3531.579517	10165.002986
82.036500	0.299207	0.158022	0.324132	0.467335	5520.920588	24566.717551	3545.075508	10184.700745
82.537000	0.299685	0.158876	0.327987	0.467931	5520.148037	24579.749169	3551.837059	10174.373972
83.037000	0.302093	0.160310	0.322155	0.470009	5522.312374	24547.352470	3535.514584	10138.504177
83.537000	0.302482	0.159104	0.326496	0.470126	5524.097304	24480.837411	3544.194955	10136.489889
84.035000	0.300339	0.158670	0.322904	0.469896	5511.586244	24470.583450	3537.278393	10140.448290
84.535000	0.300548	0.158979	0.327926	0.471218	5504.332886	24419.835990	3544.893541	10117.706912
85.035000	0.299653	0.158376	0.322659	0.471544	5496.394381	24373.403150	3533.407344	10112.099554
85.536000	0.303290	0.158027	0.323223	0.472106	5516.420120	24327.948758	3533.412680	10102.463405
86.036000	0.302300	0.159052	0.323708	0.474053	5497.294701	24282.067508	3530.433820	10069.162826
86.536500	0.301476	0.158238	0.320246	0.474093	5491.689312	24239.631192	3523.341609	10068.474943
87.039000	0.302369	0.158271	0.325972	0.475910	5485.706443	24151.238736	3531.261338	10037.524775
87.538000	0.301680	0.157231	0.323593	0.474221	5492.179988	24183.362569	3529.858983	10066.295239
88.037000	0.302915	0.158978	0.324312	0.476648	5484.465648	24149.722319	3526.394919	10025.002450
88.534500	0.301034	0.158003	0.331558	0.476182	5475.334225	24124.581941	3542.143383	10032.903909
89.037500	0.304338	0.158015	0.327243	0.477231	5489.899047	24073.471344	3531.160051	10015.119278
89.535500	0.303898	0.158954	0.331279	0.478880	5476.408859	24038.540648	3536.031875	9987.234115
90.035500	0.304199	0.157309	0.327697	0.477280	5488.682462	24036.322914	3531.983730	10014.281231
90.535500	0.307536	0.158824	0.331439	0.479199	5497.877919	24016.452074	3535.706329	9981.851639
91.035500	0.306429	0.158079	0.323958	0.479379	5489.528533	23971.082022	3520.173638	9978.816803
91.538500	0.306040	0.157389	0.331132	0.483913	5457.839681	23716.612353	3525.494604	9902.781068
92.036500	0.306876	0.157975	0.328708	0.481241	5480.384362	23874.937410	3525.996041	9947.483617
92.536500	0.305651	0.156666	0.329904	0.480005	5480.453781	23871.402937	3530.929473	9968.268279
93.037000	0.307291	0.158416	0.332532	0.481851	5479.124891	23866.692185	3532.522057	9937.256896
93.537500	0.300698	0.156677	0.325430	0.484777	5418.389354	23640.394850	3512.317170	9888.364747
94.035000	0.310225	0.158290	0.327158	0.483391	5488.130767	23785.612007	3518.542066	9911.487365
94.535000	0.308688	0.157599	0.333387	0.483066	5480.297107	23767.812105	3531.787562	9916.910000
95.035500	0.306379	0.155952	0.329618	0.483191	5464.637987	23682.010280	3523.894205	9914.827607
95.544000	0.305629	0.157093	0.328403	0.488631	5425.196356	23475.195507	3510.565239	9824.483059
96.042000	0.309095	0.157080	0.332356	0.484317	5474.858471	23682.067299	3527.152411	9896.029982
96.536500	0.311458	0.157232	0.333864	0.484836	5486.761560	23664.329818	3529.159123	9887.387788
97.036000	0.305763	0.155978	0.330576	0.485182	5447.954828	23587.202695	3521.812286	9881.628852
97.537000	0.306485	0.155020	0.325228	0.489449	5425.437865	23337.230953	3502.663241	9810.990815
98.041500	0.310729	0.156463	0.331929	0.486084	5474.000049	23567.159278	3522.719279	9866.638350
