sample name	sample
index	1396
start time	 05-10-2021  10:51:45 AM
880	0.449749
Peak Time (s)	92.037
Peak Height 	0.4497
calc peak height	90,93
Baseline Time (s)	8.536
Baseline Value 	-0.003936
subtract baseline	10,4
Abs	0.310464
Peak Time (s)	91.036
Peak Height 	0.3105
calc peak height	90,93
Baseline Time (s)	10.037
Baseline Value 	0.004297
subtract baseline	10,3
PK_550	0.181357
Peak Time (s)	90.541
Peak Height 	0.1814
calc peak height	90,93
Baseline Time (s)	11.537
Baseline Value 	9.361E-4
subtract baseline	10,2
PK_880	0.294900
Peak Time (s)	91.036
Peak Height 	0.2949
calc peak height	90,93
Baseline Time (s)	11.537
Baseline Value 	0.001148
subtract baseline	10,1


Time (s)	A880-A510	A880-A775	A880-A975	A880	I510	I775	I975	I880	
0.035500	-0.001855	-0.001114	-0.001002	0.002021	6388.588936	44944.738854	3900.480395	23213.880159
0.536500	-0.005820	-0.001356	-0.006686	0.007713	6310.785051	44374.757977	3872.424085	22948.856108
1.036000	0.000054	0.000353	0.002423	0.005178	6378.434214	44781.569963	3901.149529	23066.438789
1.537000	0.000411	0.000096	0.000602	0.001966	6407.552937	45067.326393	3904.635008	23216.466101
2.036500	-0.000621	0.000417	0.005045	0.001728	6401.048166	45121.540100	3916.438782	23227.609559
2.534500	-0.002842	0.000027	-0.004183	0.007871	6333.329337	44491.727342	3878.147320	22941.534276
3.038000	0.000076	-0.000567	-0.000045	-0.000704	6426.728802	45262.399553	3909.720730	23342.019843
3.535000	-0.001517	-0.000054	-0.000014	0.001347	6396.840888	45112.804881	3904.640413	23245.497427
4.035500	-0.001500	-0.000664	-0.000580	0.000641	6402.754636	45122.053623	3904.991883	23278.661920
4.535500	0.000421	-0.000186	-0.003480	0.001154	6414.295412	45118.756969	3896.463132	23254.574073
5.036000	-0.002005	-0.000636	0.000250	0.000577	6399.152858	45131.042994	3907.238642	23281.684902
5.536000	-0.001553	-0.000010	0.001071	0.000923	6400.017358	45158.285768	3908.434982	23265.424697
6.036500	0.000426	0.000407	0.002149	0.000835	6416.944002	45207.331817	3911.372287	23269.540899
6.537000	-0.002391	-0.000274	-0.001379	0.000175	6399.274897	45205.317332	3904.155587	23300.574606
7.037000	0.001185	0.000615	-0.003158	0.000878	6422.834428	45223.464734	3897.951745	23267.521708
7.537500	0.000255	-0.000065	0.002125	0.000182	6420.911402	45224.989244	3912.959913	23300.252413
8.035000	0.001126	0.000071	-0.003340	0.000457	6425.811732	45211.467541	3898.547306	23287.313470
8.535500	0.000167	-0.000116	-0.000218	0.000000	6421.683606	45237.765263	3907.512806	23308.828306
9.038000	0.001184	0.000196	0.004243	0.000768	6423.729017	45193.365750	3916.841188	23272.711670
9.536000	-0.001733	-0.001223	0.002761	-0.000649	6411.409217	45193.193099	3916.674181	23339.419343
10.036500	0.001037	0.000683	0.000000	0.000726	6422.869212	45244.833277	3906.235699	23274.675755
10.536500	-0.000035	0.000248	-0.000074	0.000346	6417.177901	45239.569763	3907.004535	23292.558148
11.036500	-0.002104	-0.000605	0.001781	-0.000379	6406.162188	45227.080983	3913.509515	23326.686035
11.537000	0.000000	0.000000	-0.000537	-0.000043	6420.664705	45253.267908	3906.819866	23310.865636
12.037500	0.000802	-0.000506	0.003313	-0.000291	6429.305453	45228.158310	3917.169076	23322.552083
12.535000	-0.000769	-0.000648	-0.001109	-0.000480	6417.934246	45232.600883	3906.477707	23331.423613
13.035000	-0.001134	-0.000255	-0.005973	-0.000833	6417.835083	45305.409670	3895.203618	23348.075888
13.535500	-0.000794	-0.000938	-0.003366	-0.000307	6416.304261	45187.570237	3900.389266	23323.281118
14.035500	-0.001361	-0.000388	0.001013	0.001668	6395.498016	45049.270782	3906.413397	23230.448000
14.536000	-0.002129	-0.000177	-0.003552	0.002190	6384.979994	45019.002351	3893.706674	23205.945071
15.036000	0.000651	-0.000350	-0.002425	-0.000779	6432.085024	45290.894155	3903.926127	23345.538042
15.536500	0.002986	0.000187	-0.001101	-0.000024	6445.136020	45269.602681	3905.351772	23309.935815
16.037000	0.001648	-0.000185	0.000282	-0.000534	6438.295222	45283.115247	3910.117731	23334.007447
16.538000	0.001741	0.000299	0.001094	0.000104	6433.788825	45268.081320	3910.555597	23303.932805
17.037500	0.000029	-0.000509	-0.000242	-0.002940	6444.794262	45486.557688	3914.869420	23447.738119
17.535000	-0.001039	0.000261	-0.005382	0.001800	6397.049046	45099.399322	3890.137726	23224.245403
18.035500	-0.002623	-0.000927	-0.001547	0.000142	6397.650149	45144.964475	3903.816957	23302.125741
18.540500	0.001632	0.000301	-0.002420	0.001388	6422.313712	45143.250174	3898.519437	23243.559630
19.035500	-0.001045	-0.000598	0.000182	0.000812	6405.077771	45111.940525	3906.478378	23270.643451
19.541500	-0.001143	-0.000631	-0.001249	0.000229	6409.049865	45165.365336	3904.346487	23298.031198
20.036500	0.000892	-0.000229	-0.006113	0.000728	6421.660483	45155.984482	3890.982664	23274.594988
20.536500	-0.001824	-0.000128	-0.002991	0.000808	6398.742570	45157.999737	3898.543330	23270.837257
21.037000	-0.001708	-0.000393	0.001147	0.000557	6401.740132	45156.641450	3909.546647	23282.617281
21.542500	-0.002467	-0.000742	0.000887	0.000648	6394.797602	45113.909143	3908.661584	23278.348509
22.035000	-0.002273	-0.000765	-0.002070	0.000909	6394.245166	45086.291843	3900.589186	23266.049684
22.535000	-0.000480	-0.000348	0.000611	0.001000	6408.158734	45117.876975	3907.080723	23261.775077
23.038000	-0.000776	-0.000039	0.000053	0.001110	6404.842192	45137.273496	3905.405341	23256.629062
23.535500	0.000771	0.000255	-0.002700	0.001521	6414.146890	45125.881690	3897.492154	23237.334746
24.036000	-0.000930	-0.000308	-0.002664	0.000921	6405.128366	45129.503029	3899.075649	23265.499270
24.544500	-0.001173	0.000544	-0.003814	0.001411	6399.136998	45164.728325	3894.994075	23242.513458
25.036000	-0.001946	-0.000844	0.001302	0.000466	6400.533281	45121.551141	3910.166411	23286.878506
25.536000	-0.001596	-0.000044	-0.002855	0.000746	6401.109927	45172.122434	3899.035592	23273.715132
26.037500	-0.001619	-0.000444	0.001362	0.001027	6398.622360	45105.995762	3908.902990	23260.522703
26.537000	0.000094	0.000118	0.002607	0.001419	6409.434806	45122.527448	3911.053798	23242.125627
27.034500	0.001186	0.000104	-0.001078	-0.001359	6441.293080	45391.882582	3908.769617	23372.940292
27.534500	0.001260	-0.000006	0.002523	-0.001371	6442.001795	45382.227086	3917.903726	23373.492484
28.035500	-0.000834	-0.000002	0.002369	-0.001005	6421.713548	45346.932741	3916.583188	23356.218560
28.535500	-0.001647	0.000124	-0.003147	0.000724	6400.875089	45190.690652	3898.364737	23274.764734
29.036000	0.000213	-0.000210	-0.000035	-0.000758	6428.293765	45302.483770	3909.880164	23344.541201
29.536500	0.000971	-0.000423	-0.000053	-0.001018	6436.700663	45307.107601	3910.493163	23356.839697
30.037000	0.001296	-0.001037	0.004766	-0.001216	6441.021778	45266.492063	3923.216342	23366.169775
30.537000	-0.002171	-0.000123	-0.000782	0.002354	6383.300057	45008.373461	3900.196695	23198.259803
31.036500	-0.000891	-0.000966	-0.003240	0.000941	6405.282174	45063.632909	3897.589893	23264.546529
31.537500	-0.000078	-0.000148	-0.001384	-0.000843	6426.605380	45316.862084	3906.699644	23348.574985
32.037500	-0.000839	0.000091	0.003155	-0.000621	6418.519242	45318.487652	3917.603569	23338.097391
32.534500	-0.001231	-0.000418	0.001411	-0.000377	6413.296126	45245.105447	3912.568783	23326.601778
33.035500	0.000278	-0.000581	0.002398	-0.001439	6434.450108	45332.761320	3917.759767	23376.714420
33.536000	-0.000483	-0.000789	-0.002323	0.000441	6412.716763	45129.331843	3901.125413	23288.049455
34.036000	-0.002044	0.000004	-0.000829	0.001396	6392.146344	45113.701097	3902.477416	23243.202846
34.542000	0.000514	-0.000382	0.001684	0.001396	6413.069391	45076.230747	3908.786831	23243.213584
35.037000	0.000288	-0.000230	0.000315	0.001305	6411.961901	45099.757845	3905.572280	23247.474115
35.537000	-0.000259	0.000094	0.002032	0.001689	6404.331704	45093.936862	3908.922820	23229.428055
36.034500	-0.000685	0.000194	-0.000338	0.001633	6401.303262	45109.119985	3903.111761	23232.065917
36.537500	-0.002088	-0.000078	0.000611	0.001404	6391.715107	45104.867000	3906.066281	23242.808637
37.035000	-0.001197	-0.000440	0.006426	0.001152	6401.052514	45094.164629	3921.411650	23254.636312
37.535500	-0.001766	0.000168	-0.001840	0.001559	6393.083672	45113.825554	3899.543347	23235.569071
38.035500	-0.001661	-0.000351	-0.001238	0.001246	6396.489446	45093.707319	3901.826323	23250.219271
38.536000	-0.001540	-0.000328	0.000215	0.001367	6396.492163	45084.312586	3905.166121	23244.574824
39.036000	-0.001530	0.000323	-0.005967	0.001349	6396.720381	45149.198490	3889.805035	23245.388476
39.539500	-0.000531	-0.000755	-0.001334	0.001068	6407.184844	45071.813681	3902.031735	23258.583341
40.037000	0.000254	0.000298	-0.004545	0.001497	6410.113184	45132.421056	3892.963986	23238.477329
40.537500	-0.000828	0.000120	-0.003290	0.001630	6400.164941	45102.238448	3895.751257	23232.235871
41.034500	0.000395	0.000052	0.002342	0.001593	6410.472680	45099.135520	3909.947177	23233.939910
41.535000	-0.002812	-0.000710	0.001456	0.001018	6388.959548	45081.032576	3909.164139	23260.939077
42.038000	-0.001111	-0.000527	-0.003012	0.001587	6398.197793	45043.532014	3896.548409	23234.219387
42.535500	-0.002044	-0.000147	0.000431	0.001779	6389.022940	45061.784885	3904.674444	23225.221790
43.035500	-0.002729	0.000347	-0.001346	0.001992	6381.714787	45089.183062	3899.694139	23215.258813
43.536000	0.003735	-0.000232	0.004270	-0.002993	6476.039030	45518.877574	3926.489868	23450.236258
44.039000	0.002905	0.000259	0.003474	-0.000464	6448.107741	45319.544361	3918.014685	23330.670092
44.536500	0.001660	0.000971	0.000335	0.000035	6433.693862	45340.376657	3908.816060	23307.179470
45.037000	0.000959	0.000236	-0.000278	0.000403	6424.880629	45232.741106	3906.348329	23289.841565
45.539500	0.000807	-0.000403	-0.001043	-0.000686	6432.607173	45276.631290	3907.164795	23341.177496
46.034500	0.002227	-0.000242	0.001915	-0.000526	6443.013285	45276.710520	3914.218911	23333.605875
46.535000	0.000382	-0.001060	0.001109	-0.000180	6424.938289	45163.465310	3911.309406	23317.327470
47.038500	-0.000355	-0.000022	-0.005234	0.002192	6399.434140	45033.938280	3889.535605	23205.891135
47.535500	-0.000655	0.000063	-0.002733	0.002396	6395.316193	45022.450582	3895.230505	23196.326697
48.036500	0.001607	0.000419	-0.000144	-0.000002	6433.559619	45290.055306	3907.703569	23308.902970
48.542000	0.001311	0.000183	-0.000200	0.000040	6430.778714	45263.036252	3907.458789	23306.966106
49.036500	-0.000698	-0.000334	-0.000189	-0.000364	6417.564522	45251.981235	3908.501857	23325.972009
49.537000	0.002578	-0.000039	0.010141	-0.001158	6451.155056	45358.234568	3936.866345	23363.434541
50.037000	0.003662	0.000634	0.001951	0.000403	6447.196500	45271.534805	3911.961859	23289.841656
50.537500	0.000462	0.001244	0.005731	-0.000996	6432.313291	45467.884769	3925.121097	23355.796771
51.035000	0.023929	-0.008790	0.030521	0.272330	4865.309413	25086.950054	3441.490599	13782.147524
51.538000	0.021718	-0.009932	0.016958	0.160207	5445.581147	31535.316185	3601.026284	16999.883173
52.035500	0.006248	-0.019339	0.005688	-0.016502	6612.299141	44973.609319	3965.347164	24100.843267
52.535500	-0.004870	-0.034621	0.003008	-0.159292	7944.641332	59317.275779	4403.222379	32370.131785
53.036000	0.020340	-0.021633	0.031555	-0.126763	7859.502516	56836.803028	4388.725923	30240.408237
53.542000	0.032770	-0.010855	0.046755	-0.064138	7312.771709	50771.789938	4225.955994	26563.443406
54.036500	0.044958	-0.003008	0.057763	0.009078	6727.769757	44087.810274	4037.694796	22885.772643
54.536500	0.056853	0.009313	0.073613	0.052394	6457.143706	41253.515578	3962.776804	20984.646072
55.037000	0.082757	0.026597	0.094269	0.066882	6553.217849	41500.974179	3979.192887	20389.941290
55.537500	0.096307	0.041959	0.105913	0.069207	6650.168842	42676.091245	4004.438258	20296.341866
56.037500	0.117587	0.052784	0.127613	0.104137	6532.598516	40530.637258	3968.757952	18948.721741
56.535000	0.141542	0.065599	0.145324	0.121010	6593.141805	40181.092688	3970.987290	18335.599551
57.035500	0.158773	0.074319	0.164386	0.148384	6506.733043	38615.378968	3949.075693	17390.144485
57.536000	0.174563	0.087783	0.181120	0.154952	6585.203645	39186.297059	3975.929811	17172.023835
58.036000	0.188729	0.096409	0.199058	0.205704	6283.464697	35835.704568	3891.465166	15593.369268
58.536000	0.202559	0.102886	0.210293	0.266650	5930.508107	31958.154537	3775.068495	13925.954703
59.036500	0.218870	0.113360	0.234653	0.296979	5832.679521	30661.405494	3761.966734	13179.422679
59.536500	0.227175	0.117163	0.236919	0.319121	5739.152730	29515.127801	3719.614938	12666.386379
60.037500	0.238560	0.125223	0.252654	0.340530	5673.240571	28710.689948	3707.878040	12194.611377
60.537500	0.242521	0.132075	0.263508	0.359393	5578.030236	28007.780046	3691.567580	11797.796427
61.035000	0.248730	0.134767	0.263040	0.375830	5514.539931	27226.842997	3658.112102	11465.776565
61.535000	0.252838	0.141278	0.273046	0.416430	5299.823842	25393.376749	3600.781281	10697.572799
62.038000	0.254455	0.147233	0.273668	0.426336	5253.521848	25190.040107	3584.167290	10520.795750
62.538500	0.256189	0.148999	0.271169	0.420062	5298.241487	25605.780344	3590.879627	10632.294829
63.050000	0.259091	0.151722	0.281067	0.417471	5329.402508	25884.823511	3613.507989	10678.814820
63.536500	0.262785	0.154826	0.278382	0.415737	5360.578253	26141.907761	3611.762736	10710.103426
64.037000	0.266283	0.156114	0.284567	0.416634	5375.657911	26162.775544	3621.520878	10693.904016
64.540000	0.266240	0.158816	0.279332	0.414539	5387.617721	26420.676286	3615.711248	10731.782295
65.037500	0.269725	0.159102	0.285706	0.413236	5415.745903	26506.798017	3629.986593	10755.448047
65.540500	0.269051	0.162232	0.290268	0.412578	5415.649804	26713.207776	3639.837000	10767.412497
66.035000	0.271169	0.163461	0.279632	0.413386	5423.393788	26736.232978	3618.393412	10752.707222
66.535500	0.271394	0.165150	0.286403	0.412420	5430.463199	26882.187341	3632.830583	10770.296359
67.036000	0.270607	0.165957	0.282720	0.412927	5422.786953	26898.688576	3624.979606	10761.057154
67.539000	0.271187	0.167834	0.284881	0.414663	5415.950849	26906.556052	3625.772851	10729.544957
68.037000	0.271174	0.169162	0.282207	0.418964	5390.591615	26742.967041	3612.859219	10651.963770
68.536500	0.272580	0.168419	0.283003	0.418676	5400.519305	26718.101726	3614.852487	10657.142421
69.034000	0.273425	0.169366	0.293694	0.421976	5386.144064	26589.610953	3628.576871	10598.107443
69.539500	0.273366	0.169286	0.290812	0.425641	5364.493972	26386.542801	3616.407803	10533.062719
70.035000	0.272690	0.169163	0.291652	0.432013	5324.024300	26038.516369	3606.268359	10421.279406
70.537500	0.279747	0.169921	0.296637	0.432206	5363.430356	26068.594734	3615.044077	10417.922888
71.038500	0.278941	0.170555	0.296697	0.435660	5338.900394	25918.849677	3608.817684	10358.034405
71.540500	0.277974	0.169859	0.302175	0.437340	5323.773749	25793.467673	3615.787883	10329.075063
72.036000	0.279917	0.170823	0.298093	0.443105	5302.103449	25542.231816	3597.841943	10230.563053
72.541500	0.279837	0.171462	0.301047	0.442097	5307.348107	25628.105822	3605.013269	10247.694482
73.037000	0.280891	0.170704	0.297089	0.442649	5310.194429	25559.806717	3596.854923	10238.310078
73.542000	0.280267	0.171479	0.295892	0.443093	5304.154098	25577.054973	3593.908976	10230.779572
74.037000	0.280427	0.172621	0.303269	0.449157	5271.021482	25321.963070	3596.265885	10128.554679
74.542500	0.281912	0.172233	0.301388	0.445523	5299.718602	25489.828852	3599.423786	10189.629424
75.038500	0.287424	0.171764	0.303155	0.445075	5333.561317	25488.750298	3603.434060	10197.200838
75.540500	0.285512	0.173503	0.304336	0.446501	5314.554429	25505.041839	3602.990634	10173.154234
76.035500	0.283898	0.171104	0.298631	0.445418	5311.543181	25436.766941	3594.650682	10191.408724
76.541000	0.285592	0.171440	0.299572	0.445366	5321.459853	25456.854909	3596.435458	10192.292162
77.036500	0.286222	0.173680	0.302773	0.448672	5306.274709	25401.648085	3596.245452	10136.671665
77.542000	0.285558	0.173929	0.307395	0.447414	5309.640511	25479.754939	3606.892186	10157.793352
78.037000	0.285109	0.172318	0.302942	0.451169	5285.946935	25202.962026	3592.070786	10094.947250
78.539500	0.288158	0.173837	0.303003	0.447243	5325.380413	25483.830035	3599.233625	10160.659885
79.037500	0.287475	0.175551	0.303979	0.449329	5309.645452	25464.528639	3597.231870	10125.662308
79.535000	0.290422	0.175960	0.301328	0.447612	5336.204768	25575.102615	3595.552736	10154.459335
80.035000	0.288638	0.175318	0.305256	0.452024	5300.990969	25313.215052	3594.683595	10080.713186
80.540500	0.289165	0.176022	0.310831	0.446549	5335.095746	25633.806393	3614.770137	10172.341666
81.036000	0.290946	0.176025	0.306707	0.446762	5344.078894	25622.837125	3606.825173	10168.751635
81.541500	0.288913	0.174998	0.300622	0.445084	5342.042327	25656.815317	3598.832493	10197.046947
82.035500	0.289430	0.174711	0.309988	0.449850	5317.785445	25394.051497	3607.177762	10116.955079
82.541500	0.292771	0.177846	0.303097	0.445873	5359.712123	25764.801243	3601.882807	10183.736479
83.037000	0.291629	0.177437	0.310152	0.447238	5345.266476	25671.767689	3612.255153	10160.743930
83.539000	0.292729	0.176822	0.308005	0.444401	5367.986557	25788.315816	3613.521519	10208.594809
84.037500	0.288766	0.177191	0.302842	0.449759	5314.528143	25527.372224	3594.415594	10118.470660
84.540500	0.296964	0.177736	0.310997	0.444561	5391.721883	25828.030396	3618.744659	10205.887582
85.035500	0.295763	0.179471	0.309602	0.444920	5382.607061	25900.667026	3615.506662	10199.819537
85.540500	0.293846	0.178840	0.312261	0.444164	5375.852086	25907.305142	3621.824787	10212.616947
86.036000	0.290220	0.178080	0.307196	0.449328	5325.247752	25596.118330	3603.049005	10125.684266
86.541000	0.294539	0.179082	0.307398	0.444533	5377.731237	25900.552035	3612.165521	10206.363910
87.036500	0.292684	0.178374	0.303558	0.444383	5367.832946	25871.068694	3605.423197	10208.904340
87.539000	0.292310	0.178593	0.304522	0.443053	5373.383590	25953.059243	3609.609052	10231.459214
88.037000	0.290701	0.177972	0.306555	0.448631	5331.970809	25626.877065	3603.150360	10137.359792
88.539500	0.294054	0.179319	0.306785	0.443148	5382.974512	25986.495841	3613.582301	10229.836004
89.038000	0.295227	0.180877	0.309674	0.445733	5374.760060	25932.066654	3614.142557	10186.097355
89.540500	0.294490	0.180000	0.311812	0.443760	5381.954277	25990.151294	3621.740715	10219.464084
90.035500	0.291526	0.180348	0.302762	0.449578	5331.269802	25701.627169	3594.598026	10121.499447
90.540500	0.293140	0.181357	0.301689	0.444284	5371.048942	26034.435615	3602.210230	10210.585123
91.036000	0.294900	0.180426	0.310464	0.443661	5384.919327	26018.032414	3619.424826	10221.134579
91.536500	0.294142	0.180155	0.307275	0.443899	5379.114872	25990.972088	3613.103620	10217.099504
92.036500	0.289700	0.179997	0.308258	0.449749	5319.895285	25674.349879	3604.213190	10118.648678
92.537000	0.294540	0.179960	0.308718	0.443606	5383.143242	25996.216999	3616.299907	10222.072885
93.036500	0.296083	0.181128	0.310964	0.445063	5383.639352	25980.847382	3617.754488	10197.400424
93.539500	0.295487	0.180319	0.305797	0.444455	5383.711982	25970.196792	3609.375393	10207.682945
94.037500	0.293483	0.182420	0.310969	0.453230	5321.614155	25619.045954	3602.816241	10060.690225
94.535000	0.292200	0.180207	0.311619	0.444571	5363.940499	25958.135622	3619.877807	10205.727643
95.035500	0.296688	0.181419	0.307928	0.445886	5382.367875	25952.629344	3610.656562	10183.507747
95.536000	0.293998	0.179726	0.306713	0.444735	5373.415014	25923.966797	3610.540627	10202.955022
96.036000	0.297418	0.180530	0.311060	0.446328	5384.047713	25882.254614	3615.597499	10176.057466
