sample name	sample
index	1179
start time	 04-26-2021  11:37:20 AM


Wavelength (nm)	Absorbance
494.344910	-0.167449
494.563924	-0.167449
494.782919	-0.167449
495.001897	0.796461
495.220856	-0.069472
495.439797	-0.028605
495.658719	0.093134
495.877624	0.054821
496.096510	-0.007155
496.315378	-0.024083
496.534227	0.082587
496.753059	0.190586
496.971872	0.065954
497.190667	0.049368
497.409444	0.059285
497.628203	0.056483
497.846943	0.057994
498.065665	0.058085
498.284369	0.056348
498.503055	0.056896
498.721723	0.056116
498.940372	0.056278
499.159003	0.057471
499.377616	0.056300
499.596210	0.055355
499.814787	0.056145
500.033345	0.056032
500.251885	0.055741
500.470406	0.055368
500.688910	0.056893
500.907395	0.058482
501.125862	0.056676
501.344311	0.056148
501.562742	0.055493
501.781154	0.054892
501.999548	0.054424
502.217924	0.055308
502.436282	0.055205
502.654621	0.054327
502.872942	0.054065
503.091245	0.055306
503.309530	0.056278
503.527797	0.058348
503.746045	0.058222
503.964275	0.058454
504.182487	0.058714
504.400681	0.058728
504.618856	0.059277
504.837013	0.058702
505.055152	0.059640
505.273273	0.059081
505.491376	0.058296
505.709460	0.058288
505.927526	0.058293
506.145574	0.058385
506.363604	0.058782
506.581615	0.058972
506.799608	0.059185
507.017583	0.057647
507.235540	0.058583
507.453478	0.058639
507.671399	0.059043
507.889301	0.059006
508.107185	0.059126
508.325050	0.058530
508.542898	0.058003
508.760727	0.057693
508.978538	0.057614
509.196330	0.057919
509.414105	0.058062
509.631861	0.058394
509.849599	0.059249
510.067319	0.058520
510.285021	0.059425
510.502704	0.060136
510.720369	0.060569
510.938016	0.061663
511.155645	0.061919
511.373255	0.061323
511.590848	0.061202
511.808422	0.061186
512.025977	0.062470
512.243515	0.062381
512.461034	0.061691
512.678536	0.062391
512.896018	0.061837
513.113483	0.061029
513.330930	0.062296
513.548358	0.062231
513.765768	0.061746
513.983160	0.061753
514.200533	0.061775
514.417889	0.062355
514.635226	0.061879
514.852545	0.062000
515.069845	0.062134
515.287128	0.061482
515.504392	0.061594
515.721638	0.061742
515.938866	0.061398
516.156075	0.061153
516.373267	0.061114
516.590440	0.061671
516.807594	0.061892
517.024731	0.061563
517.241850	0.061660
517.458950	0.061655
517.676032	0.062008
517.893095	0.062887
518.110141	0.062940
518.327168	0.062321
518.544177	0.061600
518.761168	0.062421
518.978141	0.062390
519.195095	0.061707
519.412031	0.061868
519.628949	0.061788
519.845849	0.060493
520.062731	0.060876
520.279594	0.061061
520.496439	0.061448
520.713266	0.060893
520.930074	0.061705
521.146865	0.062747
521.363637	0.063211
521.580391	0.063194
521.797127	0.063748
522.013844	0.063309
522.230543	0.064028
522.447224	0.064367
522.663887	0.064633
522.880532	0.064622
523.097158	0.064866
523.313766	0.065409
523.530356	0.065724
523.746928	0.065768
523.963481	0.066790
524.180017	0.066190
524.396534	0.066502
524.613032	0.066687
524.829513	0.066671
525.045975	0.066516
525.262420	0.065952
525.478845	0.066014
525.695253	0.066960
525.911643	0.066804
526.128014	0.068251
526.344367	0.068121
526.560702	0.068703
526.777018	0.069308
526.993316	0.069452
527.209597	0.070631
527.425858	0.070874
527.642102	0.070576
527.858328	0.070857
528.074535	0.070115
528.290724	0.070510
528.506894	0.070732
528.723047	0.070433
528.939181	0.070689
529.155297	0.069814
529.371395	0.070906
529.587475	0.070749
529.803536	0.071226
530.019579	0.071778
530.235604	0.071897
530.451611	0.071763
530.667600	0.072258
530.883570	0.073143
531.099522	0.073818
531.315456	0.073211
531.531372	0.073764
531.747269	0.073154
531.963148	0.073693
532.179009	0.074041
532.394852	0.074176
532.610676	0.074611
532.826482	0.074736
533.042271	0.074637
533.258040	0.074839
533.473792	0.075278
533.689525	0.076007
533.905240	0.076068
534.120937	0.076447
534.336616	0.076681
534.552277	0.076578
534.767919	0.076657
534.983543	0.077399
535.199149	0.077794
535.414736	0.077752
535.630306	0.077779
535.845857	0.077872
536.061390	0.078414
536.276904	0.078513
536.492401	0.078785
536.707879	0.078395
536.923339	0.078295
537.138781	0.078629
537.354204	0.079127
537.569610	0.079286
537.784997	0.079345
538.000366	0.079238
538.215716	0.079559
538.431049	0.080009
538.646363	0.080524
538.861659	0.081157
539.076937	0.081502
539.292196	0.082013
539.507438	0.082083
539.722661	0.082922
539.937866	0.082850
540.153052	0.082657
540.368221	0.082293
540.583371	0.081974
540.798503	0.081662
541.013617	0.081552
541.228712	0.081629
541.443789	0.081832
541.658848	0.081521
541.873889	0.081783
542.088912	0.082324
542.303916	0.082891
542.518902	0.083677
542.733870	0.084094
542.948820	0.084393
543.163752	0.084293
543.378665	0.084747
543.593560	0.084874
543.808437	0.085169
544.023295	0.085564
544.238136	0.085459
544.452958	0.085410
544.667762	0.085440
544.882548	0.085830
545.097315	0.086604
545.312064	0.086817
545.526795	0.086956
545.741508	0.086933
545.956203	0.087033
546.170879	0.086982
546.385537	0.087409
546.600177	0.087520
546.814799	0.087248
547.029402	0.086887
547.243988	0.087372
547.458555	0.088003
547.673103	0.088428
547.887634	0.088755
548.102146	0.089615
548.316640	0.089533
548.531116	0.089587
548.745574	0.090009
548.960013	0.090278
549.174435	0.089893
549.388838	0.090200
549.603222	0.090119
549.817589	0.090522
550.031937	0.090477
550.246267	0.091222
550.460579	0.091404
550.674873	0.091625
550.889148	0.091994
551.103405	0.092278
551.317644	0.092033
551.531865	0.092100
551.746068	0.091631
551.960252	0.091708
552.174418	0.091222
552.388566	0.092013
552.602696	0.092247
552.816807	0.092354
553.030900	0.092256
553.244975	0.092447
553.459032	0.092842
553.673070	0.092860
553.887091	0.093284
554.101093	0.093704
554.315077	0.093634
554.529042	0.093383
554.742990	0.093572
554.956919	0.094338
555.170830	0.094352
555.384722	0.094510
555.598597	0.095084
555.812453	0.095271
556.026291	0.095337
556.240111	0.095754
556.453913	0.096408
556.667696	0.096072
556.881461	0.096209
557.095208	0.096402
557.308937	0.096789
557.522647	0.097293
557.736339	0.097824
557.950013	0.098122
558.163669	0.097804
558.377307	0.098097
558.590926	0.098631
558.804527	0.098850
559.018110	0.099201
559.231675	0.099588
559.445221	0.099493
559.658749	0.099046
559.872259	0.099001
560.085751	0.099366
560.299225	0.099384
560.512680	0.098965
560.726117	0.098896
560.939536	0.099138
561.152937	0.098679
561.366319	0.098852
561.579683	0.099197
561.793029	0.099502
562.006357	0.099630
562.219667	0.099770
562.432958	0.100327
562.646231	0.100476
562.859486	0.100719
563.072723	0.101491
563.285941	0.101597
563.499141	0.101853
563.712323	0.102075
563.925487	0.102324
564.138632	0.102401
564.351760	0.102894
564.564869	0.103354
564.777960	0.103416
564.991032	0.103091
565.204087	0.103313
565.417123	0.103341
565.630141	0.103671
565.843140	0.103774
566.056122	0.104232
566.269085	0.103871
566.482030	0.103656
566.694957	0.104048
566.907866	0.104418
567.120756	0.104350
567.333628	0.104236
567.546482	0.104301
567.759318	0.104434
567.972135	0.104504
568.184935	0.104896
568.397716	0.105228
568.610478	0.105183
568.823223	0.105256
569.035949	0.105324
569.248657	0.105658
569.461347	0.105756
569.674019	0.106158
569.886672	0.106270
570.099308	0.106379
570.311925	0.106271
570.524523	0.106058
570.737104	0.105959
570.949666	0.106125
571.162210	0.106284
571.374736	0.106492
571.587244	0.106320
571.799733	0.106226
572.012205	0.106555
572.224658	0.106910
572.437092	0.107496
572.649509	0.107773
572.861907	0.108405
573.074287	0.108716
573.286649	0.108803
573.498993	0.108831
573.711318	0.109187
573.923625	0.109115
574.135914	0.108723
574.348185	0.108578
574.560438	0.108906
574.772672	0.108565
574.984888	0.108391
575.197086	0.108581
575.409266	0.108896
575.621427	0.109129
575.833570	0.109427
576.045695	0.109822
576.257802	0.110118
576.469890	0.110178
576.681961	0.110344
576.894013	0.111036
577.106046	0.110864
577.318062	0.110980
577.530059	0.110896
577.742039	0.110992
577.954000	0.111205
578.165942	0.111263
578.377867	0.111420
578.589773	0.111914
578.801661	0.112066
579.013531	0.112628
579.225382	0.112687
579.437216	0.112315
579.649031	0.112712
579.860828	0.113039
580.072606	0.113294
580.284367	0.113505
580.496109	0.113165
580.707833	0.113202
580.919539	0.113522
581.131227	0.113643
581.342896	0.114124
581.554547	0.113794
581.766180	0.113756
581.977795	0.114002
582.189391	0.113967
582.400969	0.114466
582.612529	0.114077
582.824071	0.113873
583.035595	0.114217
583.247100	0.114587
583.458587	0.115139
583.670056	0.115551
583.881506	0.115711
584.092939	0.115907
584.304353	0.115812
584.515749	0.116357
584.727127	0.116691
584.938486	0.116819
585.149828	0.116868
585.361151	0.116757
585.572456	0.116816
585.783742	0.116950
585.995011	0.117195
586.206261	0.118140
586.417493	0.118428
586.628706	0.118915
586.839902	0.119297
587.051079	0.119500
587.262238	0.119801
587.473379	0.120010
587.684502	0.120163
587.895606	0.120516
588.106692	0.120026
588.317760	0.119904
588.528810	0.119601
588.739841	0.119919
588.950855	0.120232
589.161850	0.120291
589.372827	0.120544
589.583785	0.120574
589.794726	0.120224
590.005648	0.120578
590.216552	0.120602
590.427437	0.120883
590.638305	0.120620
590.849154	0.120773
591.059985	0.120910
591.270798	0.121070
591.481592	0.121733
591.692369	0.122276
591.903127	0.121892
592.113867	0.122296
592.324588	0.123020
592.535292	0.123469
592.745977	0.123416
592.956644	0.123755
593.167293	0.123823
593.377923	0.123479
593.588536	0.123740
593.799130	0.124531
594.009706	0.124814
594.220263	0.123983
594.430803	0.124241
594.641324	0.124450
594.851827	0.124367
595.062312	0.124519
595.272778	0.124613
595.483227	0.124634
595.693657	0.124586
595.904069	0.124522
596.114462	0.125287
596.324838	0.125226
596.535195	0.125455
596.745534	0.125915
596.955855	0.126238
597.166157	0.126532
597.376441	0.126861
597.586707	0.127172
597.796955	0.127510
598.007185	0.127238
598.217396	0.127390
598.427589	0.127476
598.637764	0.127542
598.847921	0.127644
599.058060	0.127942
599.268180	0.128050
599.478282	0.127868
599.688366	0.128046
599.898431	0.128560
600.108479	0.128786
600.318508	0.129199
600.528519	0.129486
600.738511	0.129606
600.948486	0.129497
601.158442	0.129503
601.368380	0.129945
601.578300	0.130084
601.788202	0.130432
601.998085	0.130571
602.207950	0.130899
602.417797	0.131215
602.627626	0.131340
602.837436	0.131638
603.047228	0.131776
603.257002	0.131912
603.466758	0.131975
603.676496	0.131828
603.886215	0.131848
604.095916	0.132047
604.305599	0.131720
604.515264	0.132014
604.724910	0.132363
604.934538	0.132705
605.144148	0.132858
605.353740	0.132990
605.563314	0.133217
605.772869	0.133446
605.982406	0.133178
606.191925	0.133494
606.401425	0.133692
606.610908	0.133648
606.820372	0.133903
607.029818	0.134206
607.239246	0.134647
607.448655	0.134768
607.658047	0.134769
607.867420	0.134879
608.076775	0.135231
608.286111	0.135375
608.495430	0.135490
608.704730	0.135447
608.914012	0.135491
609.123275	0.135436
609.332521	0.135460
609.541748	0.135435
609.750957	0.135575
609.960148	0.135703
610.169321	0.135649
610.378475	0.135907
610.587611	0.136019
610.796729	0.136239
611.005829	0.136251
611.214910	0.136559
611.423974	0.136928
611.633019	0.137090
611.842045	0.137128
612.051054	0.137106
612.260044	0.137210
612.469017	0.137484
612.677970	0.137463
612.886906	0.137657
613.095824	0.137434
613.304723	0.137846
613.513604	0.138305
613.722467	0.138496
613.931311	0.138868
614.140138	0.139080
614.348946	0.139060
614.557736	0.139358
614.766507	0.139638
614.975261	0.140032
615.183996	0.139875
615.392713	0.139936
615.601412	0.140041
615.810092	0.139931
616.018754	0.140115
616.227399	0.140501
616.436024	0.140611
616.644632	0.140935
616.853222	0.141285
617.061793	0.141608
617.270346	0.141825
617.478880	0.141920
617.687397	0.142370
617.895895	0.142446
618.104375	0.142452
618.312837	0.142778
618.521281	0.142675
618.729706	0.142948
618.938113	0.143108
619.146502	0.142931
619.354873	0.143242
619.563226	0.143200
619.771560	0.143247
619.979876	0.143375
620.188174	0.143211
620.396453	0.143419
620.604715	0.143463
620.812958	0.143410
621.021183	0.143519
621.229390	0.143330
621.437578	0.143369
621.645748	0.143500
621.853900	0.143555
622.062034	0.143857
622.270150	0.144052
622.478247	0.144181
622.686326	0.144380
622.894387	0.144638
623.102430	0.144995
623.310454	0.145391
623.518461	0.145816
623.726449	0.146107
623.934418	0.146156
624.142370	0.146256
624.350303	0.146204
624.558218	0.146321
624.766115	0.146396
624.973994	0.146272
625.181855	0.146236
625.389697	0.146085
625.597521	0.146255
625.805327	0.146444
626.013114	0.146450
626.220883	0.146629
626.428634	0.147016
626.636367	0.147137
626.844082	0.147371
627.051778	0.147608
627.259457	0.147911
627.467117	0.147908
627.674758	0.147827
627.882382	0.148076
628.089987	0.148028
628.297574	0.148062
628.505143	0.148300
628.712694	0.148357
628.920226	0.148615
629.127740	0.148783
629.335236	0.148808
629.542714	0.149043
629.750174	0.149129
629.957615	0.149426
630.165038	0.149502
630.372443	0.149641
630.579829	0.150184
630.787198	0.150127
630.994548	0.150207
631.201880	0.150339
631.409194	0.150645
631.616489	0.150926
631.823766	0.151190
632.031025	0.151302
632.238266	0.151475
632.445489	0.151601
632.652693	0.151497
632.859879	0.151314
633.067047	0.151490
633.274197	0.151400
633.481329	0.151130
633.688442	0.151039
633.895537	0.151256
634.102614	0.151334
634.309672	0.151047
634.516713	0.151439
634.723735	0.151898
634.930739	0.152314
635.137724	0.152475
635.344692	0.153018
635.551641	0.153037
635.758572	0.153213
635.965485	0.153471
636.172379	0.153709
636.379256	0.153873
636.586114	0.153879
636.792954	0.153870
636.999775	0.154104
637.206579	0.154110
637.413364	0.154660
637.620131	0.154754
637.826880	0.154801
638.033610	0.155018
638.240323	0.155250
638.447017	0.155460
638.653692	0.155384
638.860350	0.155608
639.066990	0.155607
639.273611	0.155610
639.480214	0.155642
639.686798	0.155722
639.893365	0.156107
640.099913	0.156278
640.306443	0.156635
640.512955	0.156996
640.719449	0.157118
640.925924	0.157637
641.132381	0.157916
641.338820	0.158254
641.545241	0.158595
641.751644	0.158703
641.958028	0.159194
642.164394	0.159318
642.370742	0.159762
642.577071	0.160041
642.783383	0.160125
642.989676	0.160350
643.195951	0.160570
643.402207	0.160896
643.608446	0.161094
643.814666	0.161188
644.020868	0.161414
644.227052	0.161567
644.433218	0.161817
644.639365	0.162138
644.845494	0.162222
645.051605	0.162361
645.257698	0.162410
645.463772	0.162636
645.669828	0.162798
645.875866	0.163077
646.081886	0.163254
646.287888	0.163546
646.493871	0.163597
646.699836	0.163807
646.905783	0.164012
647.111712	0.164185
647.317622	0.164333
647.523514	0.164459
647.729388	0.164312
647.935244	0.164321
648.141082	0.164253
648.346901	0.164484
648.552702	0.164589
648.758485	0.164610
648.964250	0.164953
649.169996	0.165252
649.375724	0.165366
649.581434	0.165662
649.787126	0.165887
649.992800	0.166031
650.198455	0.166194
650.404092	0.166124
650.609711	0.166470
650.815311	0.166555
651.020894	0.166582
651.226458	0.166857
651.432004	0.166876
651.637532	0.167051
651.843041	0.167436
652.048532	0.167611
652.254006	0.168117
652.459460	0.168476
652.664897	0.168749
652.870315	0.169014
653.075716	0.168963
653.281097	0.169372
653.486461	0.169529
653.691807	0.169567
653.897134	0.169677
654.102443	0.169641
654.307734	0.169562
654.513006	0.169698
654.718261	0.169782
654.923497	0.170196
655.128715	0.170316
655.333915	0.170705
655.539096	0.171087
655.744259	0.171173
655.949404	0.171436
656.154531	0.171794
656.359640	0.171792
656.564730	0.172139
656.769802	0.172333
656.974856	0.172434
657.179892	0.172537
657.384909	0.172754
657.589908	0.173189
657.794889	0.173610
657.999852	0.173723
658.204797	0.174037
658.409723	0.174308
658.614631	0.174412
658.819521	0.174819
659.024393	0.174987
659.229246	0.174756
659.434081	0.174922
659.638898	0.175153
659.843697	0.175331
660.048478	0.175661
660.253240	0.175819
660.457984	0.176131
660.662710	0.176291
660.867417	0.176781
661.072107	0.177211
661.276778	0.177564
661.481431	0.177653
661.686066	0.177977
661.890682	0.177937
662.095281	0.178066
662.299861	0.178131
662.504422	0.178236
662.708966	0.178107
662.913491	0.178381
663.117999	0.178254
663.322488	0.178475
663.526958	0.178603
663.731411	0.178836
663.935845	0.179079
664.140261	0.179550
664.344659	0.179792
664.549038	0.180083
664.753400	0.180214
664.957743	0.180675
665.162068	0.180905
665.366375	0.181184
665.570663	0.181525
665.774933	0.181665
665.979185	0.181815
666.183419	0.182247
666.387635	0.182583
666.591832	0.182872
666.796011	0.182909
667.000172	0.183088
667.204315	0.183068
667.408439	0.182995
667.612545	0.183285
667.816634	0.183432
668.020703	0.183341
668.224755	0.183489
668.428788	0.183952
668.632803	0.184434
668.836800	0.184753
669.040779	0.185127
669.244739	0.185612
669.448681	0.185892
669.652605	0.186103
669.856511	0.186486
670.060399	0.186777
670.264268	0.186665
670.468119	0.186685
670.671952	0.186518
670.875767	0.186694
671.079563	0.186789
671.283341	0.186880
671.487101	0.187016
671.690843	0.187091
671.894567	0.187218
672.098272	0.187406
672.301959	0.187510
672.505628	0.188029
672.709278	0.188318
672.912911	0.188711
673.116525	0.188976
673.320121	0.189432
673.523699	0.189740
673.727258	0.190089
673.930799	0.190472
674.134322	0.190763
674.337827	0.191035
674.541314	0.190952
674.744782	0.190889
674.948232	0.191075
675.151664	0.191079
675.355078	0.191385
675.558474	0.191501
675.761851	0.191761
675.965210	0.192114
676.168551	0.192401
676.371873	0.193052
676.575178	0.193469
676.778464	0.193709
676.981732	0.194124
677.184981	0.194474
677.388213	0.194929
677.591426	0.195022
677.794621	0.195285
677.997798	0.195442
678.200956	0.195583
678.404097	0.195930
678.607219	0.196157
678.810323	0.196277
679.013408	0.196166
679.216476	0.196044
679.419525	0.196376
679.622556	0.196576
679.825569	0.196778
680.028563	0.196902
680.231540	0.196915
680.434498	0.196943
680.637438	0.196877
680.840359	0.197195
681.043263	0.197318
681.246148	0.197549
681.449015	0.197442
681.651864	0.197592
681.854694	0.197648
682.057506	0.197742
682.260301	0.198100
682.463076	0.198335
682.665834	0.198524
682.868573	0.198677
683.071295	0.198768
683.273998	0.199210
683.476682	0.199477
683.679349	0.199897
683.881997	0.200345
684.084627	0.200541
684.287239	0.200618
684.489833	0.200712
684.692408	0.200942
684.894965	0.200994
685.097504	0.201137
685.300025	0.201322
685.502527	0.201259
685.705012	0.201316
685.907478	0.201449
686.109925	0.201685
686.312355	0.202047
686.514766	0.202368
686.717159	0.202557
686.919534	0.202670
687.121891	0.202665
687.324230	0.202851
687.526550	0.203089
687.728852	0.203342
687.931136	0.203546
688.133401	0.203691
688.335649	0.203920
688.537878	0.204122
688.740089	0.204434
688.942281	0.204964
689.144456	0.205334
689.346612	0.205613
689.548750	0.205524
689.750870	0.206142
689.952971	0.206139
690.155055	0.206034
690.357120	0.206221
690.559167	0.206172
690.761195	0.206125
690.963206	0.206437
691.165198	0.206433
691.367172	0.206930
691.569128	0.206679
691.771065	0.207183
691.972984	0.207467
692.174885	0.207806
692.376768	0.208267
692.578633	0.208370
692.780479	0.208363
692.982308	0.208661
693.184118	0.208856
693.385909	0.209219
