sample name	sample
index	1448
start time	 05-10-2021  01:21:12 PM


Wavelength (nm)	Absorbance
494.344910	0.068549
494.563924	0.068549
494.782919	0.068549
495.001897	-0.047918
495.220856	0.029602
495.439797	0.021446
495.658719	0.018759
495.877624	0.009773
496.096510	0.019784
496.315378	0.021836
496.534227	0.028539
496.753059	0.029548
496.971872	0.022915
497.190667	0.066980
497.409444	0.094720
497.628203	0.101063
497.846943	0.106218
498.065665	0.109396
498.284369	0.109650
498.503055	0.111087
498.721723	0.112505
498.940372	0.114126
499.159003	0.114296
499.377616	0.114237
499.596210	0.114675
499.814787	0.115318
500.033345	0.115049
500.251885	0.115649
500.470406	0.115900
500.688910	0.115872
500.907395	0.116578
501.125862	0.118063
501.344311	0.117448
501.562742	0.117974
501.781154	0.118665
501.999548	0.119872
502.217924	0.120465
502.436282	0.119851
502.654621	0.119440
502.872942	0.118584
503.091245	0.117486
503.309530	0.118578
503.527797	0.118757
503.746045	0.119231
503.964275	0.117845
504.182487	0.118142
504.400681	0.119082
504.618856	0.119923
504.837013	0.119764
505.055152	0.120444
505.273273	0.119295
505.491376	0.118986
505.709460	0.118201
505.927526	0.119062
506.145574	0.118608
506.363604	0.118090
506.581615	0.117419
506.799608	0.118785
507.017583	0.117743
507.235540	0.118151
507.453478	0.118538
507.671399	0.117778
507.889301	0.117562
508.107185	0.118272
508.325050	0.118692
508.542898	0.119092
508.760727	0.118487
508.978538	0.119805
509.196330	0.119462
509.414105	0.119859
509.631861	0.120492
509.849599	0.120650
510.067319	0.120157
510.285021	0.120419
510.502704	0.120987
510.720369	0.120961
510.938016	0.119742
511.155645	0.120713
511.373255	0.120632
511.590848	0.121177
511.808422	0.121249
512.025977	0.121140
512.243515	0.121456
512.461034	0.120238
512.678536	0.119974
512.896018	0.120651
513.113483	0.120347
513.330930	0.120119
513.548358	0.119390
513.765768	0.119574
513.983160	0.120638
514.200533	0.120420
514.417889	0.121009
514.635226	0.120935
514.852545	0.121232
515.069845	0.121511
515.287128	0.122727
515.504392	0.123496
515.721638	0.123460
515.938866	0.122610
516.156075	0.122523
516.373267	0.122759
516.590440	0.123901
516.807594	0.123723
517.024731	0.123361
517.241850	0.122317
517.458950	0.121721
517.676032	0.121599
517.893095	0.121063
518.110141	0.121186
518.327168	0.121416
518.544177	0.121080
518.761168	0.121127
518.978141	0.121497
519.195095	0.121395
519.412031	0.122137
519.628949	0.122820
519.845849	0.123127
520.062731	0.122802
520.279594	0.123493
520.496439	0.123485
520.713266	0.124508
520.930074	0.124660
521.146865	0.124884
521.363637	0.124822
521.580391	0.124621
521.797127	0.125497
522.013844	0.126030
522.230543	0.126016
522.447224	0.126449
522.663887	0.126293
522.880532	0.126276
523.097158	0.126629
523.313766	0.126612
523.530356	0.126956
523.746928	0.127362
523.963481	0.127338
524.180017	0.127407
524.396534	0.127125
524.613032	0.126799
524.829513	0.127157
525.045975	0.126675
525.262420	0.126837
525.478845	0.126190
525.695253	0.125583
525.911643	0.125984
526.128014	0.126052
526.344367	0.126815
526.560702	0.126983
526.777018	0.127620
526.993316	0.128279
527.209597	0.128757
527.425858	0.129111
527.642102	0.129878
527.858328	0.129687
528.074535	0.129815
528.290724	0.129661
528.506894	0.129864
528.723047	0.129391
528.939181	0.129895
529.155297	0.130690
529.371395	0.131233
529.587475	0.130469
529.803536	0.130911
530.019579	0.130942
530.235604	0.131006
530.451611	0.131224
530.667600	0.131345
530.883570	0.131284
531.099522	0.130107
531.315456	0.130209
531.531372	0.130836
531.747269	0.130612
531.963148	0.130514
532.179009	0.130497
532.394852	0.130837
532.610676	0.131169
532.826482	0.131322
533.042271	0.132264
533.258040	0.132761
533.473792	0.132761
533.689525	0.132849
533.905240	0.133049
534.120937	0.133129
534.336616	0.133074
534.552277	0.132843
534.767919	0.133192
534.983543	0.133021
535.199149	0.132832
535.414736	0.132543
535.630306	0.133151
535.845857	0.133364
536.061390	0.133765
536.276904	0.133725
536.492401	0.133512
536.707879	0.133108
536.923339	0.133264
537.138781	0.133239
537.354204	0.133716
537.569610	0.133192
537.784997	0.133276
538.000366	0.133277
538.215716	0.133421
538.431049	0.133417
538.646363	0.133627
538.861659	0.133434
539.076937	0.133222
539.292196	0.133127
539.507438	0.133661
539.722661	0.133235
539.937866	0.133565
540.153052	0.134033
540.368221	0.135025
540.583371	0.135681
540.798503	0.136124
541.013617	0.136521
541.228712	0.137002
541.443789	0.136958
541.658848	0.137630
541.873889	0.137730
542.088912	0.137063
542.303916	0.136898
542.518902	0.136253
542.733870	0.136146
542.948820	0.136633
543.163752	0.136727
543.378665	0.136640
543.593560	0.136830
543.808437	0.137114
544.023295	0.137523
544.238136	0.137265
544.452958	0.137424
544.667762	0.137299
544.882548	0.137073
545.097315	0.137243
545.312064	0.137780
545.526795	0.137821
545.741508	0.137697
545.956203	0.137865
546.170879	0.138215
546.385537	0.138407
546.600177	0.138669
546.814799	0.139237
547.029402	0.139152
547.243988	0.138875
547.458555	0.139091
547.673103	0.138987
547.887634	0.139690
548.102146	0.140045
548.316640	0.140155
548.531116	0.140602
548.745574	0.140241
548.960013	0.140496
549.174435	0.141136
549.388838	0.141509
549.603222	0.141870
549.817589	0.141797
550.031937	0.141995
550.246267	0.141903
550.460579	0.141460
550.674873	0.141564
550.889148	0.141843
551.103405	0.141801
551.317644	0.141892
551.531865	0.141602
551.746068	0.141493
551.960252	0.141077
552.174418	0.141264
552.388566	0.141477
552.602696	0.141690
552.816807	0.141592
553.030900	0.141632
553.244975	0.141630
553.459032	0.142050
553.673070	0.141980
553.887091	0.142566
554.101093	0.143186
554.315077	0.143633
554.529042	0.143971
554.742990	0.144279
554.956919	0.144189
555.170830	0.143627
555.384722	0.143932
555.598597	0.144315
555.812453	0.144079
556.026291	0.143885
556.240111	0.144115
556.453913	0.144198
556.667696	0.143992
556.881461	0.144408
557.095208	0.145116
557.308937	0.145229
557.522647	0.144956
557.736339	0.145224
557.950013	0.145591
558.163669	0.145131
558.377307	0.144618
558.590926	0.144420
558.804527	0.144508
559.018110	0.144592
559.231675	0.144233
559.445221	0.144303
559.658749	0.144316
559.872259	0.144123
560.085751	0.144489
560.299225	0.145011
560.512680	0.145506
560.726117	0.145283
560.939536	0.145300
561.152937	0.145303
561.366319	0.145714
561.579683	0.145997
561.793029	0.146125
562.006357	0.146295
562.219667	0.146116
562.432958	0.145968
562.646231	0.146098
562.859486	0.146168
563.072723	0.146380
563.285941	0.146442
563.499141	0.146288
563.712323	0.146181
563.925487	0.146243
564.138632	0.146409
564.351760	0.146631
564.564869	0.146651
564.777960	0.146765
564.991032	0.147284
565.204087	0.147546
565.417123	0.147503
565.630141	0.147321
565.843140	0.147223
566.056122	0.147644
566.269085	0.147787
566.482030	0.147924
566.694957	0.147778
566.907866	0.147621
567.120756	0.147446
567.333628	0.147852
567.546482	0.148121
567.759318	0.148190
567.972135	0.148063
568.184935	0.147946
568.397716	0.147988
568.610478	0.148070
568.823223	0.148064
569.035949	0.148510
569.248657	0.148638
569.461347	0.149173
569.674019	0.149222
569.886672	0.149446
570.099308	0.149654
570.311925	0.149731
570.524523	0.149916
570.737104	0.149975
570.949666	0.149677
571.162210	0.149348
571.374736	0.149032
571.587244	0.149079
571.799733	0.149073
572.012205	0.149334
572.224658	0.149341
572.437092	0.149339
572.649509	0.149942
572.861907	0.150025
573.074287	0.150344
573.286649	0.150585
573.498993	0.151007
573.711318	0.151194
573.923625	0.151090
574.135914	0.151237
574.348185	0.151754
574.560438	0.151621
574.772672	0.151493
574.984888	0.151597
575.197086	0.151437
575.409266	0.151355
575.621427	0.151222
575.833570	0.151813
576.045695	0.152389
576.257802	0.152276
576.469890	0.152033
576.681961	0.152448
576.894013	0.152735
577.106046	0.153477
577.318062	0.153759
577.530059	0.154259
577.742039	0.154183
577.954000	0.153792
578.165942	0.153613
578.377867	0.154183
578.589773	0.153994
578.801661	0.153979
579.013531	0.154053
579.225382	0.154068
579.437216	0.153976
579.649031	0.153932
579.860828	0.154490
580.072606	0.154587
580.284367	0.154622
580.496109	0.155212
580.707833	0.155396
580.919539	0.154971
581.131227	0.155196
581.342896	0.155222
581.554547	0.155074
581.766180	0.154844
581.977795	0.155204
582.189391	0.155244
582.400969	0.155175
582.612529	0.155227
582.824071	0.155564
583.035595	0.155622
583.247100	0.155795
583.458587	0.156247
583.670056	0.156647
583.881506	0.156646
584.092939	0.156510
584.304353	0.156810
584.515749	0.156947
584.727127	0.156842
584.938486	0.156793
585.149828	0.156835
585.361151	0.156843
585.572456	0.156585
585.783742	0.157144
585.995011	0.157440
586.206261	0.157472
586.417493	0.157930
586.628706	0.158518
586.839902	0.158836
587.051079	0.159138
587.262238	0.159660
587.473379	0.159979
587.684502	0.160054
587.895606	0.160159
588.106692	0.160434
588.317760	0.160134
588.528810	0.159892
588.739841	0.159640
588.950855	0.159621
589.161850	0.159495
589.372827	0.159923
589.583785	0.159867
589.794726	0.160044
590.005648	0.159863
590.216552	0.160084
590.427437	0.160205
590.638305	0.160699
590.849154	0.161200
591.059985	0.161501
591.270798	0.161659
591.481592	0.161936
591.692369	0.162276
591.903127	0.162311
592.113867	0.162489
592.324588	0.162724
592.535292	0.162759
592.745977	0.162326
592.956644	0.161976
593.167293	0.161396
593.377923	0.161122
593.588536	0.160879
593.799130	0.161045
594.009706	0.160914
594.220263	0.160830
594.430803	0.160857
594.641324	0.160802
594.851827	0.160908
595.062312	0.161045
595.272778	0.161284
595.483227	0.161544
595.693657	0.161621
595.904069	0.161709
596.114462	0.161833
596.324838	0.162021
596.535195	0.162321
596.745534	0.162353
596.955855	0.162651
597.166157	0.162630
597.376441	0.162315
597.586707	0.162387
597.796955	0.162280
598.007185	0.162226
598.217396	0.162361
598.427589	0.162317
598.637764	0.162216
598.847921	0.162516
599.058060	0.162470
599.268180	0.162740
599.478282	0.162706
599.688366	0.163300
599.898431	0.163909
600.108479	0.163799
600.318508	0.163921
600.528519	0.164111
600.738511	0.164069
600.948486	0.164137
601.158442	0.164285
601.368380	0.164495
601.578300	0.164217
601.788202	0.163809
601.998085	0.163796
602.207950	0.163941
602.417797	0.164209
602.627626	0.164312
602.837436	0.164128
603.047228	0.164309
603.257002	0.164302
603.466758	0.164428
603.676496	0.164485
603.886215	0.164763
604.095916	0.164396
604.305599	0.164453
604.515264	0.164596
604.724910	0.165079
604.934538	0.165205
605.144148	0.165282
605.353740	0.165510
605.563314	0.165871
605.772869	0.165862
605.982406	0.166568
606.191925	0.166716
606.401425	0.166660
606.610908	0.166367
606.820372	0.166127
607.029818	0.166139
607.239246	0.165971
607.448655	0.166119
607.658047	0.166369
607.867420	0.166471
608.076775	0.166288
608.286111	0.166191
608.495430	0.166443
608.704730	0.166561
608.914012	0.166801
609.123275	0.166949
609.332521	0.166869
609.541748	0.167026
609.750957	0.166812
609.960148	0.166802
610.169321	0.166759
610.378475	0.167064
610.587611	0.167192
610.796729	0.167184
611.005829	0.167233
611.214910	0.167283
611.423974	0.167121
611.633019	0.167275
611.842045	0.167756
612.051054	0.168043
612.260044	0.167773
612.469017	0.167974
612.677970	0.167985
612.886906	0.168115
613.095824	0.167998
613.304723	0.168048
613.513604	0.168266
613.722467	0.168131
613.931311	0.168163
614.140138	0.168487
614.348946	0.168486
614.557736	0.168614
614.766507	0.168645
614.975261	0.168841
615.183996	0.169038
615.392713	0.169151
615.601412	0.169277
615.810092	0.169870
616.018754	0.170048
616.227399	0.169942
616.436024	0.170374
616.644632	0.170813
616.853222	0.170719
617.061793	0.170608
617.270346	0.170675
617.478880	0.171182
617.687397	0.170883
617.895895	0.170966
618.104375	0.171341
618.312837	0.171075
618.521281	0.171127
618.729706	0.171243
618.938113	0.171563
619.146502	0.171438
619.354873	0.171331
619.563226	0.171197
619.771560	0.171300
619.979876	0.170876
620.188174	0.171183
620.396453	0.170995
620.604715	0.171000
620.812958	0.170853
621.021183	0.171010
621.229390	0.170809
621.437578	0.170948
621.645748	0.171004
621.853900	0.171649
622.062034	0.171376
622.270150	0.171646
622.478247	0.172175
622.686326	0.172360
622.894387	0.172547
623.102430	0.172740
623.310454	0.172862
623.518461	0.172921
623.726449	0.172978
623.934418	0.173121
624.142370	0.172915
624.350303	0.172865
624.558218	0.173063
624.766115	0.172762
624.973994	0.172670
625.181855	0.172838
625.389697	0.172826
625.597521	0.172702
625.805327	0.172933
626.013114	0.173091
626.220883	0.173131
626.428634	0.173005
626.636367	0.173520
626.844082	0.173735
627.051778	0.173660
627.259457	0.173830
627.467117	0.173893
627.674758	0.174093
627.882382	0.174155
628.089987	0.174065
628.297574	0.174204
628.505143	0.174058
628.712694	0.173996
628.920226	0.174483
629.127740	0.174654
629.335236	0.174815
629.542714	0.174785
629.750174	0.174970
629.957615	0.175109
630.165038	0.174937
630.372443	0.174949
630.579829	0.175069
630.787198	0.174787
630.994548	0.174583
631.201880	0.174448
631.409194	0.174305
631.616489	0.174181
631.823766	0.174155
632.031025	0.174446
632.238266	0.174568
632.445489	0.174645
632.652693	0.175031
632.859879	0.175265
633.067047	0.175285
633.274197	0.175408
633.481329	0.175579
633.688442	0.176007
633.895537	0.176214
634.102614	0.176173
634.309672	0.176214
634.516713	0.176095
634.723735	0.176049
634.930739	0.176581
635.137724	0.176858
635.344692	0.176833
635.551641	0.176797
635.758572	0.176686
635.965485	0.177004
636.172379	0.177343
636.379256	0.177313
636.586114	0.177407
636.792954	0.177316
636.999775	0.177312
637.206579	0.177552
637.413364	0.177670
637.620131	0.177933
637.826880	0.177983
638.033610	0.178051
638.240323	0.178219
638.447017	0.178560
638.653692	0.178668
638.860350	0.178925
639.066990	0.178901
639.273611	0.179013
639.480214	0.179016
639.686798	0.179211
639.893365	0.179481
640.099913	0.179724
640.306443	0.179644
640.512955	0.179710
640.719449	0.179563
640.925924	0.179576
641.132381	0.179621
641.338820	0.179577
641.545241	0.179661
641.751644	0.179466
641.958028	0.179541
642.164394	0.179778
642.370742	0.179611
642.577071	0.179844
642.783383	0.180182
642.989676	0.180312
643.195951	0.180601
643.402207	0.180485
643.608446	0.180587
643.814666	0.180538
644.020868	0.180615
644.227052	0.181064
644.433218	0.181244
644.639365	0.181381
644.845494	0.181456
645.051605	0.181525
645.257698	0.181831
645.463772	0.181889
645.669828	0.182068
645.875866	0.182110
646.081886	0.181973
646.287888	0.181731
646.493871	0.181793
646.699836	0.181820
646.905783	0.181788
647.111712	0.181562
647.317622	0.181651
647.523514	0.181473
647.729388	0.181303
647.935244	0.181365
648.141082	0.181491
648.346901	0.181473
648.552702	0.181527
648.758485	0.181632
648.964250	0.181765
649.169996	0.181852
649.375724	0.181961
649.581434	0.182242
649.787126	0.182440
649.992800	0.182766
650.198455	0.182725
650.404092	0.182774
650.609711	0.182898
650.815311	0.182885
651.020894	0.182767
651.226458	0.182805
651.432004	0.182855
651.637532	0.182949
651.843041	0.182758
652.048532	0.182975
652.254006	0.182984
652.459460	0.182978
652.664897	0.183346
652.870315	0.183734
653.075716	0.184151
653.281097	0.184384
653.486461	0.184541
653.691807	0.184814
653.897134	0.185051
654.102443	0.185251
654.307734	0.185510
654.513006	0.185812
654.718261	0.185872
654.923497	0.185705
655.128715	0.185766
655.333915	0.185673
655.539096	0.185496
655.744259	0.185306
655.949404	0.185415
656.154531	0.185500
656.359640	0.185246
656.564730	0.185188
656.769802	0.185449
656.974856	0.185583
657.179892	0.185806
657.384909	0.186090
657.589908	0.186290
657.794889	0.186480
657.999852	0.186528
658.204797	0.186753
658.409723	0.186969
658.614631	0.187130
658.819521	0.187159
659.024393	0.187359
659.229246	0.187588
659.434081	0.187979
659.638898	0.188138
659.843697	0.188078
660.048478	0.188243
660.253240	0.188479
660.457984	0.188574
660.662710	0.188699
660.867417	0.188605
661.072107	0.188532
661.276778	0.188553
661.481431	0.188565
661.686066	0.189007
661.890682	0.189081
662.095281	0.189088
662.299861	0.188999
662.504422	0.189000
662.708966	0.189173
662.913491	0.189537
663.117999	0.189388
663.322488	0.189473
663.526958	0.189448
663.731411	0.189234
663.935845	0.189275
664.140261	0.189652
664.344659	0.189837
664.549038	0.189835
664.753400	0.189605
664.957743	0.189816
665.162068	0.189839
665.366375	0.189819
665.570663	0.190126
665.774933	0.190093
665.979185	0.189953
666.183419	0.189738
666.387635	0.189903
666.591832	0.190216
666.796011	0.190165
667.000172	0.190283
667.204315	0.190267
667.408439	0.190229
667.612545	0.190246
667.816634	0.190346
668.020703	0.190670
668.224755	0.190677
668.428788	0.190851
668.632803	0.190979
668.836800	0.191032
669.040779	0.191281
669.244739	0.191506
669.448681	0.191769
669.652605	0.191961
669.856511	0.191978
670.060399	0.192055
670.264268	0.191893
670.468119	0.191902
670.671952	0.192067
670.875767	0.192456
671.079563	0.192782
671.283341	0.192906
671.487101	0.193037
671.690843	0.193232
671.894567	0.193477
672.098272	0.193747
672.301959	0.194027
672.505628	0.194133
672.709278	0.194166
672.912911	0.194153
673.116525	0.194134
673.320121	0.194172
673.523699	0.194236
673.727258	0.194380
673.930799	0.194348
674.134322	0.194392
674.337827	0.194509
674.541314	0.194384
674.744782	0.194615
674.948232	0.194807
675.151664	0.194917
675.355078	0.194789
675.558474	0.195006
675.761851	0.195223
675.965210	0.195287
676.168551	0.195208
676.371873	0.195508
676.575178	0.195293
676.778464	0.195438
676.981732	0.195525
677.184981	0.195650
677.388213	0.195446
677.591426	0.195526
677.794621	0.195702
677.997798	0.195707
678.200956	0.195408
678.404097	0.195418
678.607219	0.195426
678.810323	0.195478
679.013408	0.195618
679.216476	0.195686
679.419525	0.195804
679.622556	0.195914
679.825569	0.196169
680.028563	0.196569
680.231540	0.196680
680.434498	0.196726
680.637438	0.196796
680.840359	0.197011
681.043263	0.197242
681.246148	0.197342
681.449015	0.197294
681.651864	0.197401
681.854694	0.197336
682.057506	0.197486
682.260301	0.197596
682.463076	0.197963
682.665834	0.198234
682.868573	0.198250
683.071295	0.198308
683.273998	0.198404
683.476682	0.198541
683.679349	0.198812
683.881997	0.199051
684.084627	0.199143
684.287239	0.198930
684.489833	0.198951
684.692408	0.199072
684.894965	0.199130
685.097504	0.199275
685.300025	0.199370
685.502527	0.199109
685.705012	0.198864
685.907478	0.198713
686.109925	0.198659
686.312355	0.198465
686.514766	0.198374
686.717159	0.198475
686.919534	0.198372
687.121891	0.198036
687.324230	0.197998
687.526550	0.198107
687.728852	0.198526
687.931136	0.198580
688.133401	0.198530
688.335649	0.198700
688.537878	0.198612
688.740089	0.198810
688.942281	0.199224
689.144456	0.199531
689.346612	0.199718
689.548750	0.199660
689.750870	0.199890
689.952971	0.200033
690.155055	0.200039
690.357120	0.200164
690.559167	0.200359
690.761195	0.200502
690.963206	0.200668
691.165198	0.200741
691.367172	0.200849
691.569128	0.200780
691.771065	0.200931
691.972984	0.200905
692.174885	0.201140
692.376768	0.201189
692.578633	0.201175
692.780479	0.201061
692.982308	0.201027
693.184118	0.201026
693.385909	0.201130
