sample name	sample
index	1211
start time	 04-26-2021  01:17:04 PM


Wavelength (nm)	Absorbance
494.344910	NaN
494.563924	NaN
494.782919	NaN
495.001897	-0.522368
495.220856	NaN
495.439797	NaN
495.658719	0.114203
495.877624	-0.197472
496.096510	-0.024301
496.315378	0.428702
496.534227	0.086960
496.753059	0.040161
496.971872	0.344353
497.190667	0.187302
497.409444	0.189142
497.628203	0.192605
497.846943	0.187170
498.065665	0.184199
498.284369	0.181152
498.503055	0.183279
498.721723	0.181695
498.940372	0.181275
499.159003	0.181530
499.377616	0.180358
499.596210	0.178348
499.814787	0.181252
500.033345	0.182542
500.251885	0.182785
500.470406	0.183212
500.688910	0.185073
500.907395	0.184623
501.125862	0.184913
501.344311	0.184946
501.562742	0.187356
501.781154	0.185432
501.999548	0.185525
502.217924	0.186925
502.436282	0.185333
502.654621	0.184281
502.872942	0.185418
503.091245	0.186161
503.309530	0.187442
503.527797	0.185691
503.746045	0.185711
503.964275	0.185312
504.182487	0.183806
504.400681	0.184094
504.618856	0.183975
504.837013	0.183383
505.055152	0.183055
505.273273	0.183132
505.491376	0.183647
505.709460	0.183184
505.927526	0.183727
506.145574	0.184481
506.363604	0.185756
506.581615	0.186277
506.799608	0.186635
507.017583	0.186862
507.235540	0.186725
507.453478	0.187088
507.671399	0.188190
507.889301	0.188235
508.107185	0.187188
508.325050	0.186927
508.542898	0.186382
508.760727	0.187162
508.978538	0.188011
509.196330	0.187824
509.414105	0.187323
509.631861	0.186755
509.849599	0.187296
510.067319	0.187883
510.285021	0.187409
510.502704	0.188864
510.720369	0.188571
510.938016	0.187689
511.155645	0.188303
511.373255	0.189437
511.590848	0.189748
511.808422	0.188642
512.025977	0.189902
512.243515	0.189658
512.461034	0.188912
512.678536	0.188853
512.896018	0.189054
513.113483	0.189002
513.330930	0.188993
513.548358	0.188944
513.765768	0.189770
513.983160	0.189809
514.200533	0.190838
514.417889	0.191526
514.635226	0.191462
514.852545	0.191221
515.069845	0.191352
515.287128	0.192137
515.504392	0.193988
515.721638	0.194345
515.938866	0.193665
516.156075	0.193219
516.373267	0.192185
516.590440	0.193197
516.807594	0.194707
517.024731	0.194824
517.241850	0.194594
517.458950	0.194256
517.676032	0.194024
517.893095	0.194936
518.110141	0.195678
518.327168	0.197581
518.544177	0.197841
518.761168	0.197758
518.978141	0.198859
519.195095	0.198436
519.412031	0.197660
519.628949	0.198813
519.845849	0.198938
520.062731	0.200025
520.279594	0.199644
520.496439	0.199443
520.713266	0.198842
520.930074	0.198722
521.146865	0.199432
521.363637	0.199988
521.580391	0.199409
521.797127	0.199994
522.013844	0.199351
522.230543	0.199851
522.447224	0.199300
522.663887	0.200508
522.880532	0.201160
523.097158	0.201859
523.313766	0.202230
523.530356	0.202806
523.746928	0.201894
523.963481	0.202124
524.180017	0.201959
524.396534	0.203145
524.613032	0.202507
524.829513	0.202324
525.045975	0.202291
525.262420	0.202824
525.478845	0.202341
525.695253	0.204366
525.911643	0.205146
526.128014	0.205582
526.344367	0.205400
526.560702	0.205929
526.777018	0.206118
526.993316	0.206632
527.209597	0.206952
527.425858	0.207736
527.642102	0.207718
527.858328	0.208118
528.074535	0.207855
528.290724	0.209054
528.506894	0.209728
528.723047	0.210465
528.939181	0.210286
529.155297	0.210929
529.371395	0.211909
529.587475	0.211266
529.803536	0.210479
530.019579	0.211107
530.235604	0.211231
530.451611	0.210922
530.667600	0.211438
530.883570	0.211713
531.099522	0.211430
531.315456	0.211537
531.531372	0.212299
531.747269	0.213711
531.963148	0.214375
532.179009	0.214047
532.394852	0.214773
532.610676	0.214594
532.826482	0.214856
533.042271	0.215194
533.258040	0.215297
533.473792	0.215442
533.689525	0.215511
533.905240	0.216210
534.120937	0.216918
534.336616	0.217333
534.552277	0.217902
534.767919	0.217889
534.983543	0.218317
535.199149	0.218507
535.414736	0.218932
535.630306	0.218960
535.845857	0.218810
536.061390	0.219897
536.276904	0.220043
536.492401	0.220350
536.707879	0.220545
536.923339	0.220627
537.138781	0.221339
537.354204	0.221635
537.569610	0.222528
537.784997	0.222748
538.000366	0.222030
538.215716	0.222224
538.431049	0.222703
538.646363	0.223164
538.861659	0.223700
539.076937	0.224216
539.292196	0.224440
539.507438	0.224581
539.722661	0.225185
539.937866	0.225845
540.153052	0.225865
540.368221	0.225903
540.583371	0.226605
540.798503	0.227102
541.013617	0.227101
541.228712	0.227687
541.443789	0.227674
541.658848	0.228071
541.873889	0.228891
542.088912	0.229926
542.303916	0.230059
542.518902	0.230182
542.733870	0.230397
542.948820	0.230778
543.163752	0.230845
543.378665	0.231283
543.593560	0.232053
543.808437	0.231982
544.023295	0.232058
544.238136	0.232000
544.452958	0.232806
544.667762	0.232908
544.882548	0.233456
545.097315	0.233585
545.312064	0.234236
545.526795	0.234111
545.741508	0.234352
545.956203	0.234795
546.170879	0.235318
546.385537	0.235443
546.600177	0.235829
546.814799	0.236030
547.029402	0.236874
547.243988	0.236983
547.458555	0.237284
547.673103	0.237602
547.887634	0.237707
548.102146	0.237847
548.316640	0.238004
548.531116	0.238370
548.745574	0.237836
548.960013	0.237583
549.174435	0.237803
549.388838	0.238142
549.603222	0.238377
549.817589	0.238831
550.031937	0.239967
550.246267	0.240603
550.460579	0.240835
550.674873	0.241514
550.889148	0.242231
551.103405	0.242186
551.317644	0.241843
551.531865	0.242286
551.746068	0.242589
551.960252	0.242071
552.174418	0.241908
552.388566	0.241596
552.602696	0.241793
552.816807	0.241821
553.030900	0.241621
553.244975	0.242423
553.459032	0.242056
553.673070	0.241814
553.887091	0.242255
554.101093	0.242342
554.315077	0.242586
554.529042	0.243442
554.742990	0.243579
554.956919	0.244288
555.170830	0.243992
555.384722	0.244480
555.598597	0.244503
555.812453	0.244461
556.026291	0.244793
556.240111	0.245538
556.453913	0.245377
556.667696	0.245477
556.881461	0.245285
557.095208	0.245759
557.308937	0.245927
557.522647	0.246167
557.736339	0.246325
557.950013	0.246931
558.163669	0.246948
558.377307	0.247145
558.590926	0.247432
558.804527	0.247975
559.018110	0.247903
559.231675	0.248545
559.445221	0.248617
559.658749	0.248929
559.872259	0.248366
560.085751	0.248516
560.299225	0.248598
560.512680	0.248880
560.726117	0.249501
560.939536	0.249622
561.152937	0.249345
561.366319	0.250084
561.579683	0.250332
561.793029	0.250965
562.006357	0.251246
562.219667	0.251346
562.432958	0.251495
562.646231	0.251494
562.859486	0.251171
563.072723	0.251149
563.285941	0.250914
563.499141	0.250754
563.712323	0.250735
563.925487	0.250172
564.138632	0.250191
564.351760	0.250576
564.564869	0.250152
564.777960	0.250585
564.991032	0.250719
565.204087	0.251001
565.417123	0.251219
565.630141	0.250956
565.843140	0.251566
566.056122	0.251770
566.269085	0.251721
566.482030	0.252083
566.694957	0.252250
566.907866	0.252224
567.120756	0.252482
567.333628	0.252384
567.546482	0.252788
567.759318	0.252623
567.972135	0.252706
568.184935	0.252684
568.397716	0.253035
568.610478	0.252977
568.823223	0.253120
569.035949	0.253188
569.248657	0.253817
569.461347	0.253799
569.674019	0.253624
569.886672	0.253798
570.099308	0.253990
570.311925	0.254044
570.524523	0.254619
570.737104	0.254931
570.949666	0.255152
571.162210	0.255200
571.374736	0.255984
571.587244	0.256930
571.799733	0.257177
572.012205	0.257463
572.224658	0.257790
572.437092	0.257963
572.649509	0.258132
572.861907	0.258155
573.074287	0.258509
573.286649	0.258208
573.498993	0.258589
573.711318	0.259157
573.923625	0.258989
574.135914	0.259395
574.348185	0.259447
574.560438	0.260198
574.772672	0.260047
574.984888	0.259713
575.197086	0.259998
575.409266	0.260015
575.621427	0.259672
575.833570	0.260392
576.045695	0.260208
576.257802	0.260589
576.469890	0.260431
576.681961	0.261224
576.894013	0.261601
577.106046	0.261952
577.318062	0.262082
577.530059	0.262272
577.742039	0.262142
577.954000	0.262678
578.165942	0.263084
578.377867	0.263071
578.589773	0.262975
578.801661	0.263710
579.013531	0.264022
579.225382	0.264560
579.437216	0.264613
579.649031	0.264812
579.860828	0.264912
580.072606	0.264671
580.284367	0.265015
580.496109	0.265250
580.707833	0.265374
580.919539	0.265216
581.131227	0.264736
581.342896	0.265091
581.554547	0.264999
581.766180	0.264862
581.977795	0.265294
582.189391	0.265634
582.400969	0.265597
582.612529	0.265412
582.824071	0.265918
583.035595	0.266469
583.247100	0.266506
583.458587	0.267002
583.670056	0.267741
583.881506	0.268020
584.092939	0.268179
584.304353	0.268735
584.515749	0.269068
584.727127	0.268783
584.938486	0.268790
585.149828	0.269181
585.361151	0.269493
585.572456	0.269075
585.783742	0.268992
585.995011	0.269235
586.206261	0.269286
586.417493	0.269176
586.628706	0.269829
586.839902	0.270013
587.051079	0.270278
587.262238	0.270435
587.473379	0.270368
587.684502	0.270493
587.895606	0.270436
588.106692	0.270897
588.317760	0.271277
588.528810	0.271563
588.739841	0.272016
588.950855	0.272074
589.161850	0.272121
589.372827	0.272422
589.583785	0.273014
589.794726	0.273385
590.005648	0.273295
590.216552	0.273983
590.427437	0.274413
590.638305	0.274904
590.849154	0.275253
591.059985	0.275732
591.270798	0.276400
591.481592	0.276270
591.692369	0.276217
591.903127	0.276484
592.113867	0.276587
592.324588	0.276339
592.535292	0.276402
592.745977	0.276745
592.956644	0.276879
593.167293	0.276967
593.377923	0.277355
593.588536	0.277424
593.799130	0.277805
594.009706	0.277923
594.220263	0.278168
594.430803	0.278498
594.641324	0.278490
594.851827	0.278620
595.062312	0.278748
595.272778	0.279065
595.483227	0.279355
595.693657	0.279629
595.904069	0.279825
596.114462	0.279972
596.324838	0.279824
596.535195	0.279781
596.745534	0.280017
596.955855	0.280280
597.166157	0.280265
597.376441	0.280638
597.586707	0.280766
597.796955	0.280764
598.007185	0.281237
598.217396	0.281593
598.427589	0.282144
598.637764	0.282635
598.847921	0.282639
599.058060	0.282564
599.268180	0.282581
599.478282	0.282549
599.688366	0.282772
599.898431	0.282515
600.108479	0.282496
600.318508	0.282358
600.528519	0.282018
600.738511	0.282441
600.948486	0.282850
601.158442	0.282834
601.368380	0.283153
601.578300	0.283643
601.788202	0.283885
601.998085	0.284099
602.207950	0.284437
602.417797	0.284800
602.627626	0.284760
602.837436	0.285247
603.047228	0.285655
603.257002	0.286022
603.466758	0.285561
603.676496	0.286122
603.886215	0.286956
604.095916	0.287470
604.305599	0.287598
604.515264	0.287807
604.724910	0.287843
604.934538	0.288538
605.144148	0.288267
605.353740	0.288847
605.563314	0.288862
605.772869	0.288622
605.982406	0.288854
606.191925	0.289153
606.401425	0.289487
606.610908	0.289539
606.820372	0.289225
607.029818	0.289774
607.239246	0.290031
607.448655	0.290400
607.658047	0.290271
607.867420	0.290250
608.076775	0.290532
608.286111	0.290743
608.495430	0.291088
608.704730	0.291188
608.914012	0.291288
609.123275	0.291602
609.332521	0.291591
609.541748	0.291999
609.750957	0.291754
609.960148	0.291713
610.169321	0.291903
610.378475	0.292176
610.587611	0.292459
610.796729	0.292972
611.005829	0.293513
611.214910	0.293687
611.423974	0.293874
611.633019	0.294453
611.842045	0.294523
612.051054	0.294798
612.260044	0.294711
612.469017	0.295534
612.677970	0.295496
612.886906	0.295439
613.095824	0.295729
613.304723	0.296031
613.513604	0.296113
613.722467	0.296672
613.931311	0.296839
614.140138	0.297355
614.348946	0.297161
614.557736	0.297451
614.766507	0.297424
614.975261	0.297566
615.183996	0.297732
615.392713	0.298114
615.601412	0.298174
615.810092	0.298693
616.018754	0.299021
616.227399	0.299282
616.436024	0.299489
616.644632	0.299339
616.853222	0.299368
617.061793	0.299276
617.270346	0.299672
617.478880	0.299991
617.687397	0.299879
617.895895	0.299577
618.104375	0.299744
618.312837	0.299961
618.521281	0.300452
618.729706	0.300944
618.938113	0.301453
619.146502	0.301254
619.354873	0.301339
619.563226	0.301641
619.771560	0.302130
619.979876	0.302535
620.188174	0.302934
620.396453	0.303106
620.604715	0.303177
620.812958	0.303546
621.021183	0.304025
621.229390	0.304696
621.437578	0.304701
621.645748	0.305072
621.853900	0.305227
622.062034	0.304930
622.270150	0.305623
622.478247	0.305848
622.686326	0.305939
622.894387	0.305993
623.102430	0.305485
623.310454	0.305607
623.518461	0.305230
623.726449	0.305170
623.934418	0.305493
624.142370	0.305092
624.350303	0.305088
624.558218	0.304959
624.766115	0.304922
624.973994	0.304923
625.181855	0.305122
625.389697	0.305377
625.597521	0.305313
625.805327	0.305218
626.013114	0.305457
626.220883	0.305531
626.428634	0.305644
626.636367	0.305579
626.844082	0.306020
627.051778	0.305836
627.259457	0.305986
627.467117	0.306360
627.674758	0.306519
627.882382	0.306745
628.089987	0.307301
628.297574	0.307303
628.505143	0.307869
628.712694	0.307989
628.920226	0.308254
629.127740	0.308447
629.335236	0.308455
629.542714	0.308570
629.750174	0.308531
629.957615	0.308255
630.165038	0.308822
630.372443	0.309009
630.579829	0.309457
630.787198	0.309469
630.994548	0.309618
631.201880	0.309811
631.409194	0.309783
631.616489	0.309787
631.823766	0.309877
632.031025	0.309778
632.238266	0.310039
632.445489	0.310071
632.652693	0.310308
632.859879	0.310609
633.067047	0.310949
633.274197	0.311461
633.481329	0.311863
633.688442	0.312112
633.895537	0.312468
634.102614	0.312507
634.309672	0.312566
634.516713	0.313022
634.723735	0.313372
634.930739	0.313604
635.137724	0.313997
635.344692	0.314144
635.551641	0.314670
635.758572	0.314943
635.965485	0.314951
636.172379	0.315334
636.379256	0.315657
636.586114	0.315781
636.792954	0.315654
636.999775	0.315742
637.206579	0.315913
637.413364	0.315752
637.620131	0.315615
637.826880	0.315968
638.033610	0.315935
638.240323	0.316132
638.447017	0.316205
638.653692	0.316240
638.860350	0.316322
639.066990	0.316559
639.273611	0.317111
639.480214	0.317333
639.686798	0.317488
639.893365	0.317585
640.099913	0.317670
640.306443	0.317566
640.512955	0.318279
640.719449	0.318196
640.925924	0.318211
641.132381	0.317876
641.338820	0.318174
641.545241	0.318189
641.751644	0.318502
641.958028	0.318614
642.164394	0.318951
642.370742	0.318824
642.577071	0.319157
642.783383	0.319379
642.989676	0.319843
643.195951	0.320112
643.402207	0.320447
643.608446	0.320970
643.814666	0.321362
644.020868	0.321655
644.227052	0.322161
644.433218	0.322608
644.639365	0.322940
644.845494	0.323568
645.051605	0.323587
645.257698	0.323940
645.463772	0.323736
645.669828	0.323665
645.875866	0.323803
646.081886	0.323869
646.287888	0.324259
646.493871	0.324637
646.699836	0.324553
646.905783	0.324834
647.111712	0.324938
647.317622	0.325491
647.523514	0.325723
647.729388	0.326245
647.935244	0.326244
648.141082	0.326156
648.346901	0.326221
648.552702	0.326454
648.758485	0.326660
648.964250	0.327096
649.169996	0.327144
649.375724	0.327395
649.581434	0.327375
649.787126	0.327739
649.992800	0.327971
650.198455	0.328280
650.404092	0.328193
650.609711	0.328443
650.815311	0.328619
651.020894	0.328912
651.226458	0.329485
651.432004	0.329781
651.637532	0.329688
651.843041	0.329805
652.048532	0.329885
652.254006	0.330107
652.459460	0.330399
652.664897	0.330491
652.870315	0.330634
653.075716	0.330480
653.281097	0.330666
653.486461	0.331070
653.691807	0.331567
653.897134	0.331774
654.102443	0.332110
654.307734	0.332089
654.513006	0.332269
654.718261	0.332447
654.923497	0.333031
655.128715	0.332977
655.333915	0.333341
655.539096	0.333226
655.744259	0.333352
655.949404	0.333760
656.154531	0.334441
656.359640	0.334591
656.564730	0.334815
656.769802	0.334531
656.974856	0.334951
657.179892	0.335017
657.384909	0.335141
657.589908	0.335489
657.794889	0.335517
657.999852	0.335540
658.204797	0.335688
658.409723	0.335554
658.614631	0.335988
658.819521	0.336307
659.024393	0.336728
659.229246	0.337027
659.434081	0.337261
659.638898	0.337515
659.843697	0.337723
660.048478	0.338043
660.253240	0.338707
660.457984	0.338963
660.662710	0.339078
660.867417	0.339405
661.072107	0.339815
661.276778	0.340222
661.481431	0.340352
661.686066	0.340588
661.890682	0.340663
662.095281	0.340672
662.299861	0.340847
662.504422	0.340917
662.708966	0.340895
662.913491	0.341348
663.117999	0.341082
663.322488	0.341299
663.526958	0.341238
663.731411	0.341778
663.935845	0.341978
664.140261	0.342289
664.344659	0.342560
664.549038	0.342719
664.753400	0.342468
664.957743	0.342980
665.162068	0.343263
665.366375	0.343387
665.570663	0.343460
665.774933	0.343718
665.979185	0.343886
666.183419	0.344274
666.387635	0.344486
666.591832	0.344776
666.796011	0.344980
667.000172	0.345181
667.204315	0.345611
667.408439	0.345744
667.612545	0.345673
667.816634	0.346013
668.020703	0.346304
668.224755	0.346588
668.428788	0.347132
668.632803	0.347209
668.836800	0.347455
669.040779	0.347935
669.244739	0.348238
669.448681	0.348772
669.652605	0.349165
669.856511	0.349260
670.060399	0.349481
670.264268	0.349568
670.468119	0.349885
670.671952	0.350134
670.875767	0.350201
671.079563	0.350496
671.283341	0.350800
671.487101	0.350773
671.690843	0.351243
671.894567	0.351510
672.098272	0.351687
672.301959	0.352027
672.505628	0.352018
672.709278	0.352300
672.912911	0.352511
673.116525	0.352552
673.320121	0.352654
673.523699	0.352692
673.727258	0.352976
673.930799	0.353359
674.134322	0.353569
674.337827	0.354152
674.541314	0.354471
674.744782	0.354547
674.948232	0.355093
675.151664	0.355492
675.355078	0.355570
675.558474	0.356032
675.761851	0.356547
675.965210	0.356909
676.168551	0.357293
676.371873	0.357388
676.575178	0.357873
676.778464	0.358109
676.981732	0.358338
677.184981	0.358882
677.388213	0.359004
677.591426	0.358862
677.794621	0.359234
677.997798	0.359305
678.200956	0.359564
678.404097	0.359866
678.607219	0.359929
678.810323	0.360195
679.013408	0.360740
679.216476	0.360864
679.419525	0.361282
679.622556	0.361271
679.825569	0.361599
680.028563	0.361893
680.231540	0.361971
680.434498	0.362150
680.637438	0.362292
680.840359	0.362397
681.043263	0.362820
681.246148	0.362854
681.449015	0.362907
681.651864	0.363069
681.854694	0.363074
682.057506	0.363432
682.260301	0.363665
682.463076	0.364074
682.665834	0.363747
682.868573	0.364052
683.071295	0.364113
683.273998	0.364502
683.476682	0.364648
683.679349	0.364962
683.881997	0.365131
684.084627	0.365340
684.287239	0.365192
684.489833	0.365544
684.692408	0.365416
684.894965	0.365939
685.097504	0.366124
685.300025	0.366282
685.502527	0.366422
685.705012	0.366465
685.907478	0.366668
686.109925	0.366970
686.312355	0.367338
686.514766	0.367684
686.717159	0.367821
686.919534	0.368054
687.121891	0.368221
687.324230	0.368349
687.526550	0.368635
687.728852	0.369041
687.931136	0.369261
688.133401	0.369588
688.335649	0.369711
688.537878	0.369789
688.740089	0.370061
688.942281	0.370242
689.144456	0.370672
689.346612	0.370845
689.548750	0.370848
689.750870	0.371243
689.952971	0.371182
690.155055	0.371441
690.357120	0.371629
690.559167	0.371740
690.761195	0.372308
690.963206	0.372409
691.165198	0.372350
691.367172	0.372959
691.569128	0.372952
691.771065	0.373383
691.972984	0.373652
692.174885	0.374062
692.376768	0.374186
692.578633	0.374091
692.780479	0.374552
692.982308	0.374895
693.184118	0.374760
693.385909	0.375108
693.587683	0.375077
