sample name	sample
index	24
start time	 02-11-2021  12:13:48 PM
880	0.214707
Peak Time (s)	80.536
Peak Height 	0.2147
calc peak height	80,83
Baseline Time (s)	9.037
Baseline Value 	-0.002997
subtract baseline	10,4
Abs	0.161675
Peak Time (s)	82.038
Peak Height 	0.1617
calc peak height	80,83
Baseline Time (s)	8.537
Baseline Value 	0.001257
subtract baseline	10,3
PK_550	0.074959
Peak Time (s)	81.537
Peak Height 	0.07496
calc peak height	80,83
Baseline Time (s)	10.537
Baseline Value 	4.0919E-4
subtract baseline	10,2
PK_880	0.122807
Peak Time (s)	80.036
Peak Height 	0.1228
calc peak height	80,83
Baseline Time (s)	11.034
Baseline Value 	0.00266
subtract baseline	10,1


Time (s)	A880-A510	A880-A775	A880-A975	A880	I510	I775	I975	I880	
0.039500	0.000326	-0.000369	0.004538	-0.000524	4498.490739	19390.802981	3243.214378	10391.969023
0.537500	-0.006329	-0.001719	-0.003551	0.001069	4468.874621	19280.081513	3234.785329	10364.571287
1.070500	-0.002831	0.001085	0.001117	0.002094	4477.694721	19346.933379	3237.934657	10346.981850
1.539500	0.002398	0.000464	0.007348	-0.000420	4505.644391	19418.342937	3245.604493	10390.178594
2.035500	-0.000934	-0.000058	-0.010339	-0.001126	4496.109745	19425.344135	3230.850864	10402.365971
2.535500	-0.000029	0.001023	0.005365	0.000573	4493.235260	19401.964237	3242.977637	10373.086720
3.036000	-0.001547	0.000105	-0.000156	0.002351	4481.372587	19300.405945	3236.608646	10342.576121
3.539000	-0.006439	0.000045	0.004318	0.002085	4464.870906	19308.122522	3240.732222	10347.132343
4.036500	-0.006656	-0.000959	-0.006276	0.000923	4468.226975	19314.057196	3232.570347	10367.065149
4.537000	-0.003914	-0.000520	0.003954	0.001915	4474.461728	19293.311381	3240.563096	10350.048750
5.034000	-0.003945	0.000278	0.000559	0.001753	4474.930071	19329.396290	3237.746459	10352.829313
5.537500	0.000170	0.000866	0.010291	-0.001049	4499.831437	19457.416734	3248.782895	10401.036046
6.035000	-0.000357	-0.000170	0.001425	-0.001553	4499.748035	19437.252777	3241.384675	10409.728175
6.535000	-0.002743	0.000714	-0.001071	0.001985	4478.402003	19337.082105	3236.134183	10348.856683
7.035500	-0.001681	-0.000368	-0.001312	0.001320	4484.592536	19321.377146	3236.500234	10360.253061
7.536000	-0.002771	-0.001056	0.010253	-0.002603	4494.809068	19443.480917	3250.139271	10427.905266
8.038500	0.000878	-0.000390	0.002264	-0.001581	4504.335808	19429.995889	3242.144938	10410.215662
8.536500	0.000712	0.000632	0.000000	-0.000475	4499.717254	19426.801115	3239.198010	10391.136903
9.036500	-0.001315	0.001829	-0.001431	0.000000	4490.664538	19454.161865	3237.540513	10382.946818
9.537000	0.002030	0.000150	-0.000888	-0.000613	4505.003909	19413.772555	3238.544661	10393.500880
10.037500	0.000947	-0.000108	0.008500	-0.003620	4512.025295	19518.068733	3249.479984	10445.535762
10.537000	-0.004349	0.000000	0.003325	0.000170	4479.146588	19378.538983	3241.538997	10380.015824
11.034500	0.000000	-0.000153	0.010608	0.000097	4495.064509	19375.542074	3248.043219	10381.284503
11.535500	-0.003210	-0.000259	-0.000623	0.000511	4482.005510	19355.940072	3237.798221	10374.153559
12.035500	0.000179	0.000568	0.004621	0.001417	4490.939793	19352.924541	3241.582496	10358.583857
12.536000	-0.003858	-0.000299	-0.004739	0.000068	4481.271992	19371.099446	3234.623192	10381.770065
13.039000	-0.004144	-0.000394	-0.011916	0.000620	4478.271565	19346.735989	3228.030611	10372.283867
13.536500	-0.001807	-0.000774	-0.005497	-0.000038	4489.026006	19357.194481	3234.062712	10383.596170
14.037000	-0.004836	0.000044	0.008197	0.000665	4475.634586	19361.536914	3245.396223	10371.503515
14.537500	-0.001179	-0.000506	0.016054	0.000580	4489.062568	19344.019234	3252.492652	10372.962066
15.037000	-0.001136	0.000052	0.001826	0.000987	4487.748748	19349.721839	3239.514691	10365.970455
15.537500	-0.001995	-0.000772	0.003025	-0.000023	4488.294168	19356.744991	3241.445904	10383.347885
16.035500	-0.003882	-0.000347	0.007502	0.001135	4477.365414	19329.095262	3244.365480	10363.426146
16.535500	0.000316	0.000002	0.005329	0.001242	4492.066503	19338.221341	3242.357786	10361.590265
17.035500	-0.002620	-0.000931	0.002541	-0.000798	4488.832325	19379.948813	3241.700599	10396.692792
17.536500	-0.001551	-0.000369	0.005378	0.000265	4488.856041	19361.019307	3243.259238	10378.377513
18.036500	-0.003748	-0.001711	0.005253	-0.000335	4483.112852	19333.115957	3243.678014	10388.717034
18.536500	-0.004048	-0.000416	0.001129	0.000296	4479.774817	19358.132794	3239.509665	10377.858261
19.037000	-0.001015	0.000871	0.005497	0.000467	4490.061162	19400.235379	3243.187628	10374.917819
19.537500	-0.001324	0.000367	0.002615	0.000773	4487.842674	19369.627615	3240.389995	10369.642308
20.034500	0.001223	0.001052	0.007774	0.001732	4493.573214	19359.344448	3244.079009	10353.190490
20.535000	-0.001374	-0.000045	-0.001993	0.003467	4477.992950	19252.916724	3234.061731	10323.484638
21.036500	-0.000956	-0.000931	0.004159	-0.001832	4498.588073	19419.003220	3244.033926	10414.557740
21.552000	0.005023	0.001341	0.012950	-0.000257	4514.637124	19445.394895	3250.454077	10387.375201
22.035500	0.000810	0.000559	0.009550	-0.000850	4501.430294	19438.220698	3247.944120	10397.592535
22.539000	-0.005532	-0.001343	-0.008516	0.002182	4467.744946	19252.427518	3229.587579	10345.465757
23.036500	-0.004637	-0.001143	0.000529	-0.001245	4483.188694	19388.824237	3240.331468	10404.414522
23.536500	0.001715	0.000602	0.004462	-0.000732	4504.294453	19435.387194	3243.331811	10395.564018
24.037000	-0.004250	-0.001676	0.000787	0.000431	4478.567521	19305.633827	3239.094331	10375.528936
24.534000	-0.002910	0.001109	0.004558	0.002647	4475.434778	19326.994533	3240.450553	10337.505459
25.070500	-0.000726	-0.000665	0.018513	-0.002005	4500.049328	19435.637428	3257.068451	10417.553288
25.535000	-0.003189	0.000756	0.007912	-0.000701	4486.435768	19440.022322	3246.354170	10395.019921
26.034500	-0.000923	-0.000623	-0.000360	-0.001890	4498.919209	19432.863470	3240.117862	10415.562042
26.536000	-0.003105	-0.000326	0.002683	0.000658	4481.857482	19347.897472	3240.550547	10371.633706
27.038500	0.000460	-0.000419	0.003379	-0.002595	4506.504295	19467.303494	3244.018743	10427.751703
27.536000	0.001459	0.001046	0.004347	0.002140	4492.950371	19343.707861	3240.709602	10346.192654
28.036000	0.001022	-0.001289	-0.004810	0.000248	4498.217361	19327.053768	3234.408158	10378.681086
28.537000	-0.003971	-0.000878	0.006313	0.000630	4478.850286	19328.109452	3243.761793	10372.100136
29.036500	0.000724	-0.000384	-0.001751	0.001195	4493.711953	19325.483847	3236.229306	10362.405781
29.534500	-0.003627	-0.002166	0.001220	-0.000125	4482.791746	19308.112616	3239.956483	10385.093825
30.035000	-0.002093	-0.000175	0.018636	0.001079	4483.975820	19337.702123	3254.375993	10364.388816
30.535000	-0.001185	-0.000005	-0.003119	0.001362	4486.223756	19333.454870	3234.904793	10359.535941
31.035000	-0.003008	-0.000911	0.004934	0.001057	4480.775190	19310.849385	3242.173410	10364.771232
31.535500	0.000729	-0.000141	-0.003000	0.000909	4494.764946	19345.407495	3235.397588	10367.317466
32.036000	-0.004142	-0.001628	-0.008017	0.000070	4480.244444	19321.004231	3231.811358	10381.737277
32.536500	-0.001846	0.000283	0.001979	0.001467	4483.471211	19340.332580	3239.230096	10357.728274
33.036500	-0.004465	-0.000202	0.012701	0.001239	4474.908578	19330.667930	3248.891617	10361.646456
33.537000	-0.002011	0.000345	0.007068	0.002004	4480.953653	19322.461230	3243.216633	10348.517947
34.034500	-0.002907	0.001489	0.006040	0.002664	4475.386556	19340.682864	3241.733512	10337.224027
34.534500	-0.001814	0.000216	0.011966	0.002251	4480.772868	19308.324599	3247.333444	10344.291648
35.035000	-0.003669	0.000187	0.009749	0.001469	4476.933435	19336.647648	3246.059195	10357.700901
35.535000	-0.000167	-0.000842	0.001603	0.000663	4492.412461	19328.278221	3239.602981	10371.542772
36.035500	-0.002731	0.000338	0.006771	0.001390	4480.574344	19345.300341	3243.496202	10359.051280
36.539000	-0.003515	-0.000793	0.013866	0.001263	4478.221168	19307.543374	3249.912222	10361.230472
37.036000	-0.002101	0.001554	0.003272	0.001449	4482.620842	19388.939247	3240.373917	10358.048841
37.536000	0.000992	0.000069	0.014622	-0.003580	4512.044070	19523.264204	3254.960073	10444.831183
38.036500	0.000331	-0.000244	0.006851	-0.001559	4502.264309	19434.648047	3246.173546	10409.829007
38.553500	-0.003336	-0.001156	-0.000070	-0.000466	4485.065869	19358.951519	3239.128810	10390.980332
39.037500	-0.001191	0.001115	0.002786	-0.001099	4495.083235	19468.746924	3242.180330	10401.900954
39.535000	0.000894	-0.000611	0.002364	-0.001961	4505.778880	19436.006150	3242.567037	10416.786836
40.035500	-0.001372	-0.000285	0.009619	-0.001835	4497.092726	19443.594534	3248.884852	10414.611493
40.535500	-0.005263	-0.000540	-0.005576	0.005861	4455.673917	19145.154207	3228.961274	10282.718708
41.035500	-0.000765	-0.000197	0.007556	0.002303	4484.350089	19290.871794	3243.383125	10343.396540
41.536500	-0.002402	-0.000317	0.005720	0.002500	4477.775652	19278.967143	3241.596318	10340.027810
42.036500	0.002881	0.001431	0.013554	0.001655	4499.857277	19376.521128	3249.282456	10354.505047
42.566500	-0.002163	-0.000589	-0.000628	0.003732	4474.227483	19222.678744	3235.008626	10318.963281
43.037000	0.001850	-0.000805	0.004115	-0.001609	4507.978396	19415.338905	3243.798235	10410.697283
43.537000	0.000635	0.000099	0.013056	-0.001261	4502.290446	19436.359985	3251.450633	10404.688858
44.037500	-0.000888	0.000197	0.006280	-0.002597	4501.612809	19490.762842	3246.589103	10427.799622
44.535000	0.004582	0.002583	0.003166	-0.006121	4534.623881	19716.812177	3246.952899	10489.079575
45.035500	-0.000150	-0.003993	0.009599	0.057397	4300.390070	17224.076801	3199.395178	9457.238690
45.535500	-0.019883	-0.017575	0.024757	0.134132	4026.228943	14551.893188	3154.640582	8396.143369
46.038500	-0.032899	-0.023842	0.020318	0.141024	3976.840304	14206.898510	3147.073908	8309.691133
46.536000	-0.030228	-0.020427	0.019474	-0.070558	4648.335901	21390.727816	3325.846463	11702.014808
47.036500	-0.011965	-0.007481	0.029581	-0.105917	4874.943171	23555.246112	3377.167648	12448.150072
47.536500	-0.000475	0.000918	0.026285	-0.081383	4817.217696	22805.310213	3345.119396	11924.032132
48.037000	0.019329	0.010386	0.044928	-0.041368	4731.125840	21459.573000	3321.863455	11130.210168
48.534500	0.020934	0.016450	0.061740	-0.002741	4583.458206	20125.573866	3299.278232	10430.285786
49.035000	0.041398	0.026148	0.062001	-0.002409	4662.193984	20499.097826	3299.206330	10424.538131
49.535000	0.050581	0.031671	0.063856	0.004455	4671.500362	20445.131075	3294.180185	10306.637442
50.035000	0.060971	0.037565	0.069410	0.036120	4587.958723	19439.593157	3268.893863	9786.217132
50.536000	0.064229	0.042744	0.082313	0.056623	4523.179599	18869.381382	3261.815251	9468.938732
51.036000	0.076853	0.047426	0.087295	0.066803	4532.201730	18669.631418	3257.044334	9316.872585
51.536500	0.081272	0.048782	0.093852	0.097140	4439.036362	17657.643673	3235.933728	8884.312585
52.037000	0.093205	0.054471	0.103796	0.113866	4422.403797	17289.599623	3230.121172	8658.423493
52.565000	0.083419	0.050491	0.106813	0.129344	4337.721268	16663.165240	3219.676390	8457.003640
53.037000	0.087641	0.052524	0.118524	0.132417	4341.468949	16630.489065	3226.885070	8417.863992
53.535000	0.090875	0.055579	0.090964	0.134869	4344.024502	16649.457353	3202.443909	8386.835463
54.044000	0.095100	0.056149	0.111080	0.133456	4362.578364	16711.936995	3219.804719	8404.697882
54.535500	0.096967	0.054812	0.109932	0.136253	4359.503429	16581.986092	3216.558839	8369.397451
55.038500	0.101608	0.059259	0.116237	0.138516	4367.383336	16650.460595	3219.884212	8340.992043
55.539000	0.097984	0.058557	0.116553	0.140145	4350.031285	16577.370263	3218.800950	8320.651524
56.036500	0.102815	0.059404	0.117352	0.143331	4355.439930	16504.405652	3216.838941	8281.064906
56.536500	0.095636	0.059329	0.123338	0.151733	4304.996568	16243.216953	3214.864229	8178.071515
57.037000	0.100736	0.063374	0.124281	0.151779	4321.160889	16365.798724	3215.595866	8177.514991
57.537000	0.100536	0.060174	0.123438	0.152472	4318.292877	16246.451205	3214.343478	8169.110885
58.037500	0.101286	0.060317	0.127720	0.155261	4311.759152	16165.946348	3215.560629	8135.414385
58.534500	0.099150	0.060950	0.129224	0.165481	4272.831468	15878.318787	3208.512365	8013.774823
59.038000	0.105085	0.061951	0.127708	0.161872	4302.802042	16015.818945	3210.192257	8056.400066
59.535500	0.104921	0.062868	0.126290	0.166229	4288.520974	15913.058173	3205.577091	8004.983580
60.038500	0.099452	0.062446	0.137887	0.168491	4264.445470	15833.454018	3213.067731	7978.494340
60.536000	0.098708	0.061626	0.123761	0.177294	4235.298930	15552.059193	3194.953492	7876.700171
61.036500	0.105216	0.062722	0.123403	0.173719	4266.103865	15687.886487	3197.437680	7917.795092
61.537000	0.108585	0.062246	0.145158	0.175310	4271.609993	15627.624707	3213.435125	7899.473070
62.037000	0.113607	0.062156	0.125577	0.176814	4282.570220	15581.318357	3196.725271	7882.206790
62.537500	0.110309	0.065469	0.144454	0.183008	4253.199810	15498.103483	3206.678754	7811.733985
63.034500	0.110231	0.064943	0.124382	0.181064	4258.923829	15538.986229	3192.540603	7833.742356
63.535000	0.111676	0.065415	0.135051	0.181353	4262.479360	15544.277117	3200.563786	7830.464682
64.035000	0.102765	0.065814	0.133401	0.180610	4237.540296	15577.322380	3199.854390	7838.892190
64.534500	0.106829	0.065199	0.128738	0.187528	4228.937049	15360.910578	3190.933974	7760.931657
65.036000	0.112214	0.066911	0.144332	0.183187	4258.492345	15534.497347	3206.438932	7809.706430
65.536500	0.110463	0.067550	0.132034	0.182542	4255.096304	15571.641236	3197.288988	7816.994847
66.036500	0.111327	0.066918	0.124319	0.182558	4257.698845	15552.865412	3191.352991	7816.814935
66.536500	0.108328	0.067513	0.134560	0.188985	4229.063781	15385.335705	3194.268504	7744.675843
67.037000	0.112042	0.068633	0.142117	0.185543	4250.747076	15516.207049	3202.820770	7783.177994
67.537500	0.113319	0.068233	0.134189	0.185010	4256.286850	15520.029659	3197.046687	7789.163408
68.034500	0.112342	0.067160	0.144180	0.184792	4253.962529	15495.398702	3205.043946	7791.622198
68.535000	0.110365	0.070136	0.150248	0.188396	4236.977138	15477.332655	3207.002201	7751.238112
69.035500	0.113772	0.069749	0.132239	0.188218	4247.860733	15471.315052	3193.077209	7753.225661
69.538000	0.114197	0.069486	0.130701	0.188486	4248.341329	15456.072382	3191.698523	7750.234443
70.036000	0.114630	0.067688	0.142039	0.189934	4245.249348	15363.265222	3199.320195	7734.112158
70.536500	0.118334	0.069429	0.136691	0.190970	4253.391614	15383.390195	3194.380377	7722.607310
71.036000	0.119868	0.069014	0.138591	0.191448	4256.628263	15357.919419	3195.474312	7717.303044
71.537000	0.117265	0.070756	0.142634	0.193522	4242.350110	15348.460397	3196.994615	7694.375529
72.037000	0.116693	0.068500	0.128644	0.192642	4243.290155	15309.388467	3186.999732	7704.098250
72.537500	0.111364	0.069994	0.126946	0.200517	4203.776931	15129.704004	3179.887984	7617.861992
73.036500	0.116599	0.070077	0.138539	0.196197	4232.251022	15253.404538	3191.795523	7664.977550
73.535000	0.118872	0.070249	0.152022	0.197232	4235.986054	15229.076916	3201.419173	7653.648376
74.035500	0.115630	0.070970	0.131671	0.198783	4221.583787	15205.697677	3184.668747	7636.718365
74.535500	0.118619	0.070507	0.140080	0.205290	4211.113839	15011.245725	3186.090329	7566.359506
75.036000	0.119515	0.071130	0.135047	0.200363	4228.489458	15165.831192	3186.010835	7619.538055
75.536000	0.122109	0.074753	0.148852	0.203619	4226.501163	15176.123752	3194.005771	7584.324859
76.037000	0.120005	0.071226	0.147625	0.201709	4225.921404	15130.855379	3194.530722	7604.956532
76.536500	0.116910	0.070680	0.143132	0.205346	4205.893737	15014.486458	3188.341373	7565.757142
77.040000	0.119943	0.071565	0.150038	0.203884	4219.233031	15079.647937	3194.713515	7581.476916
77.535000	0.117565	0.072537	0.140195	0.206142	4205.480238	15043.901355	3185.538782	7557.228923
78.035000	0.118384	0.072237	0.144878	0.206299	4207.433107	15031.212421	3188.939879	7555.541580
78.535000	0.115713	0.071893	0.150306	0.212066	4182.736490	14862.996796	3188.684203	7494.204773
79.036000	0.120022	0.072493	0.139470	0.207477	4208.792778	15005.676752	3184.002316	7542.948385
79.536000	0.120941	0.072685	0.143882	0.209230	4206.327445	14962.573634	3185.986719	7524.265820
80.036000	0.122807	0.072118	0.156457	0.208956	4212.664177	14954.532537	3195.750197	7527.186680
80.536000	0.116225	0.072211	0.149863	0.214707	4176.581037	14799.684274	3186.364338	7466.384225
81.037000	0.118900	0.074230	0.139912	0.212147	4191.770479	14924.830346	3180.871389	7493.350122
81.537000	0.121926	0.074959	0.149973	0.212847	4198.580693	14925.620067	3187.843844	7485.960064
82.037500	0.119022	0.073438	0.161675	0.212565	4190.909587	14891.636876	3196.993565	7488.940963
82.534000	0.120255	0.073307	0.151249	0.213750	4191.049314	14855.642788	3188.125152	7476.449562
83.035000	0.123166	0.074557	0.147313	0.215163	4195.427150	14851.177601	3184.118922	7461.603388
83.535500	0.119436	0.074223	0.154317	0.214233	4187.256425	14867.469106	3190.079258	7471.369063
84.087500	0.123288	0.074276	0.139847	0.214865	4196.658408	14851.646721	3178.827409	7464.733580
84.535500	0.122525	0.072787	0.149500	0.216517	4189.599077	14766.184540	3184.739289	7447.415860
85.058500	0.126280	0.074701	0.144502	0.215859	4202.525612	14836.131021	3181.519488	7454.311092
85.536500	0.124801	0.075319	0.145634	0.216292	4196.906636	14841.165761	3182.035126	7449.768526
86.036500	0.121675	0.071432	0.149175	0.215048	4191.402041	14769.254930	3185.593849	7462.804298
86.537000	0.124675	0.073436	0.142146	0.218177	4191.030044	14738.820641	3178.086976	7430.097270
87.059500	0.123915	0.072750	0.142684	0.217080	4192.009962	14749.931891	3179.283092	7441.533684
87.534500	0.125833	0.072475	0.145376	0.217072	4197.647269	14742.706003	3181.268614	7441.620738
