sample name	sample
index	334
start time	 03-01-2021  10:30:27 AM
880	0.397169
Peak Time (s)	92.035
Peak Height 	0.3972
calc peak height	90,93
Baseline Time (s)	8.536
Baseline Value 	-0.005123
subtract baseline	10,4
Abs	0.251074
Peak Time (s)	92.538
Peak Height 	0.2511
calc peak height	90,93
Baseline Time (s)	11.037
Baseline Value 	0.00383
subtract baseline	10,3
PK_550	0.140387
Peak Time (s)	92.035
Peak Height 	0.1404
calc peak height	90,93
Baseline Time (s)	8.536
Baseline Value 	4.5025E-4
subtract baseline	10,2
PK_880	0.255814
Peak Time (s)	91.534
Peak Height 	0.2558
calc peak height	90,93
Baseline Time (s)	8.536
Baseline Value 	0.002634
subtract baseline	10,1


Time (s)	A880-A510	A880-A775	A880-A975	A880	I510	I775	I975	I880	
0.037000	-0.002278	0.000007	-0.002613	0.001789	6899.604300	48366.435372	3916.659290	25364.027071
0.537500	-0.006677	-0.000727	-0.001500	0.006300	6814.085483	47818.142834	3907.017531	25129.691942
1.037500	-0.003858	-0.000615	-0.006484	0.005652	6847.148186	47897.192505	3894.822539	25163.188769
1.538500	-0.000417	-0.000616	-0.002473	0.000496	6930.286207	48436.832056	3920.748611	25431.609222
2.035000	-0.002619	-0.000845	0.000313	-0.000004	6913.700630	48465.494201	3930.174819	25457.835797
2.535500	-0.004604	-0.000653	-0.007699	0.005026	6846.008185	47958.452656	3893.176163	25195.612496
3.038500	-0.002502	-0.000653	-0.003868	-0.001123	6925.740185	48603.822276	3921.387534	25516.570600
3.536000	0.001516	-0.000484	-0.005388	0.000902	6945.229299	48408.039302	3911.291297	25410.355992
4.036500	-0.002083	-0.000638	-0.005175	0.000688	6912.176577	48414.297361	3912.504317	25421.549025
4.536500	-0.000437	0.000781	0.000450	0.001981	6915.618962	48427.559969	3924.866092	25353.987304
5.036500	-0.000445	0.000211	-0.000630	0.001083	6924.295037	48462.149225	3924.345135	25400.920751
5.534000	-0.001381	-0.000051	-0.007446	0.001125	6914.762912	48430.130879	3904.841470	25398.700530
6.035000	-0.000751	-0.000342	-0.004075	0.000488	6927.114629	48466.570686	3916.201215	25432.050624
6.535000	-0.001932	0.000008	-0.001519	0.000874	6911.841439	48462.780760	3922.396571	25411.827358
7.035500	-0.001760	-0.000801	-0.002002	0.000040	6921.635825	48465.388420	3923.401390	25455.518027
7.538000	-0.001852	0.000243	-0.000609	0.000643	6914.867855	48511.843948	3925.663486	25423.906174
8.035500	-0.000626	0.000050	-0.004786	0.000393	6929.249371	48517.852433	3914.446116	25436.989980
8.536000	0.000000	0.000000	-0.002719	0.000000	6939.217971	48554.126765	3921.462604	25457.607455
9.036500	-0.000464	0.000728	0.000689	0.000465	6930.134869	48581.815642	3929.906215	25433.222230
9.537000	0.000495	-0.001006	-0.001958	-0.000593	6949.886491	48510.597394	3925.340487	25488.734830
10.037000	0.000169	-0.000454	0.001156	-0.000182	6942.652105	48525.441897	3933.119562	25467.151165
10.537500	-0.001205	-0.000669	-0.004366	-0.000455	6931.877258	48531.498209	3918.058340	25481.455136
11.037500	-0.002811	0.001032	0.000000	0.000827	6903.761033	48575.858794	3926.886335	25414.315264
11.538000	0.000908	0.000060	0.000081	0.000368	6944.500772	48521.546026	3928.437003	25438.306311
12.038000	0.000176	0.000043	0.001033	0.000729	6933.803644	48481.673809	3930.137930	25419.403675
12.538500	-0.002377	-0.000290	-0.001345	-0.000181	6917.781175	48542.703960	3925.918181	25467.121928
13.036000	0.000732	-0.000675	-0.005383	-0.001369	6959.832906	48627.399527	3917.764122	25529.482108
13.536500	-0.000153	0.000764	-0.001710	-0.000082	6938.525956	48643.525814	3924.585026	25461.899238
14.037000	-0.002036	0.000721	0.000352	0.003788	6882.597515	48231.387508	3919.414785	25259.861951
14.537000	-0.000903	-0.000671	-0.001034	0.002253	6908.434578	48246.444141	3919.839207	25339.772853
15.045500	-0.001752	0.000203	-0.005889	-0.000323	6925.257662	48609.726811	3913.348962	25474.545797
15.534500	-0.001230	0.000210	0.001719	-0.000346	6930.573073	48612.941653	3935.218092	25475.768185
16.035500	-0.000692	-0.000227	0.003500	-0.000797	6940.244827	48614.284064	3941.687836	25499.410414
16.535000	-0.000102	-0.000190	0.000018	-0.000626	6944.347062	48600.183541	3931.116378	25490.453183
17.036000	0.000261	0.000535	0.001196	-0.000791	6949.531837	48694.430965	3934.993969	25499.142394
17.536000	-0.000512	-0.000493	-0.005384	0.000909	6925.337259	48406.325313	3911.286116	25410.005042
18.036500	-0.000925	0.000281	-0.000518	0.002111	6909.614304	48361.364742	3921.721498	25347.219912
18.536000	-0.000291	-0.000273	-0.003069	0.001737	6919.419856	48342.407880	3915.509170	25366.733488
19.036500	-0.002143	-0.000362	-0.001889	0.001597	6902.765601	48347.775381	3919.270826	25374.026327
19.537000	-0.000844	-0.000261	-0.000172	0.001597	6915.401516	48358.410937	3924.183894	25374.050630
20.037000	-0.001966	-0.000425	-0.002975	0.001477	6905.645718	48353.659279	3916.517070	25380.279936
20.543000	-0.001279	-0.000606	-0.002835	0.001134	6915.667580	48370.726626	3917.892967	25398.221918
21.035000	-0.000329	0.000578	-0.002883	0.002530	6911.325664	48348.495668	3913.782319	25325.326570
21.536500	-0.001850	-0.000751	-0.001024	0.001109	6910.355282	48358.095700	3923.138054	25399.517428
22.038500	-0.002020	-0.000349	-0.003006	0.000811	6911.598547	48431.748902	3918.326857	25415.102024
22.536000	-0.002202	0.000061	-0.001375	0.002057	6897.740712	48343.929369	3919.425905	25350.042199
23.036000	0.000726	-0.000110	-0.004011	0.001388	6932.742203	48396.189437	3913.821755	25384.954136
23.536500	-0.001257	0.000461	0.004214	0.001996	6907.491321	48392.297081	3935.661071	25353.173682
24.037000	-0.001139	0.000241	-0.001399	0.001596	6912.540519	48411.310413	3920.675280	25374.093615
24.537500	-0.002110	-0.000707	-0.001586	0.001071	6908.198208	48366.787651	3921.640508	25401.522428
25.037500	-0.002008	0.000027	-0.001661	0.001367	6906.315203	48412.856109	3920.578883	25386.035052
25.535000	-0.001823	-0.000391	-0.001697	0.000956	6912.103897	48412.093378	3921.652007	25407.531420
26.035500	-0.002446	-0.001194	-0.000042	0.000712	6908.419953	48353.320293	3927.094760	25420.287113
26.536000	-0.002057	-0.000210	-0.000973	0.001420	6905.322192	48382.336090	3922.394471	25383.281296
27.036000	-0.001123	-0.000205	0.000373	-0.000757	6935.633684	48612.449480	3932.517838	25497.323660
27.536000	0.000513	0.000372	0.000169	-0.001090	6954.927042	48708.655542	3932.888381	25514.805735
28.036500	0.001218	0.000658	-0.001166	-0.000324	6954.339971	48657.921212	3926.842767	25474.599399
28.536500	0.000827	-0.000241	0.002036	-0.000857	6955.731758	48619.151848	3937.613543	25502.570896
29.037000	-0.000527	-0.000786	-0.001478	-0.001485	6948.606021	48628.003669	3929.283817	25535.604748
29.535000	-0.001153	0.000347	0.000380	-0.000465	6932.494469	48639.945472	3931.697532	25482.001730
30.035000	-0.000281	0.000143	-0.002679	-0.000711	6943.430733	48644.395297	3923.612965	25494.907526
30.535000	-0.001474	0.000501	-0.001749	0.003148	6894.220162	48275.467189	3915.249586	25293.137862
31.035500	-0.004222	-0.000718	-0.001399	0.001990	6878.850032	48269.050486	3919.547021	25353.510165
31.538500	0.000734	0.000457	0.000065	-0.000344	6949.778632	48638.773699	3930.441547	25475.656164
32.036000	-0.001366	0.000183	-0.003045	-0.001018	6935.805872	48681.039945	3923.441137	25511.028275
32.536000	-0.002978	0.000637	-0.001518	0.004001	6871.463617	48200.310277	3913.481646	25248.813727
33.036500	-0.000297	0.000172	0.000833	-0.000842	6944.555269	48661.375265	3934.091865	25501.807210
33.537000	-0.001361	-0.000151	-0.001238	0.001282	6913.424387	48403.019558	3922.030141	25390.473601
34.037000	0.000350	-0.000237	-0.001523	0.002093	6922.197698	48308.770614	3918.900730	25348.160142
34.537500	-0.001137	0.000718	0.002470	0.002660	6902.209706	48349.461300	3928.713491	25318.549883
35.035000	-0.002333	-0.000694	0.000419	0.002139	6895.681713	48256.079696	3924.325150	25345.760100
35.535500	-0.003906	0.000115	-0.002627	0.002089	6880.947767	48346.182315	3915.763864	25348.325978
36.038500	-0.001388	-0.000258	-0.002982	0.002019	6906.008376	48314.367090	3914.954163	25352.011158
36.535500	0.000261	-0.000566	-0.000322	0.002091	6921.349207	48274.519263	3922.338044	25348.259890
37.036500	-0.001053	-0.000083	-0.001461	0.002300	6906.519853	48303.132244	3918.485999	25337.314452
37.536500	-0.001177	-0.000033	0.004205	0.002324	6905.091405	48305.952363	3934.688631	25336.112220
38.036000	-0.000437	0.001092	-0.000905	0.003002	6905.696559	48352.925424	3918.070888	25300.755720
38.537000	-0.001388	-0.000250	0.000198	0.001639	6909.690887	48355.095807	3925.121476	25371.838619
39.037000	-0.000478	0.000292	-0.001377	0.002612	6909.079260	48309.767814	3917.834595	25321.062129
39.535000	-0.002839	-0.000423	-0.004675	0.001866	6893.420486	48313.031692	3910.581366	25359.979393
40.035000	-0.002022	0.000141	-0.000907	0.002001	6900.029756	48358.234128	3920.924725	25352.957522
40.535500	-0.002617	-0.000274	-0.000419	0.001982	6894.444032	48316.555216	3922.370492	25353.913486
41.036000	0.000199	0.000131	0.001136	0.002480	6916.954671	48306.790516	3925.401269	25327.975469
41.536000	-0.000472	0.000398	0.002767	0.002691	6908.379438	48312.678754	3929.481190	25316.977150
42.036000	-0.001645	-0.000648	0.000537	0.001921	6904.461892	48283.682165	3925.287297	25357.127180
42.536500	-0.001988	0.000427	0.003022	0.002798	6892.637362	48304.536087	3929.906302	25311.393162
43.037000	-0.003514	-0.000253	0.000036	0.002237	6883.302969	48292.009788	3922.946017	25340.626535
43.537000	0.001101	0.000027	0.006759	-0.002367	6973.288903	48807.582865	3955.798858	25582.028092
44.037000	-0.001008	0.000121	-0.001547	-0.000229	6931.597310	48591.055375	3925.475202	25469.621930
44.534500	-0.002801	0.000632	-0.000087	0.002424	6888.394312	48365.405909	3922.059904	25330.898284
45.035000	-0.001861	-0.000176	0.001772	0.002379	6897.929254	48285.231010	3927.517753	25333.235911
45.538500	0.000950	0.000275	0.002206	-0.000174	6950.226174	48601.482354	3936.128856	25466.712863
46.036000	-0.000437	-0.000052	0.002196	-0.000163	6936.530447	48565.775103	3936.066490	25466.133778
46.535500	0.000737	0.000738	0.000458	0.002329	6923.660929	48386.462511	3923.890726	25335.825252
47.036500	-0.002553	0.000120	0.000769	0.003617	6879.261802	48186.477731	3921.094143	25268.782813
47.536500	-0.000977	0.000395	0.002224	0.002018	6910.002061	48383.021495	3929.855435	25352.036783
48.037000	0.000011	-0.000085	0.003488	-0.000414	6943.380732	48588.814221	3940.541313	25479.313788
48.537500	-0.000074	0.000326	-0.001214	0.000374	6934.828771	48548.979267	3924.700135	25437.990701
49.035000	-0.003015	0.000685	-0.005480	0.004919	6862.266580	48109.201083	3899.694363	25201.155423
49.535000	0.002614	0.001179	0.001550	0.000111	6963.793784	48667.060181	3933.411903	25451.810194
50.035500	0.001602	0.001768	0.003272	0.001775	6937.527411	48553.451138	3933.579376	25364.761819
50.535500	0.008248	-0.010174	0.027383	0.288751	4916.827902	25738.467705	3364.159339	14399.300696
51.036000	-0.028354	-0.010042	-0.043982	0.152030	5494.508460	34272.336702	3475.340978	18732.483026
51.536000	-0.064210	-0.042036	-0.085295	-0.137662	7722.467186	59848.376366	4089.412827	33950.023487
52.036000	-0.029658	-0.183403	-0.049359	-0.320227	10987.393309	65535.000000	5011.276931	50285.244592
52.536500	-0.032862	-0.153920	-0.043554	-0.290743	10385.705382	65535.000000	4887.548830	47161.182666
53.037000	-0.041858	-0.202294	-0.052924	-0.339118	11116.246550	65535.000000	5095.025483	52401.305166
53.537000	-0.100435	-0.304106	-0.120249	-0.440930	11998.407335	65535.000000	5294.661901	65535.000000
54.034500	0.008534	-0.178733	-0.012221	-0.315556	11653.302589	65535.000000	5192.274090	49776.139594
54.535000	0.020584	-0.116692	-0.000134	-0.253515	10678.582232	65535.000000	4919.255974	43507.761492
55.038000	0.026814	-0.033393	0.005775	-0.149689	9070.516817	62634.239629	4467.167333	34827.915717
55.535500	0.041579	-0.005390	0.025394	-0.086763	8400.643448	58003.356666	4297.508436	30492.732097
56.035500	0.074782	0.017140	0.054453	-0.044648	8284.622817	55564.812274	4249.590001	27923.019502
56.536500	0.111207	0.048848	0.093574	0.046413	7623.116127	48811.905521	4072.613944	23149.749674
57.036500	0.149627	0.073735	0.128692	0.111948	7324.457895	44691.834035	3978.384684	20283.739979
57.536500	0.180445	0.095440	0.159055	0.154040	7205.672663	42766.265129	3943.777570	18658.414654
58.037500	0.195924	0.110682	0.177703	0.204859	6852.666764	39614.869986	3853.511265	16894.827751
58.537000	0.211069	0.121368	0.195743	0.243102	6636.993486	37345.365914	3800.151058	15697.318983
59.035000	0.222645	0.130774	0.207109	0.276873	6440.281195	35455.155642	3743.806138	14724.042430
59.535500	0.225148	0.136239	0.211929	0.298863	6275.670563	34232.243402	3702.553235	14129.782815
60.035500	0.230823	0.141458	0.217431	0.313943	6198.824461	33524.391119	3680.237890	13739.317616
60.536000	0.235653	0.146785	0.222173	0.321726	6175.035972	33350.479481	3673.253110	13543.008370
61.036500	0.236322	0.145574	0.219058	0.303883	6326.853618	34547.072190	3707.530924	13998.280358
61.536500	0.234113	0.150403	0.219753	0.315610	6211.963107	34045.241974	3681.747675	13696.968634
62.036500	0.238266	0.155809	0.221182	0.296033	6409.835805	35901.293821	3731.412413	14204.579077
62.537000	0.236609	0.156687	0.220178	0.293053	6421.189028	36197.575832	3736.210080	14283.878831
63.038000	0.242866	0.159264	0.221789	0.292334	6481.625298	36452.712320	3741.894308	14303.093043
63.534500	0.240246	0.158626	0.221132	0.292547	6456.962081	36386.614836	3739.767684	14297.380400
64.035000	0.241755	0.159565	0.221292	0.294604	6452.209136	36300.053283	3735.147853	14242.536077
64.538500	0.242524	0.158450	0.221792	0.296005	6446.734531	36105.975620	3732.959466	14205.323334
65.036000	0.245758	0.160449	0.222006	0.298737	6451.082426	36049.600538	3726.870198	14133.090177
65.536000	0.245005	0.159295	0.224759	0.300717	6427.484356	35809.789794	3728.735672	14081.036225
66.036500	0.245423	0.158903	0.221095	0.302184	6418.460100	35668.385837	3716.412352	14042.616766
66.536500	0.244214	0.159233	0.229029	0.305657	6378.465292	35430.622190	3727.118438	13952.168828
67.037000	0.248173	0.159409	0.229234	0.308685	6386.385615	35216.416311	3720.331255	13873.910916
67.537000	0.244600	0.158488	0.223388	0.308639	6356.477246	35150.964388	3706.523024	13875.102501
68.037500	0.246814	0.158513	0.227671	0.310673	6357.997791	35001.265382	3711.855625	13822.837742
68.534500	0.245087	0.159116	0.226249	0.314288	6313.144107	34777.976363	3699.951701	13730.529711
69.037500	0.245139	0.157159	0.227585	0.315446	6303.926565	34548.726432	3700.371390	13701.134138
69.535500	0.246766	0.157416	0.224114	0.318495	6292.105791	34344.582546	3685.158842	13624.076503
70.036000	0.246985	0.157077	0.229655	0.320884	6274.145028	34146.449085	3692.485177	13564.085233
70.535500	0.246170	0.158083	0.229352	0.325268	6231.478606	33902.812892	3681.611979	13454.848276
71.036000	0.245917	0.156868	0.226083	0.327667	6209.912953	33644.246649	3668.619008	13395.533310
71.537000	0.247256	0.156644	0.225777	0.330087	6201.154663	33456.406939	3662.429883	13336.034187
72.036500	0.245761	0.155577	0.230056	0.332202	6172.082087	33231.873747	3667.339578	13284.311242
72.537000	0.248988	0.157168	0.233650	0.336638	6162.399760	33032.516693	3665.425871	13176.622142
73.040500	0.247016	0.155624	0.230335	0.338714	6130.175271	32780.762058	3653.264085	13126.611654
73.535000	0.251397	0.157609	0.239998	0.342442	6135.350609	32660.263750	3666.660994	13037.378282
74.035500	0.247055	0.156999	0.233055	0.343831	6090.165295	32522.658489	3647.903304	13004.337542
74.536000	0.247608	0.156085	0.237264	0.345770	6079.330663	32327.409162	3652.980540	12958.391488
75.035500	0.248792	0.155429	0.231489	0.348553	6066.865257	32093.766791	3633.985679	12892.781938
75.536000	0.248377	0.154139	0.231147	0.348527	6063.840175	32008.312411	3633.290397	12893.383309
76.036500	0.250136	0.154952	0.233640	0.351569	6053.885409	31858.280681	3632.085124	12822.154669
76.537000	0.248050	0.154670	0.236048	0.353588	6022.224967	31704.195425	3632.939976	12775.150620
77.037500	0.249344	0.153654	0.237693	0.356029	6013.435105	31474.231267	3631.192848	12718.612247
77.537500	0.249154	0.152853	0.236952	0.356479	6008.546435	31391.515652	3628.588748	12708.243787
78.035000	0.247504	0.151987	0.232250	0.358824	5978.143537	31180.090269	3613.313094	12654.268069
78.537500	0.248448	0.150701	0.236765	0.359920	5976.991431	31024.322225	3620.691260	12629.147194
79.035500	0.250388	0.151272	0.235010	0.363083	5967.743404	30855.804345	3610.093965	12557.009248
79.536000	0.249535	0.149867	0.233993	0.363275	5959.866610	30752.496981	3607.509024	12552.658113
80.035500	0.248869	0.150133	0.239449	0.366571	5930.153552	30557.378904	3612.135690	12478.065347
80.536500	0.250375	0.149378	0.231954	0.367258	5936.276050	30465.069959	3594.729281	12462.590489
81.036500	0.250020	0.148555	0.238207	0.368625	5923.421848	30325.431407	3605.084344	12431.872483
81.537000	0.249473	0.147809	0.232898	0.369549	5912.486078	30219.392034	3591.896996	12411.170330
82.037000	0.248733	0.147188	0.233412	0.372237	5887.143149	30010.529267	3587.339306	12351.172232
82.534500	0.250729	0.148197	0.235853	0.374314	5886.541404	29943.446961	3588.099948	12305.066483
83.035000	0.248454	0.146477	0.234674	0.374795	5866.310125	29805.722735	3584.634007	12294.418600
83.535500	0.247028	0.145722	0.239026	0.376249	5845.317214	29668.198719	3590.695406	12262.328257
84.036000	0.248591	0.144616	0.234111	0.378051	5843.579667	29488.203633	3576.712402	12222.674680
84.535500	0.249516	0.143898	0.236845	0.378275	5848.673234	29430.218365	3581.912407	12217.765492
85.036000	0.248908	0.143845	0.237039	0.380140	5830.731494	29312.408376	3578.446242	12176.932092
85.539000	0.250718	0.142645	0.236119	0.380737	5839.514340	29202.497595	3575.310961	12163.877851
86.037000	0.248190	0.141624	0.237023	0.382946	5805.337921	29006.140636	3572.624821	12115.815867
86.537000	0.251852	0.142115	0.243623	0.383468	5827.949452	29004.260789	3585.209756	12104.481064
87.037000	0.252995	0.142372	0.240554	0.385658	5820.391639	28887.452979	3574.309068	12057.121101
87.535000	0.251334	0.140794	0.245681	0.385312	5810.929969	28813.295446	3585.657022	12064.599267
88.038000	0.250299	0.140970	0.237423	0.389374	5774.494102	28580.594519	3560.314342	11977.292709
88.535500	0.252183	0.139865	0.240316	0.387081	5804.317686	28651.503427	3570.894441	12026.471589
89.035000	0.252738	0.140224	0.243767	0.388866	5795.506775	28566.464004	3574.319585	11988.170827
89.536000	0.255642	0.139598	0.246494	0.388845	5816.506603	28530.484912	3579.999303	11988.622127
90.036500	0.253030	0.140137	0.245945	0.393053	5767.768179	28313.161512	3570.191052	11898.939776
90.536500	0.255132	0.139147	0.241448	0.390844	5798.482696	28385.116345	3565.510439	11945.902102
91.037000	0.252517	0.139440	0.241450	0.392402	5768.749480	28310.459112	3562.341952	11912.762485
91.534000	0.255814	0.138774	0.245513	0.392302	5792.940154	28277.128697	3570.846140	11914.891773
92.034500	0.252100	0.140387	0.245702	0.397169	5732.199627	28086.150684	3561.294976	11812.048149
92.537500	0.255481	0.138470	0.251074	0.393949	5778.813586	28162.475908	3578.915972	11879.966960
93.052000	0.258367	0.139000	0.245944	0.395739	5786.625458	28088.705664	3564.698035	11842.156121
93.536000	0.258673	0.139404	0.252655	0.396111	5786.147233	28090.567769	3577.712419	11834.309769
94.036000	0.255646	0.139328	0.252533	0.401199	5728.807094	27790.399828	3567.001220	11727.776640
94.536000	0.257187	0.137458	0.248040	0.396345	5773.912466	27963.428672	3567.740001	11829.395288
95.036500	0.257611	0.138541	0.248589	0.397783	5766.718595	27942.768092	3565.923294	11799.173491
95.537000	0.256900	0.137674	0.245600	0.397800	5761.554868	27891.429930	3559.810133	11798.808733
