sample name	sample
index	627
start time	 03-19-2021  02:51:09 PM


Wavelength (nm)	Absorbance
494.344910	-0.277943
494.563924	-0.277943
494.782919	-0.277943
495.001897	-0.450642
495.220856	-0.213394
495.439797	-0.132897
495.658719	-0.127057
495.877624	-0.077374
496.096510	0.174575
496.315378	0.142958
496.534227	0.161295
496.753059	0.072098
496.971872	0.023341
497.190667	0.051876
497.409444	0.055382
497.628203	0.058243
497.846943	0.060206
498.065665	0.061855
498.284369	0.062267
498.503055	0.062900
498.721723	0.063923
498.940372	0.064915
499.159003	0.065545
499.377616	0.066172
499.596210	0.065759
499.814787	0.065312
500.033345	0.063287
500.251885	0.064482
500.470406	0.064226
500.688910	0.063279
500.907395	0.063571
501.125862	0.063675
501.344311	0.062365
501.562742	0.061877
501.781154	0.063290
501.999548	0.064420
502.217924	0.064199
502.436282	0.064615
502.654621	0.065592
502.872942	0.064401
503.091245	0.064545
503.309530	0.066485
503.527797	0.068224
503.746045	0.067314
503.964275	0.067928
504.182487	0.068491
504.400681	0.068764
504.618856	0.068758
504.837013	0.069126
505.055152	0.068626
505.273273	0.068158
505.491376	0.067897
505.709460	0.068439
505.927526	0.067988
506.145574	0.067646
506.363604	0.067995
506.581615	0.068623
506.799608	0.068645
507.017583	0.069780
507.235540	0.070148
507.453478	0.070420
507.671399	0.070076
507.889301	0.071054
508.107185	0.071615
508.325050	0.072033
508.542898	0.071197
508.760727	0.071855
508.978538	0.071576
509.196330	0.071678
509.414105	0.072110
509.631861	0.072682
509.849599	0.072365
510.067319	0.071839
510.285021	0.071879
510.502704	0.072786
510.720369	0.073236
510.938016	0.073552
511.155645	0.073273
511.373255	0.073613
511.590848	0.073460
511.808422	0.074253
512.025977	0.074945
512.243515	0.074980
512.461034	0.075659
512.678536	0.075554
512.896018	0.075760
513.113483	0.076626
513.330930	0.076239
513.548358	0.076537
513.765768	0.075863
513.983160	0.075252
514.200533	0.075155
514.417889	0.073839
514.635226	0.073711
514.852545	0.073700
515.069845	0.073989
515.287128	0.074711
515.504392	0.074451
515.721638	0.074682
515.938866	0.074610
516.156075	0.074332
516.373267	0.074896
516.590440	0.075556
516.807594	0.075924
517.024731	0.076347
517.241850	0.076281
517.458950	0.076485
517.676032	0.076618
517.893095	0.077338
518.110141	0.078129
518.327168	0.078489
518.544177	0.078732
518.761168	0.078964
518.978141	0.078067
519.195095	0.078669
519.412031	0.079642
519.628949	0.080368
519.845849	0.080058
520.062731	0.080120
520.279594	0.080215
520.496439	0.080158
520.713266	0.080167
520.930074	0.081151
521.146865	0.080759
521.363637	0.080916
521.580391	0.081232
521.797127	0.081826
522.013844	0.082502
522.230543	0.083334
522.447224	0.084295
522.663887	0.085007
522.880532	0.085090
523.097158	0.085339
523.313766	0.085120
523.530356	0.084808
523.746928	0.085002
523.963481	0.084643
524.180017	0.084201
524.396534	0.083892
524.613032	0.083519
524.829513	0.083705
525.045975	0.084008
525.262420	0.083638
525.478845	0.084375
525.695253	0.084521
525.911643	0.084844
526.128014	0.085303
526.344367	0.085639
526.560702	0.085784
526.777018	0.085752
526.993316	0.085732
527.209597	0.086367
527.425858	0.085985
527.642102	0.086666
527.858328	0.087038
528.074535	0.087410
528.290724	0.087792
528.506894	0.088264
528.723047	0.088501
528.939181	0.089255
529.155297	0.089631
529.371395	0.090555
529.587475	0.090310
529.803536	0.090206
530.019579	0.089957
530.235604	0.089725
530.451611	0.089502
530.667600	0.089825
530.883570	0.089845
531.099522	0.090407
531.315456	0.090240
531.531372	0.091187
531.747269	0.091839
531.963148	0.092051
532.179009	0.093075
532.394852	0.093658
532.610676	0.094113
532.826482	0.094360
533.042271	0.094072
533.258040	0.094006
533.473792	0.094025
533.689525	0.094223
533.905240	0.094815
534.120937	0.095023
534.336616	0.095590
534.552277	0.095970
534.767919	0.096485
534.983543	0.097269
535.199149	0.097740
535.414736	0.098041
535.630306	0.098009
535.845857	0.098279
536.061390	0.098281
536.276904	0.098324
536.492401	0.098024
536.707879	0.097886
536.923339	0.097650
537.138781	0.097953
537.354204	0.097924
537.569610	0.098424
537.784997	0.098035
538.000366	0.098209
538.215716	0.098547
538.431049	0.099254
538.646363	0.099333
538.861659	0.099473
539.076937	0.099721
539.292196	0.100305
539.507438	0.100608
539.722661	0.101588
539.937866	0.101891
540.153052	0.101843
540.368221	0.101718
540.583371	0.102478
540.798503	0.103391
541.013617	0.102944
541.228712	0.102789
541.443789	0.103003
541.658848	0.103086
541.873889	0.103095
542.088912	0.103546
542.303916	0.103869
542.518902	0.103763
542.733870	0.103617
542.948820	0.104627
543.163752	0.104822
543.378665	0.104697
543.593560	0.105142
543.808437	0.105438
544.023295	0.105638
544.238136	0.105889
544.452958	0.106181
544.667762	0.106887
544.882548	0.107360
545.097315	0.107817
545.312064	0.108586
545.526795	0.108419
545.741508	0.108755
545.956203	0.109229
546.170879	0.109885
546.385537	0.110031
546.600177	0.110305
546.814799	0.110327
547.029402	0.110808
547.243988	0.111047
547.458555	0.111992
547.673103	0.112167
547.887634	0.112422
548.102146	0.113038
548.316640	0.113467
548.531116	0.113424
548.745574	0.113609
548.960013	0.113747
549.174435	0.114089
549.388838	0.114240
549.603222	0.114552
549.817589	0.114952
550.031937	0.114893
550.246267	0.115378
550.460579	0.115793
550.674873	0.116433
550.889148	0.116514
551.103405	0.116776
551.317644	0.116871
551.531865	0.117772
551.746068	0.118240
551.960252	0.118372
552.174418	0.118493
552.388566	0.118715
552.602696	0.119099
552.816807	0.119643
553.030900	0.119819
553.244975	0.120298
553.459032	0.120060
553.673070	0.119991
553.887091	0.120283
554.101093	0.120512
554.315077	0.120688
554.529042	0.120783
554.742990	0.121135
554.956919	0.121606
555.170830	0.121950
555.384722	0.122482
555.598597	0.122718
555.812453	0.122945
556.026291	0.123567
556.240111	0.124285
556.453913	0.124420
556.667696	0.124541
556.881461	0.124431
557.095208	0.124676
557.308937	0.124828
557.522647	0.125244
557.736339	0.125461
557.950013	0.125683
558.163669	0.125915
558.377307	0.126395
558.590926	0.126913
558.804527	0.127377
559.018110	0.127787
559.231675	0.128200
559.445221	0.128590
559.658749	0.129184
559.872259	0.129487
560.085751	0.129779
560.299225	0.130682
560.512680	0.130651
560.726117	0.131038
560.939536	0.131493
561.152937	0.131883
561.366319	0.131892
561.579683	0.132140
561.793029	0.132486
562.006357	0.132725
562.219667	0.131807
562.432958	0.132172
562.646231	0.132506
562.859486	0.132430
563.072723	0.132418
563.285941	0.132544
563.499141	0.132341
563.712323	0.132349
563.925487	0.132237
564.138632	0.133109
564.351760	0.133415
564.564869	0.133468
564.777960	0.133381
564.991032	0.133539
565.204087	0.133993
565.417123	0.134559
565.630141	0.134805
565.843140	0.135375
566.056122	0.135584
566.269085	0.135879
566.482030	0.135951
566.694957	0.136445
566.907866	0.136850
567.120756	0.137273
567.333628	0.137535
567.546482	0.137547
567.759318	0.137684
567.972135	0.137637
568.184935	0.137758
568.397716	0.138024
568.610478	0.138278
568.823223	0.138306
569.035949	0.138464
569.248657	0.138733
569.461347	0.139116
569.674019	0.139438
569.886672	0.139816
570.099308	0.139926
570.311925	0.140289
570.524523	0.140532
570.737104	0.140602
570.949666	0.141035
571.162210	0.141208
571.374736	0.141438
571.587244	0.141598
571.799733	0.141578
572.012205	0.141821
572.224658	0.141766
572.437092	0.141749
572.649509	0.141897
572.861907	0.142157
573.074287	0.142150
573.286649	0.141995
573.498993	0.142012
573.711318	0.142482
573.923625	0.142304
574.135914	0.142526
574.348185	0.142784
574.560438	0.143180
574.772672	0.142427
574.984888	0.142572
575.197086	0.142937
575.409266	0.142911
575.621427	0.142664
575.833570	0.143585
576.045695	0.143780
576.257802	0.143880
576.469890	0.143947
576.681961	0.144765
576.894013	0.145129
577.106046	0.145415
577.318062	0.145801
577.530059	0.146219
577.742039	0.145974
577.954000	0.146063
578.165942	0.146134
578.377867	0.146487
578.589773	0.146501
578.801661	0.146351
579.013531	0.146240
579.225382	0.146316
579.437216	0.146256
579.649031	0.146261
579.860828	0.146433
580.072606	0.146708
580.284367	0.146646
580.496109	0.146641
580.707833	0.146811
580.919539	0.146880
581.131227	0.146962
581.342896	0.147244
581.554547	0.147525
581.766180	0.147955
581.977795	0.148359
582.189391	0.148273
582.400969	0.148470
582.612529	0.148764
582.824071	0.149055
583.035595	0.148971
583.247100	0.149363
583.458587	0.149081
583.670056	0.148811
583.881506	0.148624
584.092939	0.148999
584.304353	0.149309
584.515749	0.149503
584.727127	0.149520
584.938486	0.150094
585.149828	0.149920
585.361151	0.150275
585.572456	0.150349
585.783742	0.150274
585.995011	0.150304
586.206261	0.150127
586.417493	0.149829
586.628706	0.149974
586.839902	0.149620
587.051079	0.149942
587.262238	0.149897
587.473379	0.150102
587.684502	0.150347
587.895606	0.150308
588.106692	0.150593
588.317760	0.150642
588.528810	0.150889
588.739841	0.151226
588.950855	0.150875
589.161850	0.151340
589.372827	0.151329
589.583785	0.151359
589.794726	0.151388
590.005648	0.151188
590.216552	0.151296
590.427437	0.151207
590.638305	0.151126
590.849154	0.151305
591.059985	0.151417
591.270798	0.151680
591.481592	0.151727
591.692369	0.151873
591.903127	0.152373
592.113867	0.152659
592.324588	0.153021
592.535292	0.152868
592.745977	0.152855
592.956644	0.152566
593.167293	0.152644
593.377923	0.152831
593.588536	0.152958
593.799130	0.152709
594.009706	0.152670
594.220263	0.152677
594.430803	0.152969
594.641324	0.153226
594.851827	0.153653
595.062312	0.153601
595.272778	0.153609
595.483227	0.154142
595.693657	0.154108
595.904069	0.154244
596.114462	0.154327
596.324838	0.154450
596.535195	0.154588
596.745534	0.154597
596.955855	0.154919
597.166157	0.154943
597.376441	0.154352
597.586707	0.154448
597.796955	0.154463
598.007185	0.154462
598.217396	0.154460
598.427589	0.154448
598.637764	0.154553
598.847921	0.154250
599.058060	0.154470
599.268180	0.154951
599.478282	0.155207
599.688366	0.155452
599.898431	0.155525
600.108479	0.155738
600.318508	0.155995
600.528519	0.155982
600.738511	0.156424
600.948486	0.156460
601.158442	0.156268
601.368380	0.156314
601.578300	0.156369
601.788202	0.156476
601.998085	0.156645
602.207950	0.156374
602.417797	0.156401
602.627626	0.156500
602.837436	0.156903
603.047228	0.156978
603.257002	0.157284
603.466758	0.157188
603.676496	0.157352
603.886215	0.157452
604.095916	0.157942
604.305599	0.158377
604.515264	0.158555
604.724910	0.158387
604.934538	0.158563
605.144148	0.158193
605.353740	0.158412
605.563314	0.158396
605.772869	0.158347
605.982406	0.158244
606.191925	0.158218
606.401425	0.158156
606.610908	0.158259
606.820372	0.158570
607.029818	0.158899
607.239246	0.158859
607.448655	0.158992
607.658047	0.159286
607.867420	0.159614
608.076775	0.159555
608.286111	0.159734
608.495430	0.159555
608.704730	0.159674
608.914012	0.160052
609.123275	0.160517
609.332521	0.160486
609.541748	0.160258
609.750957	0.160337
609.960148	0.160792
610.169321	0.161010
610.378475	0.161614
610.587611	0.161547
610.796729	0.161670
611.005829	0.161918
611.214910	0.162330
611.423974	0.162653
611.633019	0.162526
611.842045	0.162499
612.051054	0.162423
612.260044	0.162563
612.469017	0.162648
612.677970	0.162536
612.886906	0.162470
613.095824	0.162408
613.304723	0.162595
613.513604	0.162712
613.722467	0.162597
613.931311	0.162722
614.140138	0.162711
614.348946	0.162769
614.557736	0.162852
614.766507	0.162879
614.975261	0.162898
615.183996	0.162960
615.392713	0.163110
615.601412	0.163128
615.810092	0.163146
616.018754	0.163227
616.227399	0.163245
616.436024	0.163071
616.644632	0.163142
616.853222	0.163147
617.061793	0.163301
617.270346	0.163426
617.478880	0.163596
617.687397	0.163645
617.895895	0.163436
618.104375	0.163629
618.312837	0.164024
618.521281	0.164134
618.729706	0.164649
618.938113	0.164633
619.146502	0.164631
619.354873	0.164552
619.563226	0.164734
619.771560	0.164615
619.979876	0.164674
620.188174	0.164653
620.396453	0.164769
620.604715	0.164892
620.812958	0.164807
621.021183	0.164793
621.229390	0.165180
621.437578	0.165523
621.645748	0.166010
621.853900	0.166138
622.062034	0.166354
622.270150	0.166391
622.478247	0.166260
622.686326	0.166520
622.894387	0.166648
623.102430	0.166681
623.310454	0.166469
623.518461	0.166709
623.726449	0.167019
623.934418	0.167097
624.142370	0.167197
624.350303	0.167066
624.558218	0.167091
624.766115	0.167244
624.973994	0.167263
625.181855	0.167422
625.389697	0.167217
625.597521	0.167005
625.805327	0.166926
626.013114	0.166785
626.220883	0.167152
626.428634	0.167434
626.636367	0.167678
626.844082	0.167812
627.051778	0.167913
627.259457	0.168345
627.467117	0.168584
627.674758	0.168951
627.882382	0.169492
628.089987	0.169573
628.297574	0.169410
628.505143	0.169381
628.712694	0.169616
628.920226	0.169700
629.127740	0.169722
629.335236	0.169830
629.542714	0.169954
629.750174	0.169954
629.957615	0.170099
630.165038	0.170342
630.372443	0.170600
630.579829	0.170789
630.787198	0.171084
630.994548	0.171173
631.201880	0.171349
631.409194	0.171219
631.616489	0.171014
631.823766	0.171042
632.031025	0.171250
632.238266	0.171454
632.445489	0.171161
632.652693	0.170958
632.859879	0.170930
633.067047	0.170967
633.274197	0.171000
633.481329	0.171282
633.688442	0.171378
633.895537	0.171260
634.102614	0.171272
634.309672	0.171450
634.516713	0.171639
634.723735	0.171455
634.930739	0.171658
635.137724	0.171915
635.344692	0.171883
635.551641	0.171913
635.758572	0.172142
635.965485	0.171995
636.172379	0.172140
636.379256	0.172465
636.586114	0.172670
636.792954	0.172688
636.999775	0.172828
637.206579	0.173096
637.413364	0.173234
637.620131	0.173314
637.826880	0.173466
638.033610	0.173234
638.240323	0.173120
638.447017	0.173230
638.653692	0.173423
638.860350	0.173425
639.066990	0.173314
639.273611	0.173691
639.480214	0.173873
639.686798	0.174246
639.893365	0.174619
640.099913	0.174673
640.306443	0.174884
640.512955	0.175043
640.719449	0.175085
640.925924	0.175184
641.132381	0.174990
641.338820	0.175154
641.545241	0.175070
641.751644	0.175124
641.958028	0.175285
642.164394	0.175496
642.370742	0.175580
642.577071	0.175703
642.783383	0.176048
642.989676	0.176179
643.195951	0.176317
643.402207	0.176521
643.608446	0.176783
643.814666	0.176751
644.020868	0.176796
644.227052	0.176724
644.433218	0.177063
644.639365	0.177442
644.845494	0.177607
645.051605	0.177669
645.257698	0.177676
645.463772	0.177887
645.669828	0.178097
645.875866	0.178194
646.081886	0.178462
646.287888	0.178687
646.493871	0.178517
646.699836	0.178615
646.905783	0.178740
647.111712	0.179094
647.317622	0.179214
647.523514	0.179541
647.729388	0.179569
647.935244	0.179349
648.141082	0.179251
648.346901	0.179265
648.552702	0.179359
648.758485	0.179183
648.964250	0.179159
649.169996	0.179106
649.375724	0.179142
649.581434	0.179326
649.787126	0.179491
649.992800	0.179521
650.198455	0.179642
650.404092	0.179530
650.609711	0.179759
650.815311	0.179854
651.020894	0.180157
651.226458	0.180301
651.432004	0.180468
651.637532	0.180975
651.843041	0.181055
652.048532	0.181161
652.254006	0.181419
652.459460	0.181668
652.664897	0.181682
652.870315	0.181734
653.075716	0.181671
653.281097	0.181852
653.486461	0.182012
653.691807	0.182240
653.897134	0.182579
654.102443	0.182832
654.307734	0.182950
654.513006	0.183201
654.718261	0.183241
654.923497	0.183444
655.128715	0.183599
655.333915	0.183511
655.539096	0.183754
655.744259	0.183860
655.949404	0.183990
656.154531	0.184438
656.359640	0.184684
656.564730	0.184995
656.769802	0.185224
656.974856	0.185446
657.179892	0.185711
657.384909	0.185754
657.589908	0.185926
657.794889	0.185882
657.999852	0.185672
658.204797	0.185725
658.409723	0.185620
658.614631	0.185709
658.819521	0.185800
659.024393	0.185704
659.229246	0.185765
659.434081	0.185632
659.638898	0.185910
659.843697	0.185948
660.048478	0.185590
660.253240	0.185617
660.457984	0.185500
660.662710	0.185219
660.867417	0.185308
661.072107	0.185363
661.276778	0.185599
661.481431	0.185553
661.686066	0.185684
661.890682	0.186183
662.095281	0.186524
662.299861	0.186647
662.504422	0.186968
662.708966	0.187365
662.913491	0.187366
663.117999	0.187291
663.322488	0.187425
663.526958	0.187601
663.731411	0.187741
663.935845	0.187840
664.140261	0.188144
664.344659	0.188268
664.549038	0.188123
664.753400	0.188364
664.957743	0.188692
665.162068	0.189220
665.366375	0.189124
665.570663	0.189101
665.774933	0.189377
665.979185	0.189622
666.183419	0.189809
666.387635	0.189916
666.591832	0.190062
666.796011	0.190095
667.000172	0.189935
667.204315	0.190232
667.408439	0.190457
667.612545	0.190444
667.816634	0.190446
668.020703	0.190634
668.224755	0.190853
668.428788	0.191061
668.632803	0.191316
668.836800	0.191401
669.040779	0.191230
669.244739	0.190985
669.448681	0.191063
669.652605	0.191203
669.856511	0.191039
670.060399	0.191256
670.264268	0.191231
670.468119	0.191079
670.671952	0.191192
670.875767	0.191584
671.079563	0.192134
671.283341	0.192079
671.487101	0.192038
671.690843	0.192405
671.894567	0.192100
672.098272	0.192068
672.301959	0.192228
672.505628	0.192067
672.709278	0.192158
672.912911	0.192062
673.116525	0.192089
673.320121	0.192178
673.523699	0.192193
673.727258	0.192495
673.930799	0.192604
674.134322	0.192826
674.337827	0.193264
674.541314	0.193514
674.744782	0.193698
674.948232	0.193957
675.151664	0.194233
675.355078	0.194454
675.558474	0.194715
675.761851	0.194840
675.965210	0.195099
676.168551	0.195143
676.371873	0.195369
676.575178	0.195522
676.778464	0.195706
676.981732	0.195886
677.184981	0.196070
677.388213	0.196087
677.591426	0.196526
677.794621	0.196561
677.997798	0.196683
678.200956	0.196479
678.404097	0.196653
678.607219	0.196906
678.810323	0.197017
679.013408	0.197005
679.216476	0.197280
679.419525	0.197203
679.622556	0.197504
679.825569	0.197811
680.028563	0.198017
680.231540	0.198199
680.434498	0.198280
680.637438	0.198200
680.840359	0.198328
681.043263	0.198516
681.246148	0.198797
681.449015	0.198749
681.651864	0.198596
681.854694	0.198597
682.057506	0.198566
682.260301	0.198459
682.463076	0.198585
682.665834	0.198635
682.868573	0.198561
683.071295	0.198603
683.273998	0.198952
683.476682	0.199147
683.679349	0.199036
683.881997	0.199224
684.084627	0.199453
684.287239	0.199493
684.489833	0.199595
684.692408	0.199540
684.894965	0.199462
685.097504	0.199128
685.300025	0.199241
685.502527	0.199365
685.705012	0.199321
685.907478	0.199349
686.109925	0.199645
686.312355	0.199886
686.514766	0.200079
686.717159	0.200445
686.919534	0.200767
687.121891	0.200983
687.324230	0.201357
687.526550	0.201609
687.728852	0.201682
687.931136	0.201734
688.133401	0.201721
688.335649	0.201896
688.537878	0.201933
688.740089	0.201943
688.942281	0.201932
689.144456	0.201878
689.346612	0.201829
689.548750	0.201848
689.750870	0.201899
689.952971	0.201853
690.155055	0.202014
690.357120	0.201971
690.559167	0.201964
690.761195	0.201916
690.963206	0.201954
691.165198	0.201900
691.367172	0.201999
691.569128	0.201827
691.771065	0.202011
691.972984	0.201933
692.174885	0.202063
692.376768	0.202075
692.578633	0.202273
692.780479	0.202495
692.982308	0.202508
693.184118	0.202417
693.385909	0.202530
