sample name	sample
index	1399
start time	 05-10-2021  11:04:59 AM


Wavelength (nm)	Absorbance
494.344910	-0.020635
494.563924	-0.020635
494.782919	-0.020635
495.001897	-0.037970
495.220856	0.029065
495.439797	0.029249
495.658719	0.030995
495.877624	0.023062
496.096510	0.030343
496.315378	0.023592
496.534227	0.024560
496.753059	0.014874
496.971872	0.018040
497.190667	0.109178
497.409444	0.153923
497.628203	0.167959
497.846943	0.177535
498.065665	0.180440
498.284369	0.182084
498.503055	0.183954
498.721723	0.186336
498.940372	0.186899
499.159003	0.187516
499.377616	0.188293
499.596210	0.188808
499.814787	0.187916
500.033345	0.188662
500.251885	0.189696
500.470406	0.189741
500.688910	0.189214
500.907395	0.189397
501.125862	0.190266
501.344311	0.189630
501.562742	0.189707
501.781154	0.189404
501.999548	0.189141
502.217924	0.190125
502.436282	0.190437
502.654621	0.190694
502.872942	0.191499
503.091245	0.191879
503.309530	0.192065
503.527797	0.190847
503.746045	0.191562
503.964275	0.192046
504.182487	0.191260
504.400681	0.189995
504.618856	0.190215
504.837013	0.189090
505.055152	0.188322
505.273273	0.188686
505.491376	0.190988
505.709460	0.191540
505.927526	0.192032
506.145574	0.191588
506.363604	0.193626
506.581615	0.193809
506.799608	0.194681
507.017583	0.195629
507.235540	0.196822
507.453478	0.196434
507.671399	0.196135
507.889301	0.196709
508.107185	0.196885
508.325050	0.197234
508.542898	0.197631
508.760727	0.197204
508.978538	0.197704
509.196330	0.196616
509.414105	0.195592
509.631861	0.196245
509.849599	0.195619
510.067319	0.197061
510.285021	0.197429
510.502704	0.197505
510.720369	0.197931
510.938016	0.198459
511.155645	0.198848
511.373255	0.200314
511.590848	0.200115
511.808422	0.200580
512.025977	0.200815
512.243515	0.200284
512.461034	0.200567
512.678536	0.201072
512.896018	0.199882
513.113483	0.200045
513.330930	0.199930
513.548358	0.201211
513.765768	0.201453
513.983160	0.200781
514.200533	0.201478
514.417889	0.202078
514.635226	0.203363
514.852545	0.204815
515.069845	0.204332
515.287128	0.205791
515.504392	0.205936
515.721638	0.206585
515.938866	0.207391
516.156075	0.208004
516.373267	0.207619
516.590440	0.207408
516.807594	0.207431
517.024731	0.208395
517.241850	0.207099
517.458950	0.207077
517.676032	0.206669
517.893095	0.207230
518.110141	0.207337
518.327168	0.207840
518.544177	0.207864
518.761168	0.208051
518.978141	0.208663
519.195095	0.209368
519.412031	0.208702
519.628949	0.209934
519.845849	0.210251
520.062731	0.210747
520.279594	0.211047
520.496439	0.211307
520.713266	0.211238
520.930074	0.211299
521.146865	0.212339
521.363637	0.214002
521.580391	0.213418
521.797127	0.214036
522.013844	0.213957
522.230543	0.214698
522.447224	0.215287
522.663887	0.216564
522.880532	0.217077
523.097158	0.217273
523.313766	0.217076
523.530356	0.217599
523.746928	0.217457
523.963481	0.217689
524.180017	0.217453
524.396534	0.217300
524.613032	0.217717
524.829513	0.218773
525.045975	0.219158
525.262420	0.219259
525.478845	0.220083
525.695253	0.220799
525.911643	0.220499
526.128014	0.221886
526.344367	0.222330
526.560702	0.223010
526.777018	0.221675
526.993316	0.221578
527.209597	0.221985
527.425858	0.222412
527.642102	0.222496
527.858328	0.223252
528.074535	0.223241
528.290724	0.224224
528.506894	0.223251
528.723047	0.224998
528.939181	0.224754
529.155297	0.225820
529.371395	0.226209
529.587475	0.226344
529.803536	0.227194
530.019579	0.226905
530.235604	0.227436
530.451611	0.228599
530.667600	0.228207
530.883570	0.229287
531.099522	0.228441
531.315456	0.228463
531.531372	0.228375
531.747269	0.227929
531.963148	0.229027
532.179009	0.229853
532.394852	0.230386
532.610676	0.230994
532.826482	0.231489
533.042271	0.232570
533.258040	0.232879
533.473792	0.234172
533.689525	0.234978
533.905240	0.235274
534.120937	0.234494
534.336616	0.234482
534.552277	0.235105
534.767919	0.235575
534.983543	0.235997
535.199149	0.235947
535.414736	0.235791
535.630306	0.236136
535.845857	0.235885
536.061390	0.236803
536.276904	0.237409
536.492401	0.237934
536.707879	0.238138
536.923339	0.238345
537.138781	0.239092
537.354204	0.240026
537.569610	0.240689
537.784997	0.241277
538.000366	0.241824
538.215716	0.241918
538.431049	0.242657
538.646363	0.243335
538.861659	0.244217
539.076937	0.244653
539.292196	0.244645
539.507438	0.245191
539.722661	0.245609
539.937866	0.245313
540.153052	0.245781
540.368221	0.245783
540.583371	0.245745
540.798503	0.246122
541.013617	0.246827
541.228712	0.248250
541.443789	0.249243
541.658848	0.249810
541.873889	0.250428
542.088912	0.251013
542.303916	0.251089
542.518902	0.251699
542.733870	0.252176
542.948820	0.252586
543.163752	0.252360
543.378665	0.251894
543.593560	0.252326
543.808437	0.252991
544.023295	0.252991
544.238136	0.253374
544.452958	0.253548
544.667762	0.253510
544.882548	0.253333
545.097315	0.253210
545.312064	0.252996
545.526795	0.253477
545.741508	0.253211
545.956203	0.253683
546.170879	0.253189
546.385537	0.252888
546.600177	0.252956
546.814799	0.253333
547.029402	0.253703
547.243988	0.254331
547.458555	0.254053
547.673103	0.255007
547.887634	0.255181
548.102146	0.256360
548.316640	0.257480
548.531116	0.257688
548.745574	0.258079
548.960013	0.258101
549.174435	0.258309
549.388838	0.259132
549.603222	0.259038
549.817589	0.259568
550.031937	0.259637
550.246267	0.259361
550.460579	0.259765
550.674873	0.259931
550.889148	0.260548
551.103405	0.261368
551.317644	0.261351
551.531865	0.261566
551.746068	0.261939
551.960252	0.261861
552.174418	0.262282
552.388566	0.262425
552.602696	0.262840
552.816807	0.262812
553.030900	0.262591
553.244975	0.262933
553.459032	0.263091
553.673070	0.262834
553.887091	0.263484
554.101093	0.263774
554.315077	0.264451
554.529042	0.264775
554.742990	0.265155
554.956919	0.265417
555.170830	0.265433
555.384722	0.265712
555.598597	0.265586
555.812453	0.265992
556.026291	0.265914
556.240111	0.265711
556.453913	0.265868
556.667696	0.265629
556.881461	0.265876
557.095208	0.265892
557.308937	0.266103
557.522647	0.266607
557.736339	0.266781
557.950013	0.267102
558.163669	0.267223
558.377307	0.266966
558.590926	0.267921
558.804527	0.268061
559.018110	0.267949
559.231675	0.267883
559.445221	0.267469
559.658749	0.267313
559.872259	0.267363
560.085751	0.267813
560.299225	0.267784
560.512680	0.267661
560.726117	0.267305
560.939536	0.267963
561.152937	0.268344
561.366319	0.268974
561.579683	0.269093
561.793029	0.269397
562.006357	0.269428
562.219667	0.269800
562.432958	0.269742
562.646231	0.270312
562.859486	0.270520
563.072723	0.270665
563.285941	0.271109
563.499141	0.271873
563.712323	0.272016
563.925487	0.271878
564.138632	0.271933
564.351760	0.272635
564.564869	0.272867
564.777960	0.272821
564.991032	0.273047
565.204087	0.273232
565.417123	0.272996
565.630141	0.272997
565.843140	0.273666
566.056122	0.274324
566.269085	0.273852
566.482030	0.273604
566.694957	0.273677
566.907866	0.273638
567.120756	0.273503
567.333628	0.273551
567.546482	0.273702
567.759318	0.273660
567.972135	0.273805
568.184935	0.274534
568.397716	0.274905
568.610478	0.275227
568.823223	0.275604
569.035949	0.275749
569.248657	0.276022
569.461347	0.276534
569.674019	0.276724
569.886672	0.276786
570.099308	0.276820
570.311925	0.277047
570.524523	0.277013
570.737104	0.276842
570.949666	0.277342
571.162210	0.277145
571.374736	0.277502
571.587244	0.277839
571.799733	0.277410
572.012205	0.277273
572.224658	0.278001
572.437092	0.278092
572.649509	0.278669
572.861907	0.278819
573.074287	0.278765
573.286649	0.278497
573.498993	0.278143
573.711318	0.279119
573.923625	0.279006
574.135914	0.279017
574.348185	0.279632
574.560438	0.279982
574.772672	0.280028
574.984888	0.280774
575.197086	0.281150
575.409266	0.281672
575.621427	0.282027
575.833570	0.282190
576.045695	0.281876
576.257802	0.281625
576.469890	0.281294
576.681961	0.281677
576.894013	0.281649
577.106046	0.281609
577.318062	0.281693
577.530059	0.280826
577.742039	0.281083
577.954000	0.281449
578.165942	0.281314
578.377867	0.281676
578.589773	0.281413
578.801661	0.281700
579.013531	0.281723
579.225382	0.281957
579.437216	0.282599
579.649031	0.282890
579.860828	0.282956
580.072606	0.283457
580.284367	0.283603
580.496109	0.284246
580.707833	0.284246
580.919539	0.284766
581.131227	0.284606
581.342896	0.284780
581.554547	0.285251
581.766180	0.285714
581.977795	0.286060
582.189391	0.285907
582.400969	0.285902
582.612529	0.286235
582.824071	0.286606
583.035595	0.287202
583.247100	0.287584
583.458587	0.287673
583.670056	0.287654
583.881506	0.287678
584.092939	0.288323
584.304353	0.288541
584.515749	0.288723
584.727127	0.288667
584.938486	0.288612
585.149828	0.288516
585.361151	0.289016
585.572456	0.288813
585.783742	0.289341
585.995011	0.289345
586.206261	0.289493
586.417493	0.289564
586.628706	0.289549
586.839902	0.290193
587.051079	0.289906
587.262238	0.289363
587.473379	0.289900
587.684502	0.290332
587.895606	0.290654
588.106692	0.290414
588.317760	0.290931
588.528810	0.291466
588.739841	0.291323
588.950855	0.292276
589.161850	0.292830
589.372827	0.293413
589.583785	0.292991
589.794726	0.293116
590.005648	0.293493
590.216552	0.293542
590.427437	0.293653
590.638305	0.293952
590.849154	0.294297
591.059985	0.294424
591.270798	0.294246
591.481592	0.294867
591.692369	0.294964
591.903127	0.295462
592.113867	0.295423
592.324588	0.295568
592.535292	0.295756
592.745977	0.295187
592.956644	0.295326
593.167293	0.295664
593.377923	0.295419
593.588536	0.295491
593.799130	0.295687
594.009706	0.296686
594.220263	0.296676
594.430803	0.296771
594.641324	0.297066
594.851827	0.297395
595.062312	0.297237
595.272778	0.297501
595.483227	0.297997
595.693657	0.297984
595.904069	0.297890
596.114462	0.298255
596.324838	0.298253
596.535195	0.298574
596.745534	0.298791
596.955855	0.299198
597.166157	0.299609
597.376441	0.299750
597.586707	0.299979
597.796955	0.300102
598.007185	0.300255
598.217396	0.300554
598.427589	0.300685
598.637764	0.300517
598.847921	0.300626
599.058060	0.300745
599.268180	0.300729
599.478282	0.301131
599.688366	0.301266
599.898431	0.301687
600.108479	0.301645
600.318508	0.301666
600.528519	0.302248
600.738511	0.302647
600.948486	0.302469
601.158442	0.302858
601.368380	0.303084
601.578300	0.302927
601.788202	0.302765
601.998085	0.303143
602.207950	0.303852
602.417797	0.303812
602.627626	0.303823
602.837436	0.304503
603.047228	0.305070
603.257002	0.305027
603.466758	0.305464
603.676496	0.305803
603.886215	0.306195
604.095916	0.306422
604.305599	0.306668
604.515264	0.307298
604.724910	0.307242
604.934538	0.306799
605.144148	0.307076
605.353740	0.307058
605.563314	0.307315
605.772869	0.307848
605.982406	0.307872
606.191925	0.308271
606.401425	0.308209
606.610908	0.308530
606.820372	0.308830
607.029818	0.308908
607.239246	0.309162
607.448655	0.308955
607.658047	0.308732
607.867420	0.308810
608.076775	0.308867
608.286111	0.308910
608.495430	0.308947
608.704730	0.309242
608.914012	0.309274
609.123275	0.309889
609.332521	0.310689
609.541748	0.310866
609.750957	0.311280
609.960148	0.311649
610.169321	0.311923
610.378475	0.312398
610.587611	0.312821
610.796729	0.313125
611.005829	0.312529
611.214910	0.312261
611.423974	0.312391
611.633019	0.312371
611.842045	0.312298
612.051054	0.312431
612.260044	0.312810
612.469017	0.312885
612.677970	0.313257
612.886906	0.313979
613.095824	0.314372
613.304723	0.314518
613.513604	0.315053
613.722467	0.315298
613.931311	0.315388
614.140138	0.315188
614.348946	0.315011
614.557736	0.314821
614.766507	0.314474
614.975261	0.314525
615.183996	0.314766
615.392713	0.314480
615.601412	0.314794
615.810092	0.315033
616.018754	0.315230
616.227399	0.315630
616.436024	0.316000
616.644632	0.316121
616.853222	0.316117
617.061793	0.316062
617.270346	0.316453
617.478880	0.316258
617.687397	0.316412
617.895895	0.316893
618.104375	0.317084
618.312837	0.317163
618.521281	0.317491
618.729706	0.317823
618.938113	0.318157
619.146502	0.317909
619.354873	0.318057
619.563226	0.318433
619.771560	0.318346
619.979876	0.318229
620.188174	0.318558
620.396453	0.318855
620.604715	0.318967
620.812958	0.319224
621.021183	0.320000
621.229390	0.320445
621.437578	0.320715
621.645748	0.320539
621.853900	0.321008
622.062034	0.321244
622.270150	0.321410
622.478247	0.321753
622.686326	0.321811
622.894387	0.322057
623.102430	0.322110
623.310454	0.322195
623.518461	0.322428
623.726449	0.322520
623.934418	0.322490
624.142370	0.323016
624.350303	0.323115
624.558218	0.323205
624.766115	0.323002
624.973994	0.323506
625.181855	0.323463
625.389697	0.323574
625.597521	0.323769
625.805327	0.323899
626.013114	0.324176
626.220883	0.324267
626.428634	0.324774
626.636367	0.324939
626.844082	0.325227
627.051778	0.325489
627.259457	0.325904
627.467117	0.326158
627.674758	0.326659
627.882382	0.326628
628.089987	0.326951
628.297574	0.327089
628.505143	0.327509
628.712694	0.327659
628.920226	0.327762
629.127740	0.328174
629.335236	0.328509
629.542714	0.328884
629.750174	0.329054
629.957615	0.329182
630.165038	0.329385
630.372443	0.329466
630.579829	0.329159
630.787198	0.329504
630.994548	0.329505
631.201880	0.329588
631.409194	0.329280
631.616489	0.329528
631.823766	0.329510
632.031025	0.329779
632.238266	0.329922
632.445489	0.329862
632.652693	0.330036
632.859879	0.330116
633.067047	0.330402
633.274197	0.330771
633.481329	0.330573
633.688442	0.331035
633.895537	0.330896
634.102614	0.330886
634.309672	0.331392
634.516713	0.331475
634.723735	0.331896
634.930739	0.331758
635.137724	0.331869
635.344692	0.332106
635.551641	0.332385
635.758572	0.332712
635.965485	0.333140
636.172379	0.333378
636.379256	0.333594
636.586114	0.333452
636.792954	0.333733
636.999775	0.334005
637.206579	0.334266
637.413364	0.334450
637.620131	0.334442
637.826880	0.334526
638.033610	0.334711
638.240323	0.334708
638.447017	0.334893
638.653692	0.335199
638.860350	0.335304
639.066990	0.335585
639.273611	0.335707
639.480214	0.336011
639.686798	0.336314
639.893365	0.336492
640.099913	0.336993
640.306443	0.337223
640.512955	0.337371
640.719449	0.337646
640.925924	0.337664
641.132381	0.337888
641.338820	0.337873
641.545241	0.338257
641.751644	0.338724
641.958028	0.338765
642.164394	0.339085
642.370742	0.339119
642.577071	0.339205
642.783383	0.339531
642.989676	0.339530
643.195951	0.339948
643.402207	0.339690
643.608446	0.339617
643.814666	0.339671
644.020868	0.339783
644.227052	0.340205
644.433218	0.340582
644.639365	0.340570
644.845494	0.340722
645.051605	0.340986
645.257698	0.341500
645.463772	0.341540
645.669828	0.341826
645.875866	0.342117
646.081886	0.341961
646.287888	0.342044
646.493871	0.342547
646.699836	0.342830
646.905783	0.343175
647.111712	0.343157
647.317622	0.343584
647.523514	0.343762
647.729388	0.344012
647.935244	0.344412
648.141082	0.344737
648.346901	0.344877
648.552702	0.345126
648.758485	0.345040
648.964250	0.345415
649.169996	0.345294
649.375724	0.345451
649.581434	0.345884
649.787126	0.346073
649.992800	0.346264
650.198455	0.346256
650.404092	0.346316
650.609711	0.346965
650.815311	0.346769
651.020894	0.347100
651.226458	0.347344
651.432004	0.347182
651.637532	0.347165
651.843041	0.347050
652.048532	0.347319
652.254006	0.347772
652.459460	0.347963
652.664897	0.348677
652.870315	0.349079
653.075716	0.349375
653.281097	0.349651
653.486461	0.350364
653.691807	0.350770
653.897134	0.351106
654.102443	0.351222
654.307734	0.350959
654.513006	0.350888
654.718261	0.351340
654.923497	0.351857
655.128715	0.352095
655.333915	0.352108
655.539096	0.352211
655.744259	0.352667
655.949404	0.352822
656.154531	0.353107
656.359640	0.353350
656.564730	0.353194
656.769802	0.352744
656.974856	0.352688
657.179892	0.353031
657.384909	0.352942
657.589908	0.352798
657.794889	0.352955
657.999852	0.353310
658.204797	0.353687
658.409723	0.353787
658.614631	0.354108
658.819521	0.354677
659.024393	0.354755
659.229246	0.355249
659.434081	0.355636
659.638898	0.355822
659.843697	0.355709
660.048478	0.355765
660.253240	0.355899
660.457984	0.356096
660.662710	0.356179
660.867417	0.356007
661.072107	0.356078
661.276778	0.356021
661.481431	0.356453
661.686066	0.357029
661.890682	0.357087
662.095281	0.357250
662.299861	0.357573
662.504422	0.357786
662.708966	0.358334
662.913491	0.358991
663.117999	0.359199
663.322488	0.359098
663.526958	0.359399
663.731411	0.359779
663.935845	0.359989
664.140261	0.360393
664.344659	0.360576
664.549038	0.360863
664.753400	0.360772
664.957743	0.361305
665.162068	0.361843
665.366375	0.361972
665.570663	0.362318
665.774933	0.362836
665.979185	0.363022
666.183419	0.363363
666.387635	0.363372
666.591832	0.363695
666.796011	0.363953
667.000172	0.363759
667.204315	0.363860
667.408439	0.364011
667.612545	0.364420
667.816634	0.364604
668.020703	0.365002
668.224755	0.365638
668.428788	0.365905
668.632803	0.366086
668.836800	0.366610
669.040779	0.366812
669.244739	0.367144
669.448681	0.367244
669.652605	0.367158
669.856511	0.367086
670.060399	0.366889
670.264268	0.366845
670.468119	0.366883
670.671952	0.366964
670.875767	0.367462
671.079563	0.367537
671.283341	0.367792
671.487101	0.368641
671.690843	0.368896
671.894567	0.369207
672.098272	0.369682
672.301959	0.369983
672.505628	0.370229
672.709278	0.370314
672.912911	0.370757
673.116525	0.370918
673.320121	0.370878
673.523699	0.371318
673.727258	0.371871
673.930799	0.372092
674.134322	0.372257
674.337827	0.372622
674.541314	0.372902
674.744782	0.372805
674.948232	0.372858
675.151664	0.373043
675.355078	0.373293
675.558474	0.373200
675.761851	0.373468
675.965210	0.373748
676.168551	0.373951
676.371873	0.374027
676.575178	0.374271
676.778464	0.374776
676.981732	0.375131
677.184981	0.375240
677.388213	0.375534
677.591426	0.375977
677.794621	0.376355
677.997798	0.376775
678.200956	0.377275
678.404097	0.377624
678.607219	0.377931
678.810323	0.378067
679.013408	0.378136
679.216476	0.378441
679.419525	0.378417
679.622556	0.378586
679.825569	0.378914
680.028563	0.379236
680.231540	0.379635
680.434498	0.380063
680.637438	0.380427
680.840359	0.380937
681.043263	0.381330
681.246148	0.381482
681.449015	0.381673
681.651864	0.381661
681.854694	0.381472
682.057506	0.381876
682.260301	0.381856
682.463076	0.382047
682.665834	0.382364
682.868573	0.382668
683.071295	0.383190
683.273998	0.383775
683.476682	0.383975
683.679349	0.384376
683.881997	0.384217
684.084627	0.384346
684.287239	0.384383
684.489833	0.384388
684.692408	0.384331
684.894965	0.384504
685.097504	0.384361
685.300025	0.384814
685.502527	0.385041
685.705012	0.385438
685.907478	0.385585
686.109925	0.385892
686.312355	0.386057
686.514766	0.386393
686.717159	0.386290
686.919534	0.386615
687.121891	0.386483
687.324230	0.386597
687.526550	0.386647
687.728852	0.386725
687.931136	0.386904
688.133401	0.387178
688.335649	0.387112
688.537878	0.387197
688.740089	0.387226
688.942281	0.387732
689.144456	0.387749
689.346612	0.387827
689.548750	0.388304
689.750870	0.388422
689.952971	0.388707
690.155055	0.389204
690.357120	0.389606
690.559167	0.389988
690.761195	0.390075
690.963206	0.390502
691.165198	0.391007
691.367172	0.391117
691.569128	0.391475
691.771065	0.391641
691.972984	0.391677
692.174885	0.391809
692.376768	0.391995
692.578633	0.392040
692.780479	0.392105
692.982308	0.392196
693.184118	0.392353
693.385909	0.392558
