sample name	sample
index	781
start time	 03-31-2021  01:49:14 PM


Wavelength (nm)	Absorbance
494.344910	-0.402706
494.563924	-0.402706
494.782919	-0.402706
495.001897	0.009597
495.220856	0.106176
495.439797	0.309191
495.658719	0.293124
495.877624	0.412273
496.096510	0.333304
496.315378	0.111761
496.534227	0.046422
496.753059	0.009440
496.971872	0.020128
497.190667	0.063086
497.409444	0.058787
497.628203	0.059162
497.846943	0.060101
498.065665	0.061022
498.284369	0.060640
498.503055	0.061600
498.721723	0.062490
498.940372	0.062020
499.159003	0.062113
499.377616	0.062302
499.596210	0.063141
499.814787	0.062717
500.033345	0.063209
500.251885	0.065615
500.470406	0.066154
500.688910	0.066510
500.907395	0.067636
501.125862	0.066130
501.344311	0.065688
501.562742	0.065745
501.781154	0.066974
501.999548	0.066682
502.217924	0.065236
502.436282	0.064498
502.654621	0.063469
502.872942	0.062637
503.091245	0.064022
503.309530	0.063710
503.527797	0.063006
503.746045	0.063082
503.964275	0.062475
504.182487	0.062243
504.400681	0.061960
504.618856	0.061138
504.837013	0.061296
505.055152	0.060705
505.273273	0.062012
505.491376	0.062211
505.709460	0.061138
505.927526	0.061438
506.145574	0.061307
506.363604	0.061405
506.581615	0.062744
506.799608	0.063758
507.017583	0.063832
507.235540	0.063444
507.453478	0.063958
507.671399	0.064819
507.889301	0.065534
508.107185	0.065654
508.325050	0.065545
508.542898	0.065122
508.760727	0.064460
508.978538	0.064311
509.196330	0.064513
509.414105	0.064957
509.631861	0.063845
509.849599	0.062542
510.067319	0.062636
510.285021	0.063553
510.502704	0.063328
510.720369	0.063030
510.938016	0.062956
511.155645	0.062855
511.373255	0.062604
511.590848	0.062553
511.808422	0.063655
512.025977	0.063151
512.243515	0.062794
512.461034	0.063503
512.678536	0.063527
512.896018	0.063655
513.113483	0.064534
513.330930	0.064191
513.548358	0.064808
513.765768	0.065283
513.983160	0.066136
514.200533	0.066082
514.417889	0.066229
514.635226	0.066301
514.852545	0.067176
515.069845	0.066234
515.287128	0.066622
515.504392	0.066802
515.721638	0.066810
515.938866	0.067141
516.156075	0.066785
516.373267	0.066654
516.590440	0.067089
516.807594	0.066351
517.024731	0.066729
517.241850	0.066162
517.458950	0.066423
517.676032	0.066049
517.893095	0.065984
518.110141	0.066141
518.327168	0.065879
518.544177	0.066190
518.761168	0.066677
518.978141	0.066567
519.195095	0.067216
519.412031	0.067541
519.628949	0.067586
519.845849	0.067485
520.062731	0.068149
520.279594	0.068245
520.496439	0.068249
520.713266	0.067453
520.930074	0.067455
521.146865	0.066835
521.363637	0.066498
521.580391	0.066596
521.797127	0.066645
522.013844	0.066562
522.230543	0.066872
522.447224	0.066913
522.663887	0.067734
522.880532	0.067933
523.097158	0.069264
523.313766	0.069129
523.530356	0.069525
523.746928	0.069504
523.963481	0.069479
524.180017	0.069479
524.396534	0.069019
524.613032	0.068701
524.829513	0.068691
525.045975	0.068214
525.262420	0.068738
525.478845	0.068808
525.695253	0.069361
525.911643	0.069329
526.128014	0.069377
526.344367	0.069713
526.560702	0.070469
526.777018	0.070223
526.993316	0.070544
527.209597	0.070303
527.425858	0.070258
527.642102	0.069818
527.858328	0.070462
528.074535	0.070784
528.290724	0.070656
528.506894	0.069748
528.723047	0.070060
528.939181	0.069872
529.155297	0.070075
529.371395	0.070447
529.587475	0.070529
529.803536	0.070224
530.019579	0.070738
530.235604	0.071564
530.451611	0.073044
530.667600	0.073741
530.883570	0.074011
531.099522	0.074320
531.315456	0.073910
531.531372	0.074208
531.747269	0.074377
531.963148	0.074088
532.179009	0.074025
532.394852	0.073805
532.610676	0.073761
532.826482	0.074217
533.042271	0.074370
533.258040	0.074848
533.473792	0.074729
533.689525	0.074939
533.905240	0.075364
534.120937	0.075312
534.336616	0.075197
534.552277	0.075348
534.767919	0.075436
534.983543	0.075765
535.199149	0.075743
535.414736	0.076093
535.630306	0.076024
535.845857	0.075451
536.061390	0.075572
536.276904	0.075272
536.492401	0.075080
536.707879	0.074980
536.923339	0.075163
537.138781	0.075438
537.354204	0.075312
537.569610	0.075577
537.784997	0.075957
538.000366	0.076081
538.215716	0.076756
538.431049	0.077239
538.646363	0.077513
538.861659	0.077592
539.076937	0.078280
539.292196	0.079010
539.507438	0.079124
539.722661	0.079157
539.937866	0.079405
540.153052	0.079464
540.368221	0.079396
540.583371	0.079702
540.798503	0.079380
541.013617	0.079351
541.228712	0.079583
541.443789	0.079435
541.658848	0.080324
541.873889	0.080683
542.088912	0.081059
542.303916	0.081630
542.518902	0.081457
542.733870	0.081557
542.948820	0.081763
543.163752	0.081881
543.378665	0.082936
543.593560	0.082527
543.808437	0.082427
544.023295	0.082529
544.238136	0.082506
544.452958	0.082788
544.667762	0.083623
544.882548	0.082798
545.097315	0.082746
545.312064	0.082396
545.526795	0.082540
545.741508	0.082708
545.956203	0.082042
546.170879	0.082294
546.385537	0.082179
546.600177	0.081740
546.814799	0.082637
547.029402	0.082716
547.243988	0.082820
547.458555	0.082669
547.673103	0.083003
547.887634	0.083887
548.102146	0.083733
548.316640	0.083906
548.531116	0.084145
548.745574	0.084308
548.960013	0.084426
549.174435	0.084481
549.388838	0.084901
549.603222	0.084861
549.817589	0.084687
550.031937	0.084741
550.246267	0.085102
550.460579	0.085249
550.674873	0.085333
550.889148	0.085825
551.103405	0.085935
551.317644	0.086366
551.531865	0.086348
551.746068	0.086400
551.960252	0.086853
552.174418	0.086522
552.388566	0.086798
552.602696	0.086697
552.816807	0.086418
553.030900	0.086298
553.244975	0.086104
553.459032	0.086603
553.673070	0.086934
553.887091	0.086736
554.101093	0.087245
554.315077	0.087073
554.529042	0.087493
554.742990	0.087498
554.956919	0.087879
555.170830	0.087910
555.384722	0.087406
555.598597	0.087732
555.812453	0.087744
556.026291	0.087874
556.240111	0.088010
556.453913	0.087790
556.667696	0.088166
556.881461	0.088399
557.095208	0.088737
557.308937	0.089274
557.522647	0.089232
557.736339	0.089254
557.950013	0.089321
558.163669	0.089266
558.377307	0.089693
558.590926	0.089884
558.804527	0.090511
559.018110	0.090513
559.231675	0.090556
559.445221	0.090951
559.658749	0.091544
559.872259	0.091838
560.085751	0.092278
560.299225	0.092042
560.512680	0.092038
560.726117	0.091870
560.939536	0.092002
561.152937	0.092058
561.366319	0.091689
561.579683	0.091731
561.793029	0.091686
562.006357	0.091842
562.219667	0.092164
562.432958	0.091907
562.646231	0.091947
562.859486	0.092407
563.072723	0.092693
563.285941	0.093093
563.499141	0.092810
563.712323	0.092787
563.925487	0.092916
564.138632	0.092836
564.351760	0.093275
564.564869	0.092977
564.777960	0.092929
564.991032	0.092887
565.204087	0.093066
565.417123	0.093478
565.630141	0.093904
565.843140	0.094128
566.056122	0.094129
566.269085	0.094439
566.482030	0.094583
566.694957	0.094661
566.907866	0.094655
567.120756	0.094468
567.333628	0.094668
567.546482	0.094660
567.759318	0.094307
567.972135	0.094517
568.184935	0.094762
568.397716	0.094728
568.610478	0.094603
568.823223	0.094990
569.035949	0.095218
569.248657	0.095284
569.461347	0.095612
569.674019	0.095710
569.886672	0.095791
570.099308	0.095578
570.311925	0.096282
570.524523	0.096496
570.737104	0.096858
570.949666	0.097094
571.162210	0.096991
571.374736	0.096754
571.587244	0.096904
571.799733	0.097333
572.012205	0.097199
572.224658	0.097366
572.437092	0.097616
572.649509	0.097566
572.861907	0.097858
573.074287	0.098311
573.286649	0.098782
573.498993	0.099376
573.711318	0.099573
573.923625	0.099869
574.135914	0.099946
574.348185	0.100131
574.560438	0.100308
574.772672	0.100423
574.984888	0.100188
575.197086	0.100539
575.409266	0.100351
575.621427	0.100278
575.833570	0.100633
576.045695	0.100676
576.257802	0.100558
576.469890	0.100470
576.681961	0.100081
576.894013	0.100523
577.106046	0.100442
577.318062	0.100717
577.530059	0.100658
577.742039	0.100692
577.954000	0.100577
578.165942	0.100694
578.377867	0.100720
578.589773	0.101131
578.801661	0.101161
579.013531	0.101399
579.225382	0.101405
579.437216	0.101635
579.649031	0.101918
579.860828	0.102102
580.072606	0.102460
580.284367	0.102578
580.496109	0.102750
580.707833	0.103012
580.919539	0.102578
581.131227	0.102865
581.342896	0.102928
581.554547	0.102928
581.766180	0.103234
581.977795	0.103512
582.189391	0.103532
582.400969	0.103407
582.612529	0.103507
582.824071	0.103659
583.035595	0.103833
583.247100	0.103964
583.458587	0.104081
583.670056	0.103996
583.881506	0.103803
584.092939	0.103934
584.304353	0.104201
584.515749	0.103497
584.727127	0.103475
584.938486	0.103553
585.149828	0.103906
585.361151	0.104000
585.572456	0.103815
585.783742	0.104103
585.995011	0.104351
586.206261	0.104207
586.417493	0.104929
586.628706	0.104880
586.839902	0.105036
587.051079	0.105047
587.262238	0.105005
587.473379	0.105577
587.684502	0.105349
587.895606	0.105452
588.106692	0.106135
588.317760	0.106063
588.528810	0.106720
588.739841	0.106668
588.950855	0.106588
589.161850	0.106456
589.372827	0.106090
589.583785	0.106557
589.794726	0.106780
590.005648	0.106616
590.216552	0.106843
590.427437	0.106631
590.638305	0.106784
590.849154	0.106802
591.059985	0.107215
591.270798	0.107980
591.481592	0.108119
591.692369	0.108518
591.903127	0.108870
592.113867	0.109242
592.324588	0.109482
592.535292	0.109323
592.745977	0.109676
592.956644	0.109839
593.167293	0.109801
593.377923	0.109478
593.588536	0.109019
593.799130	0.108776
594.009706	0.108609
594.220263	0.108136
594.430803	0.108606
594.641324	0.108477
594.851827	0.108458
595.062312	0.108207
595.272778	0.108777
595.483227	0.108919
595.693657	0.109042
595.904069	0.109067
596.114462	0.109889
596.324838	0.109800
596.535195	0.110117
596.745534	0.110270
596.955855	0.110600
597.166157	0.110333
597.376441	0.110800
597.586707	0.110970
597.796955	0.111283
598.007185	0.111238
598.217396	0.111448
598.427589	0.111271
598.637764	0.111542
598.847921	0.111595
599.058060	0.112065
599.268180	0.111688
599.478282	0.111785
599.688366	0.111853
599.898431	0.111733
600.108479	0.111853
600.318508	0.112087
600.528519	0.112238
600.738511	0.111909
600.948486	0.112016
601.158442	0.112518
601.368380	0.112679
601.578300	0.112748
601.788202	0.113015
601.998085	0.112961
602.207950	0.113105
602.417797	0.112840
602.627626	0.113348
602.837436	0.112863
603.047228	0.112874
603.257002	0.112708
603.466758	0.112547
603.676496	0.112540
603.886215	0.112751
604.095916	0.113087
604.305599	0.113088
604.515264	0.113095
604.724910	0.113497
604.934538	0.113385
605.144148	0.113540
605.353740	0.113764
605.563314	0.114071
605.772869	0.114179
605.982406	0.114162
606.191925	0.114215
606.401425	0.114443
606.610908	0.114477
606.820372	0.114722
607.029818	0.115177
607.239246	0.115764
607.448655	0.115943
607.658047	0.116097
607.867420	0.116234
608.076775	0.116826
608.286111	0.116662
608.495430	0.116893
608.704730	0.116738
608.914012	0.116227
609.123275	0.115971
609.332521	0.115855
609.541748	0.115792
609.750957	0.116182
609.960148	0.116009
610.169321	0.116335
610.378475	0.116457
610.587611	0.116679
610.796729	0.117253
611.005829	0.117320
611.214910	0.117299
611.423974	0.117356
611.633019	0.116997
611.842045	0.117068
612.051054	0.116925
612.260044	0.116680
612.469017	0.116766
612.677970	0.116573
612.886906	0.116495
613.095824	0.116911
613.304723	0.117111
613.513604	0.117106
613.722467	0.117321
613.931311	0.117298
614.140138	0.117568
614.348946	0.117962
614.557736	0.118323
614.766507	0.118588
614.975261	0.118386
615.183996	0.118528
615.392713	0.118450
615.601412	0.118594
615.810092	0.119135
616.018754	0.119203
616.227399	0.119236
616.436024	0.119454
616.644632	0.119617
616.853222	0.119974
617.061793	0.120066
617.270346	0.120472
617.478880	0.120493
617.687397	0.120430
617.895895	0.120576
618.104375	0.120814
618.312837	0.120597
618.521281	0.120579
618.729706	0.120468
618.938113	0.120618
619.146502	0.120767
619.354873	0.121049
619.563226	0.121186
619.771560	0.121273
619.979876	0.120985
620.188174	0.121297
620.396453	0.121678
620.604715	0.121954
620.812958	0.122002
621.021183	0.122231
621.229390	0.122025
621.437578	0.122277
621.645748	0.122577
621.853900	0.123006
622.062034	0.123202
622.270150	0.123098
622.478247	0.123223
622.686326	0.123225
622.894387	0.123294
623.102430	0.123716
623.310454	0.123701
623.518461	0.123758
623.726449	0.123565
623.934418	0.123404
624.142370	0.123480
624.350303	0.123263
624.558218	0.123186
624.766115	0.123102
624.973994	0.122736
625.181855	0.122640
625.389697	0.122569
625.597521	0.122635
625.805327	0.122933
626.013114	0.122899
626.220883	0.122875
626.428634	0.122845
626.636367	0.122725
626.844082	0.122977
627.051778	0.122886
627.259457	0.122829
627.467117	0.122558
627.674758	0.122446
627.882382	0.122564
628.089987	0.122868
628.297574	0.123373
628.505143	0.123652
628.712694	0.123787
628.920226	0.124115
629.127740	0.124314
629.335236	0.124855
629.542714	0.124858
629.750174	0.125097
629.957615	0.125454
630.165038	0.125562
630.372443	0.125658
630.579829	0.125652
630.787198	0.125887
630.994548	0.125883
631.201880	0.125918
631.409194	0.126167
631.616489	0.126370
631.823766	0.126411
632.031025	0.126447
632.238266	0.126715
632.445489	0.126973
632.652693	0.127002
632.859879	0.127235
633.067047	0.127432
633.274197	0.127603
633.481329	0.127606
633.688442	0.127467
633.895537	0.127262
634.102614	0.127199
634.309672	0.127247
634.516713	0.127166
634.723735	0.127188
634.930739	0.127326
635.137724	0.127029
635.344692	0.127115
635.551641	0.127136
635.758572	0.127158
635.965485	0.127028
636.172379	0.126946
636.379256	0.127130
636.586114	0.127451
636.792954	0.127394
636.999775	0.127742
637.206579	0.127713
637.413364	0.127902
637.620131	0.128320
637.826880	0.128570
638.033610	0.128722
638.240323	0.128595
638.447017	0.128570
638.653692	0.128513
638.860350	0.128423
639.066990	0.128465
639.273611	0.128382
639.480214	0.128615
639.686798	0.128912
639.893365	0.128929
640.099913	0.129229
640.306443	0.129368
640.512955	0.129491
640.719449	0.129786
640.925924	0.129905
641.132381	0.130443
641.338820	0.130260
641.545241	0.130227
641.751644	0.130255
641.958028	0.130365
642.164394	0.130452
642.370742	0.130763
642.577071	0.130679
642.783383	0.130894
642.989676	0.130672
643.195951	0.130955
643.402207	0.130840
643.608446	0.131103
643.814666	0.131411
644.020868	0.131493
644.227052	0.131446
644.433218	0.131732
644.639365	0.131737
644.845494	0.131889
645.051605	0.131948
645.257698	0.132057
645.463772	0.132190
645.669828	0.132156
645.875866	0.132114
646.081886	0.132118
646.287888	0.132077
646.493871	0.132313
646.699836	0.132372
646.905783	0.132265
647.111712	0.132546
647.317622	0.132614
647.523514	0.132686
647.729388	0.132752
647.935244	0.132888
648.141082	0.132930
648.346901	0.133002
648.552702	0.133385
648.758485	0.133600
648.964250	0.133655
649.169996	0.133925
649.375724	0.133927
649.581434	0.133986
649.787126	0.134143
649.992800	0.134431
650.198455	0.134268
650.404092	0.134169
650.609711	0.134297
650.815311	0.134415
651.020894	0.134445
651.226458	0.134520
651.432004	0.134973
651.637532	0.135191
651.843041	0.135180
652.048532	0.135292
652.254006	0.135252
652.459460	0.135317
652.664897	0.135453
652.870315	0.135602
653.075716	0.135768
653.281097	0.135689
653.486461	0.135704
653.691807	0.135873
653.897134	0.136232
654.102443	0.136458
654.307734	0.136622
654.513006	0.136859
654.718261	0.137012
654.923497	0.137151
655.128715	0.137220
655.333915	0.137401
655.539096	0.137519
655.744259	0.137698
655.949404	0.137805
656.154531	0.137898
656.359640	0.138023
656.564730	0.138003
656.769802	0.138097
656.974856	0.138389
657.179892	0.138306
657.384909	0.138419
657.589908	0.138427
657.794889	0.138522
657.999852	0.138643
658.204797	0.138863
658.409723	0.139047
658.614631	0.139085
658.819521	0.138866
659.024393	0.139077
659.229246	0.138979
659.434081	0.139115
659.638898	0.139003
659.843697	0.139085
660.048478	0.138941
660.253240	0.138801
660.457984	0.139047
660.662710	0.139252
660.867417	0.139302
661.072107	0.139609
661.276778	0.139727
661.481431	0.139897
661.686066	0.140027
661.890682	0.140174
662.095281	0.140378
662.299861	0.140609
662.504422	0.140736
662.708966	0.141072
662.913491	0.141274
663.117999	0.141371
663.322488	0.141881
663.526958	0.141957
663.731411	0.142231
663.935845	0.142300
664.140261	0.142439
664.344659	0.142537
664.549038	0.142685
664.753400	0.142752
664.957743	0.142730
665.162068	0.142639
665.366375	0.142678
665.570663	0.142515
665.774933	0.142804
665.979185	0.142709
666.183419	0.142829
666.387635	0.142856
666.591832	0.142961
666.796011	0.143144
667.000172	0.143361
667.204315	0.143424
667.408439	0.143822
667.612545	0.143906
667.816634	0.144150
668.020703	0.144549
668.224755	0.144816
668.428788	0.144850
668.632803	0.144924
668.836800	0.144667
669.040779	0.145109
669.244739	0.144842
669.448681	0.145165
669.652605	0.145236
669.856511	0.145289
670.060399	0.145037
670.264268	0.145030
670.468119	0.145201
670.671952	0.145471
670.875767	0.145240
671.079563	0.145659
671.283341	0.145493
671.487101	0.145667
671.690843	0.145688
671.894567	0.146198
672.098272	0.146460
672.301959	0.146598
672.505628	0.146770
672.709278	0.147052
672.912911	0.147084
673.116525	0.147497
673.320121	0.147643
673.523699	0.147611
673.727258	0.147307
673.930799	0.147560
674.134322	0.147541
674.337827	0.147833
674.541314	0.147908
674.744782	0.148017
674.948232	0.147834
675.151664	0.147756
675.355078	0.148121
675.558474	0.148320
675.761851	0.148234
675.965210	0.148265
676.168551	0.148379
676.371873	0.148433
676.575178	0.148243
676.778464	0.148487
676.981732	0.148629
677.184981	0.148544
677.388213	0.148808
677.591426	0.148993
677.794621	0.149383
677.997798	0.149486
678.200956	0.149924
678.404097	0.150499
678.607219	0.150565
678.810323	0.150930
679.013408	0.151184
679.216476	0.151364
679.419525	0.151478
679.622556	0.151640
679.825569	0.151649
680.028563	0.151645
680.231540	0.151473
680.434498	0.151593
680.637438	0.151557
680.840359	0.151600
681.043263	0.151686
681.246148	0.151923
681.449015	0.151965
681.651864	0.152296
681.854694	0.152254
682.057506	0.152713
682.260301	0.152756
682.463076	0.152718
682.665834	0.153006
682.868573	0.153118
683.071295	0.153108
683.273998	0.153163
683.476682	0.153060
683.679349	0.153377
683.881997	0.153467
684.084627	0.153777
684.287239	0.154133
684.489833	0.154125
684.692408	0.154207
684.894965	0.154383
685.097504	0.154622
685.300025	0.154999
685.502527	0.155216
685.705012	0.155166
685.907478	0.155264
686.109925	0.155315
686.312355	0.155402
686.514766	0.155604
686.717159	0.155853
686.919534	0.155768
687.121891	0.155502
687.324230	0.155562
687.526550	0.155699
687.728852	0.155670
687.931136	0.155590
688.133401	0.155673
688.335649	0.155971
688.537878	0.155818
688.740089	0.156119
688.942281	0.156334
689.144456	0.156121
689.346612	0.156272
689.548750	0.156342
689.750870	0.156633
689.952971	0.156778
690.155055	0.156652
690.357120	0.156752
690.559167	0.156768
690.761195	0.156889
690.963206	0.157298
691.165198	0.157302
691.367172	0.157576
691.569128	0.157484
691.771065	0.157373
691.972984	0.157337
692.174885	0.157680
692.376768	0.157853
692.578633	0.157984
692.780479	0.158014
692.982308	0.158088
693.184118	0.158101
693.385909	0.158451
