sample name	sample
index	935
start time	 04-12-2021  12:39:56 PM


Wavelength (nm)	Absorbance
494.344910	NaN
494.563924	NaN
494.782919	NaN
495.001897	NaN
495.220856	-0.466494
495.439797	-0.093306
495.658719	-0.247113
495.877624	0.566384
496.096510	NaN
496.315378	NaN
496.534227	NaN
496.753059	NaN
496.971872	0.182613
497.190667	0.088539
497.409444	0.091189
497.628203	0.097471
497.846943	0.094241
498.065665	0.090313
498.284369	0.090884
498.503055	0.091041
498.721723	0.092064
498.940372	0.094295
499.159003	0.095216
499.377616	0.094395
499.596210	0.091923
499.814787	0.091592
500.033345	0.092616
500.251885	0.091705
500.470406	0.092318
500.688910	0.092225
500.907395	0.091047
501.125862	0.090013
501.344311	0.091033
501.562742	0.092019
501.781154	0.091359
501.999548	0.092446
502.217924	0.093820
502.436282	0.093158
502.654621	0.092634
502.872942	0.093079
503.091245	0.094177
503.309530	0.093924
503.527797	0.094675
503.746045	0.096332
503.964275	0.096588
504.182487	0.095638
504.400681	0.095979
504.618856	0.096109
504.837013	0.096974
505.055152	0.096625
505.273273	0.096032
505.491376	0.096632
505.709460	0.095274
505.927526	0.094590
506.145574	0.095649
506.363604	0.096244
506.581615	0.096493
506.799608	0.095161
507.017583	0.095145
507.235540	0.095496
507.453478	0.094358
507.671399	0.095277
507.889301	0.095491
508.107185	0.095384
508.325050	0.096233
508.542898	0.096840
508.760727	0.097494
508.978538	0.097706
509.196330	0.098266
509.414105	0.098334
509.631861	0.098892
509.849599	0.099187
510.067319	0.099033
510.285021	0.097935
510.502704	0.098019
510.720369	0.098663
510.938016	0.099501
511.155645	0.099207
511.373255	0.100018
511.590848	0.099217
511.808422	0.099060
512.025977	0.099617
512.243515	0.100850
512.461034	0.100959
512.678536	0.100502
512.896018	0.099791
513.113483	0.100247
513.330930	0.100364
513.548358	0.101344
513.765768	0.101765
513.983160	0.102687
514.200533	0.102556
514.417889	0.102404
514.635226	0.102994
514.852545	0.103092
515.069845	0.103069
515.287128	0.103101
515.504392	0.102991
515.721638	0.102937
515.938866	0.101790
516.156075	0.101714
516.373267	0.102361
516.590440	0.103322
516.807594	0.104768
517.024731	0.105108
517.241850	0.105642
517.458950	0.105945
517.676032	0.106298
517.893095	0.107165
518.110141	0.107655
518.327168	0.107853
518.544177	0.107532
518.761168	0.107127
518.978141	0.107290
519.195095	0.106997
519.412031	0.106618
519.628949	0.106563
519.845849	0.106555
520.062731	0.106403
520.279594	0.106861
520.496439	0.106593
520.713266	0.106887
520.930074	0.107402
521.146865	0.108261
521.363637	0.108835
521.580391	0.109218
521.797127	0.109856
522.013844	0.110508
522.230543	0.110248
522.447224	0.110621
522.663887	0.111339
522.880532	0.111496
523.097158	0.111645
523.313766	0.112789
523.530356	0.113583
523.746928	0.113456
523.963481	0.113761
524.180017	0.114542
524.396534	0.114755
524.613032	0.114678
524.829513	0.114995
525.045975	0.115199
525.262420	0.115475
525.478845	0.115335
525.695253	0.116097
525.911643	0.116122
526.128014	0.116221
526.344367	0.116343
526.560702	0.116568
526.777018	0.117283
526.993316	0.117776
527.209597	0.118011
527.425858	0.118596
527.642102	0.118852
527.858328	0.119342
528.074535	0.119468
528.290724	0.120055
528.506894	0.120442
528.723047	0.120109
528.939181	0.120297
529.155297	0.119973
529.371395	0.120158
529.587475	0.120131
529.803536	0.120534
530.019579	0.120519
530.235604	0.121162
530.451611	0.121455
530.667600	0.122178
530.883570	0.122910
531.099522	0.123828
531.315456	0.124432
531.531372	0.124522
531.747269	0.124565
531.963148	0.125352
532.179009	0.125103
532.394852	0.125030
532.610676	0.125576
532.826482	0.125335
533.042271	0.125228
533.258040	0.125069
533.473792	0.125432
533.689525	0.126066
533.905240	0.126310
534.120937	0.126895
534.336616	0.127077
534.552277	0.127080
534.767919	0.127646
534.983543	0.128250
535.199149	0.128320
535.414736	0.128553
535.630306	0.127940
535.845857	0.128068
536.061390	0.128447
536.276904	0.129329
536.492401	0.129566
536.707879	0.129989
536.923339	0.130126
537.138781	0.131068
537.354204	0.131918
537.569610	0.132955
537.784997	0.133425
538.000366	0.133543
538.215716	0.133551
538.431049	0.133931
538.646363	0.134410
538.861659	0.135097
539.076937	0.134969
539.292196	0.134808
539.507438	0.135003
539.722661	0.135763
539.937866	0.136192
540.153052	0.136937
540.368221	0.136929
540.583371	0.136717
540.798503	0.136953
541.013617	0.138042
541.228712	0.138734
541.443789	0.138549
541.658848	0.138433
541.873889	0.138442
542.088912	0.138065
542.303916	0.138566
542.518902	0.139126
542.733870	0.138937
542.948820	0.139017
543.163752	0.139416
543.378665	0.140010
543.593560	0.139973
543.808437	0.140633
544.023295	0.140829
544.238136	0.141268
544.452958	0.141318
544.667762	0.142023
544.882548	0.141917
545.097315	0.142159
545.312064	0.142308
545.526795	0.142554
545.741508	0.142539
545.956203	0.143150
546.170879	0.142960
546.385537	0.143076
546.600177	0.142839
546.814799	0.142965
547.029402	0.142980
547.243988	0.143285
547.458555	0.143912
547.673103	0.144304
547.887634	0.144222
548.102146	0.144959
548.316640	0.145556
548.531116	0.145519
548.745574	0.145593
548.960013	0.146066
549.174435	0.146348
549.388838	0.146018
549.603222	0.146516
549.817589	0.146578
550.031937	0.146685
550.246267	0.146986
550.460579	0.147633
550.674873	0.147860
550.889148	0.147474
551.103405	0.147488
551.317644	0.147875
551.531865	0.148085
551.746068	0.148762
551.960252	0.148926
552.174418	0.149035
552.388566	0.149421
552.602696	0.150057
552.816807	0.150659
553.030900	0.151297
553.244975	0.152069
553.459032	0.152076
553.673070	0.152529
553.887091	0.152740
554.101093	0.152907
554.315077	0.152815
554.529042	0.152724
554.742990	0.152575
554.956919	0.152559
555.170830	0.152606
555.384722	0.152914
555.598597	0.152685
555.812453	0.152961
556.026291	0.152719
556.240111	0.153134
556.453913	0.153645
556.667696	0.154269
556.881461	0.154196
557.095208	0.154130
557.308937	0.154190
557.522647	0.154273
557.736339	0.154217
557.950013	0.154290
558.163669	0.154372
558.377307	0.154426
558.590926	0.154597
558.804527	0.155056
559.018110	0.155007
559.231675	0.155059
559.445221	0.155685
559.658749	0.155825
559.872259	0.156329
560.085751	0.156689
560.299225	0.156823
560.512680	0.156719
560.726117	0.156972
560.939536	0.157732
561.152937	0.158138
561.366319	0.158613
561.579683	0.159042
561.793029	0.159390
562.006357	0.159531
562.219667	0.159773
562.432958	0.159808
562.646231	0.159655
562.859486	0.159393
563.072723	0.159332
563.285941	0.158957
563.499141	0.158871
563.712323	0.159166
563.925487	0.159061
564.138632	0.159207
564.351760	0.159428
564.564869	0.159953
564.777960	0.160109
564.991032	0.160254
565.204087	0.160732
565.417123	0.161310
565.630141	0.161041
565.843140	0.161414
566.056122	0.161504
566.269085	0.162112
566.482030	0.161974
566.694957	0.162070
566.907866	0.162360
567.120756	0.162542
567.333628	0.162463
567.546482	0.163006
567.759318	0.162920
567.972135	0.163397
568.184935	0.163136
568.397716	0.162992
568.610478	0.163269
568.823223	0.163319
569.035949	0.163032
569.248657	0.163268
569.461347	0.163196
569.674019	0.163040
569.886672	0.162685
570.099308	0.162999
570.311925	0.163436
570.524523	0.163959
570.737104	0.164210
570.949666	0.164355
571.162210	0.164372
571.374736	0.164566
571.587244	0.165044
571.799733	0.165033
572.012205	0.165453
572.224658	0.165908
572.437092	0.165664
572.649509	0.165625
572.861907	0.165707
573.074287	0.165783
573.286649	0.166159
573.498993	0.166377
573.711318	0.166898
573.923625	0.166860
574.135914	0.166635
574.348185	0.166514
574.560438	0.166559
574.772672	0.166880
574.984888	0.166793
575.197086	0.166793
575.409266	0.167039
575.621427	0.166845
575.833570	0.167094
576.045695	0.167469
576.257802	0.167888
576.469890	0.168052
576.681961	0.168034
576.894013	0.168507
577.106046	0.168636
577.318062	0.168680
577.530059	0.168846
577.742039	0.168429
577.954000	0.168282
578.165942	0.168567
578.377867	0.168769
578.589773	0.169172
578.801661	0.169206
579.013531	0.169417
579.225382	0.169725
579.437216	0.169809
579.649031	0.170234
579.860828	0.170288
580.072606	0.169937
580.284367	0.170018
580.496109	0.169769
580.707833	0.169486
580.919539	0.169401
581.131227	0.169152
581.342896	0.169377
581.554547	0.169427
581.766180	0.169811
581.977795	0.170161
582.189391	0.170282
582.400969	0.170478
582.612529	0.171055
582.824071	0.171053
583.035595	0.171746
583.247100	0.172158
583.458587	0.172234
583.670056	0.172523
583.881506	0.173116
584.092939	0.173364
584.304353	0.173824
584.515749	0.174094
584.727127	0.174473
584.938486	0.174531
585.149828	0.174631
585.361151	0.175042
585.572456	0.175165
585.783742	0.175111
585.995011	0.175468
586.206261	0.175472
586.417493	0.175773
586.628706	0.175771
586.839902	0.175649
587.051079	0.175658
587.262238	0.176071
587.473379	0.176030
587.684502	0.176112
587.895606	0.175934
588.106692	0.176072
588.317760	0.176051
588.528810	0.176607
588.739841	0.176811
588.950855	0.176873
589.161850	0.176513
589.372827	0.176642
589.583785	0.176878
589.794726	0.177592
590.005648	0.177648
590.216552	0.177973
590.427437	0.178078
590.638305	0.178432
590.849154	0.178723
591.059985	0.179253
591.270798	0.179441
591.481592	0.179614
591.692369	0.179361
591.903127	0.179494
592.113867	0.179504
592.324588	0.179411
592.535292	0.179427
592.745977	0.179553
592.956644	0.179645
593.167293	0.180090
593.377923	0.180124
593.588536	0.180161
593.799130	0.180363
594.009706	0.180764
594.220263	0.180838
594.430803	0.180965
594.641324	0.181099
594.851827	0.181267
595.062312	0.181229
595.272778	0.181309
595.483227	0.181722
595.693657	0.182006
595.904069	0.181948
596.114462	0.182369
596.324838	0.182584
596.535195	0.182833
596.745534	0.182622
596.955855	0.182921
597.166157	0.183142
597.376441	0.183022
597.586707	0.183156
597.796955	0.183221
598.007185	0.183157
598.217396	0.183188
598.427589	0.183326
598.637764	0.183594
598.847921	0.183601
599.058060	0.183672
599.268180	0.184158
599.478282	0.184217
599.688366	0.184305
599.898431	0.184484
600.108479	0.184699
600.318508	0.185163
600.528519	0.185463
600.738511	0.185605
600.948486	0.185667
601.158442	0.185480
601.368380	0.185663
601.578300	0.186132
601.788202	0.186125
601.998085	0.186500
602.207950	0.186410
602.417797	0.186451
602.627626	0.186685
602.837436	0.187039
603.047228	0.187450
603.257002	0.187795
603.466758	0.187698
603.676496	0.188112
603.886215	0.187839
604.095916	0.188068
604.305599	0.188241
604.515264	0.188249
604.724910	0.188563
604.934538	0.188570
605.144148	0.188489
605.353740	0.188461
605.563314	0.188193
605.772869	0.188710
605.982406	0.188670
606.191925	0.188957
606.401425	0.189380
606.610908	0.189642
606.820372	0.189976
607.029818	0.190400
607.239246	0.190668
607.448655	0.190852
607.658047	0.190815
607.867420	0.191136
608.076775	0.191249
608.286111	0.191131
608.495430	0.190950
608.704730	0.190964
608.914012	0.190733
609.123275	0.190767
609.332521	0.190989
609.541748	0.191105
609.750957	0.190895
609.960148	0.190850
610.169321	0.191037
610.378475	0.191265
610.587611	0.191497
610.796729	0.191884
611.005829	0.192124
611.214910	0.192395
611.423974	0.192462
611.633019	0.192917
611.842045	0.193279
612.051054	0.193550
612.260044	0.193465
612.469017	0.193321
612.677970	0.193637
612.886906	0.193748
613.095824	0.193770
613.304723	0.193953
613.513604	0.193847
613.722467	0.193941
613.931311	0.193999
614.140138	0.194127
614.348946	0.194434
614.557736	0.194357
614.766507	0.194279
614.975261	0.194381
615.183996	0.194368
615.392713	0.194357
615.601412	0.194254
615.810092	0.194325
616.018754	0.194585
616.227399	0.194681
616.436024	0.194610
616.644632	0.195107
616.853222	0.195385
617.061793	0.195760
617.270346	0.196204
617.478880	0.196527
617.687397	0.196606
617.895895	0.196721
618.104375	0.196924
618.312837	0.197220
618.521281	0.197381
618.729706	0.197658
618.938113	0.197567
619.146502	0.197661
619.354873	0.197868
619.563226	0.197879
619.771560	0.197750
619.979876	0.197824
620.188174	0.198042
620.396453	0.197904
620.604715	0.197961
620.812958	0.198139
621.021183	0.198213
621.229390	0.198100
621.437578	0.198165
621.645748	0.198381
621.853900	0.198412
622.062034	0.198482
622.270150	0.198499
622.478247	0.198559
622.686326	0.198722
622.894387	0.198818
623.102430	0.198895
623.310454	0.198928
623.518461	0.199137
623.726449	0.199294
623.934418	0.199454
624.142370	0.199905
624.350303	0.199937
624.558218	0.200098
624.766115	0.200330
624.973994	0.200604
625.181855	0.200858
625.389697	0.201101
625.597521	0.201406
625.805327	0.201376
626.013114	0.201173
626.220883	0.201581
626.428634	0.201803
626.636367	0.202024
626.844082	0.202178
627.051778	0.202608
627.259457	0.202514
627.467117	0.202726
627.674758	0.203075
627.882382	0.203271
628.089987	0.203346
628.297574	0.203246
628.505143	0.203235
628.712694	0.203265
628.920226	0.203208
629.127740	0.203844
629.335236	0.203859
629.542714	0.204026
629.750174	0.204315
629.957615	0.204473
630.165038	0.204750
630.372443	0.204701
630.579829	0.204895
630.787198	0.205145
630.994548	0.205102
631.201880	0.205365
631.409194	0.205477
631.616489	0.205546
631.823766	0.205633
632.031025	0.205916
632.238266	0.206360
632.445489	0.206537
632.652693	0.206561
632.859879	0.206732
633.067047	0.206939
633.274197	0.207076
633.481329	0.207401
633.688442	0.207698
633.895537	0.207891
634.102614	0.208142
634.309672	0.208571
634.516713	0.208857
634.723735	0.209174
634.930739	0.209160
635.137724	0.209392
635.344692	0.209399
635.551641	0.209441
635.758572	0.209348
635.965485	0.209416
636.172379	0.209280
636.379256	0.209408
636.586114	0.209168
636.792954	0.209435
636.999775	0.209477
637.206579	0.209424
637.413364	0.209343
637.620131	0.209454
637.826880	0.209519
638.033610	0.209743
638.240323	0.210121
638.447017	0.210343
638.653692	0.210196
638.860350	0.210344
639.066990	0.210789
639.273611	0.210947
639.480214	0.211083
639.686798	0.211376
639.893365	0.211506
640.099913	0.211650
640.306443	0.211940
640.512955	0.212250
640.719449	0.212456
640.925924	0.212828
641.132381	0.213262
641.338820	0.213458
641.545241	0.213543
641.751644	0.213850
641.958028	0.214122
642.164394	0.214107
642.370742	0.214254
642.577071	0.214243
642.783383	0.214403
642.989676	0.214324
643.195951	0.214732
643.402207	0.214995
643.608446	0.215099
643.814666	0.215175
644.020868	0.215421
644.227052	0.215558
644.433218	0.215912
644.639365	0.215858
644.845494	0.216244
645.051605	0.216381
645.257698	0.216420
645.463772	0.216576
645.669828	0.216666
645.875866	0.217221
646.081886	0.217307
646.287888	0.217385
646.493871	0.217613
646.699836	0.217487
646.905783	0.217683
647.111712	0.217869
647.317622	0.218042
647.523514	0.218064
647.729388	0.217736
647.935244	0.218245
648.141082	0.218549
648.346901	0.218619
648.552702	0.219232
648.758485	0.219442
648.964250	0.219496
649.169996	0.219769
649.375724	0.220109
649.581434	0.220543
649.787126	0.220626
649.992800	0.220706
650.198455	0.221035
650.404092	0.221343
650.609711	0.221555
650.815311	0.222038
651.020894	0.222187
651.226458	0.222386
651.432004	0.222607
651.637532	0.222956
651.843041	0.223279
652.048532	0.223401
652.254006	0.223246
652.459460	0.223503
652.664897	0.223626
652.870315	0.223780
653.075716	0.223928
653.281097	0.223832
653.486461	0.223805
653.691807	0.224065
653.897134	0.224200
654.102443	0.224184
654.307734	0.224139
654.513006	0.224259
654.718261	0.224581
654.923497	0.224989
655.128715	0.225569
655.333915	0.225977
655.539096	0.226107
655.744259	0.226350
655.949404	0.226924
656.154531	0.227452
656.359640	0.227773
656.564730	0.227758
656.769802	0.227708
656.974856	0.227473
657.179892	0.227342
657.384909	0.227263
657.589908	0.227551
657.794889	0.227610
657.999852	0.227524
658.204797	0.227679
658.409723	0.228028
658.614631	0.228528
658.819521	0.229232
659.024393	0.229634
659.229246	0.229974
659.434081	0.230219
659.638898	0.230686
659.843697	0.231007
660.048478	0.231255
660.253240	0.231350
660.457984	0.231155
660.662710	0.231202
660.867417	0.231262
661.072107	0.231676
661.276778	0.231712
661.481431	0.231874
661.686066	0.232025
661.890682	0.232126
662.095281	0.232430
662.299861	0.232876
662.504422	0.233217
662.708966	0.233448
662.913491	0.233460
663.117999	0.233791
663.322488	0.233704
663.526958	0.234062
663.731411	0.234367
663.935845	0.234451
664.140261	0.234755
664.344659	0.234793
664.549038	0.235083
664.753400	0.235454
664.957743	0.235661
665.162068	0.235994
665.366375	0.236260
665.570663	0.236432
665.774933	0.236863
665.979185	0.236905
666.183419	0.236985
666.387635	0.237416
666.591832	0.237651
666.796011	0.238120
667.000172	0.238587
667.204315	0.238694
667.408439	0.239021
667.612545	0.239237
667.816634	0.239541
668.020703	0.239784
668.224755	0.239956
668.428788	0.240014
668.632803	0.240065
668.836800	0.240113
669.040779	0.240091
669.244739	0.240162
669.448681	0.239949
669.652605	0.240100
669.856511	0.240422
670.060399	0.240545
670.264268	0.240738
670.468119	0.240800
670.671952	0.240946
670.875767	0.241124
671.079563	0.241214
671.283341	0.241823
671.487101	0.242336
671.690843	0.242558
671.894567	0.242618
672.098272	0.242896
672.301959	0.243215
672.505628	0.243546
672.709278	0.244126
672.912911	0.244270
673.116525	0.244551
673.320121	0.244601
673.523699	0.245113
673.727258	0.245500
673.930799	0.245747
674.134322	0.246167
674.337827	0.246300
674.541314	0.246518
674.744782	0.247043
674.948232	0.247093
675.151664	0.247000
675.355078	0.246866
675.558474	0.246992
675.761851	0.247239
675.965210	0.247373
676.168551	0.247553
676.371873	0.247687
676.575178	0.247722
676.778464	0.247884
676.981732	0.248172
677.184981	0.248576
677.388213	0.248912
677.591426	0.249047
677.794621	0.248994
677.997798	0.249013
678.200956	0.249198
678.404097	0.249437
678.607219	0.249582
678.810323	0.249997
679.013408	0.250096
679.216476	0.250307
679.419525	0.250517
679.622556	0.250968
679.825569	0.251386
680.028563	0.251635
680.231540	0.251690
680.434498	0.251894
680.637438	0.251965
680.840359	0.252086
681.043263	0.252309
681.246148	0.252494
681.449015	0.252750
681.651864	0.253098
681.854694	0.253365
682.057506	0.253725
682.260301	0.254110
682.463076	0.254400
682.665834	0.254555
682.868573	0.254790
683.071295	0.255074
683.273998	0.254986
683.476682	0.254986
683.679349	0.254901
683.881997	0.255121
684.084627	0.255330
684.287239	0.255262
684.489833	0.255330
684.692408	0.255327
684.894965	0.255457
685.097504	0.255651
685.300025	0.256070
685.502527	0.256595
685.705012	0.256779
685.907478	0.256895
686.109925	0.257266
686.312355	0.257895
686.514766	0.258118
686.717159	0.258460
686.919534	0.258913
687.121891	0.259028
687.324230	0.258949
687.526550	0.259175
687.728852	0.259042
687.931136	0.259190
688.133401	0.259337
688.335649	0.259483
688.537878	0.259485
688.740089	0.259779
688.942281	0.260023
689.144456	0.260410
689.346612	0.260412
689.548750	0.260784
689.750870	0.261279
689.952971	0.261192
690.155055	0.261326
690.357120	0.261668
690.559167	0.261684
690.761195	0.261709
690.963206	0.261923
691.165198	0.262332
691.367172	0.262807
691.569128	0.262912
691.771065	0.263238
691.972984	0.263598
692.174885	0.263844
692.376768	0.263956
692.578633	0.264263
692.780479	0.264347
692.982308	0.264537
693.184118	0.264565
693.385909	0.264548
693.587683	0.264552
693.789438	0.264811
