sample name	sample
index	725
start time	 03-25-2021  11:55:57 AM
880	0.255292
Peak Time (s)	92.037
Peak Height 	0.2553
calc peak height	90,93
Baseline Time (s)	9.536
Baseline Value 	-0.0028
subtract baseline	10,4
Abs	0.158012
Peak Time (s)	90.536
Peak Height 	0.158
calc peak height	90,93
Baseline Time (s)	11.535
Baseline Value 	0.00662
subtract baseline	10,3
PK_550	0.092229
Peak Time (s)	91.537
Peak Height 	0.09223
calc peak height	90,93
Baseline Time (s)	10.037
Baseline Value 	0.00103
subtract baseline	10,2
PK_880	0.154782
Peak Time (s)	90.036
Peak Height 	0.1548
calc peak height	90,93
Baseline Time (s)	8.536
Baseline Value 	0.003479
subtract baseline	10,1


Time (s)	A880-A510	A880-A775	A880-A975	A880	I510	I775	I975	I880	
0.036500	-0.002247	-0.000804	-0.001970	0.000868	7181.743755	44103.356076	3949.095455	23492.765420
0.537000	-0.005599	-0.000909	-0.003415	0.005540	7102.648086	43653.085562	3933.396652	23272.081688
1.037000	-0.003355	-0.000531	-0.004564	0.003488	7144.804514	43881.389876	3935.698116	23368.676874
1.537500	-0.003493	-0.000460	-0.007664	0.000177	7176.224880	44201.572010	3936.240505	23525.612714
2.035000	-0.002495	-0.000896	-0.006258	-0.000112	7189.027450	44187.518839	3940.577978	23539.336851
2.535000	-0.004223	-0.000717	-0.008528	0.003700	7134.166676	43843.937562	3925.086619	23358.687669
3.035500	-0.002320	-0.000610	-0.003835	-0.002305	7212.699435	44423.683579	3952.480250	23643.992558
3.536000	-0.003090	-0.000360	-0.000701	-0.000174	7183.724589	44244.335739	3955.083970	23542.282824
4.036500	-0.002149	-0.001521	-0.003748	-0.000514	7196.495340	44166.441838	3948.071700	23558.497218
4.538500	-0.005593	-0.000903	-0.004278	0.004057	7117.209597	43792.864649	3934.975860	23341.843871
5.036000	-0.001052	-0.000630	-0.004382	-0.000815	7210.466074	44279.594397	3947.211511	23572.815564
5.537000	-0.000154	-0.000165	-0.002872	-0.000126	7212.566477	44258.375195	3949.331972	23540.008039
6.037500	0.000088	0.000198	-0.005406	0.000007	7213.657415	44280.289599	3942.460269	23533.680008
6.535000	-0.001705	-0.000402	0.001914	0.000090	7194.901176	44215.332650	3961.209008	23529.737310
7.035000	-0.000349	-0.000590	-0.005596	0.000022	7209.127154	44203.924822	3941.933442	23532.977835
7.535500	-0.000195	-0.000111	-0.005051	-0.000106	7211.953367	44261.581084	3943.662462	23539.041038
8.035000	-0.000441	-0.000473	-0.003242	-0.000187	7210.305101	44234.862600	3948.536317	23542.930701
8.536000	0.000000	0.000429	0.000036	0.000364	7209.202304	44268.322160	3955.601795	23516.713238
9.036000	-0.001404	-0.000435	-0.003076	-0.000222	7201.021797	44241.795755	3949.053608	23544.586913
9.536000	0.000976	0.000017	0.000164	0.000000	7222.636463	44263.649202	3956.880537	23534.017180
10.037000	-0.000633	0.000000	0.000277	0.000524	7201.268098	44212.263542	3955.811183	23509.102117
10.537000	0.000132	-0.000748	-0.008064	-0.000416	7218.340892	44230.579091	3936.732164	23553.841371
11.037500	0.000171	0.000073	-0.004261	0.000168	7212.878540	44253.115380	3944.990883	23526.039589
11.535000	-0.001660	-0.000979	0.000000	-0.000008	7196.318211	44169.784728	3956.474602	23534.393821
12.035500	-0.002740	-0.000738	-0.004160	-0.000554	7190.992029	44244.530400	3947.112033	23560.378672
12.535500	-0.000630	-0.000267	-0.000247	-0.000339	7209.923519	44268.925295	3956.691668	23550.140671
13.035500	-0.003107	-0.000270	-0.005845	0.002082	7161.161231	44038.918620	3936.019084	23435.172206
13.536000	-0.000988	-0.000340	0.001502	0.000006	7202.898379	44229.203721	3960.352124	23533.728676
14.036000	-0.000409	0.000808	-0.000684	0.003945	7169.437641	43964.740633	3944.476157	23347.141791
14.536500	-0.003942	-0.000868	-0.005180	0.002219	7151.546396	43969.418316	3937.368006	23428.695426
15.039500	-0.000895	-0.000326	-0.000294	0.003177	7172.223734	43930.069895	3947.460043	23383.365697
15.537000	-0.000282	-0.000769	-0.010849	-0.000603	7216.062125	44246.289086	3930.111559	23562.730253
16.034500	0.000593	-0.000217	-0.004278	0.000493	7213.850701	44194.571948	3944.111535	23510.581968
16.535000	0.002142	0.000559	-0.006202	0.000812	7226.198071	44238.008136	3938.354958	23495.420635
17.035000	0.000227	0.000446	-0.002840	0.000799	7207.115736	44228.568597	3947.027513	23496.041018
17.535500	-0.000079	0.000628	-0.001459	0.002249	7189.581961	44108.189711	3946.850573	23427.281608
18.036000	-0.001670	-0.000671	-0.003511	0.002130	7174.941595	43996.503874	3941.875294	23432.923083
18.539000	0.000455	0.000947	-0.005375	0.002573	7191.679301	44107.691148	3935.966564	23411.947405
19.036500	-0.001594	0.000098	-0.003605	0.002901	7168.029648	43996.218026	3939.652945	23396.406580
19.537000	-0.000242	0.000586	-0.004113	0.002670	7183.757495	44064.226449	3938.943841	23407.340889
20.037000	0.000465	0.001084	0.000180	0.002958	7187.932411	44084.147168	3949.250000	23393.739389
20.537500	-0.002794	0.000596	0.002755	0.002911	7156.052842	44042.480541	3956.047856	23395.972037
21.035000	-0.000473	0.000135	0.002065	0.003456	7173.652577	43947.349737	3952.841946	23370.207464
21.535000	-0.002427	-0.000077	0.001452	0.002560	7163.157234	44011.995624	3953.575906	23412.553290
22.035000	-0.001931	0.000244	-0.000021	0.002764	7166.048913	44022.975549	3949.230996	23402.906312
22.536000	0.000220	0.000491	-0.001672	0.002892	7186.152422	44034.254817	3944.643475	23396.866121
23.038500	0.000668	0.000886	-0.002424	0.003592	7183.647660	44005.453860	3940.911719	23363.801949
23.536000	-0.000692	0.000228	-0.001695	0.003200	7174.019485	43980.352098	3943.792977	23382.309267
24.036500	0.000615	0.000377	-0.000705	0.003190	7187.114256	43995.226723	3946.365592	23382.750249
24.537500	0.000208	0.001281	0.000624	0.003914	7175.872005	44012.393332	3947.927518	23348.612074
25.037500	0.001123	0.000294	0.004616	0.003331	7190.781302	43974.144412	3959.802523	23376.133562
25.537500	-0.002477	0.000514	-0.005749	0.003027	7158.045188	44023.649913	3933.851956	23390.477180
26.035000	-0.000235	0.000406	-0.002847	0.003504	7175.543241	43968.452336	3940.052270	23367.962519
26.535500	0.000494	0.000504	0.000884	0.004235	7175.516314	43908.574788	3947.769823	23333.456369
27.035500	-0.000545	-0.000061	0.000169	0.002254	7184.880105	44042.338249	3951.042211	23427.017560
27.539000	0.001810	0.000796	-0.001910	0.001536	7215.590373	44191.720737	3947.524130	23461.041065
28.036500	-0.000383	0.000258	0.000110	0.001882	7190.215723	44107.898260	3951.854633	23444.672183
28.536500	-0.001659	0.000228	-0.000453	0.007394	7123.064202	43585.910697	3936.222240	23185.134297
29.036500	0.000185	0.000870	-0.002324	0.003826	7176.507892	43981.776797	3940.567237	23352.746385
29.539500	0.000464	0.001019	0.000650	0.002571	7191.782268	44114.722393	3951.467839	23412.049680
30.037000	0.001622	0.000816	0.001327	0.002536	7203.694250	44098.764454	3953.313775	23413.695933
30.535000	-0.003245	0.000500	-0.002904	0.006020	7120.980796	43740.199439	3933.473598	23249.507267
31.035000	0.001551	0.000903	-0.002483	0.003864	7189.729347	43981.290520	3940.061892	23350.956315
31.535500	-0.000925	0.001279	-0.002914	0.002546	7178.204084	44141.677872	3942.339240	23413.201076
32.036000	0.002083	0.001286	-0.003518	0.002566	7208.010622	44140.562349	3940.738394	23412.293061
32.536000	-0.002150	0.000397	-0.003886	0.006759	7124.483509	43661.296620	3929.097719	23214.888823
33.036500	0.003696	0.000925	0.002069	0.001930	7230.576154	44166.576550	3956.816158	23442.376517
33.536500	0.001388	0.000777	-0.002637	0.004150	7185.260451	43942.461299	3938.936559	23337.481218
34.034000	0.000038	0.001216	-0.001063	0.005605	7157.416318	43846.612588	3939.240847	23269.014277
34.536000	0.001769	0.001103	-0.001026	0.005902	7171.621445	43807.956164	3938.572987	23255.047362
35.037500	-0.000736	0.000221	0.001223	0.004814	7157.582330	43827.429387	3947.151245	23306.197997
35.535000	-0.000904	0.000533	0.000143	0.004888	7155.185427	43849.815693	3944.176827	23302.704040
36.035500	0.001032	0.000512	-0.003987	0.004950	7173.767897	43842.012359	3933.442045	23299.822468
36.536000	0.001198	0.001938	-0.001449	0.005840	7166.570864	43892.440553	3937.648711	23257.951435
37.039000	0.001355	0.000884	-0.002766	0.005511	7171.399206	43824.224048	3935.125603	23273.424551
37.535500	0.000130	0.000591	-0.001235	0.005141	7162.916220	43831.445560	3939.988338	23290.805861
38.036500	0.001665	0.000556	0.002617	0.004871	7180.832367	43853.587088	3950.604569	23303.499285
38.537000	-0.000121	0.000321	-0.000945	0.004670	7165.100419	43850.395666	3941.940276	23312.992579
39.036000	-0.000042	0.001047	0.000375	0.005244	7160.194357	43864.684202	3943.857666	23285.973890
39.537000	0.002124	0.001045	0.000333	0.005299	7181.146209	43859.293849	3943.608824	23283.368877
40.036500	-0.000049	0.001268	0.004066	0.005804	7154.582743	43832.718518	3951.941029	23259.649998
40.535000	-0.000659	0.001623	0.000522	0.005708	7149.516993	43875.327924	3943.043834	23264.185766
41.035500	0.000192	0.002094	-0.000981	0.006114	7153.908614	43881.348952	3938.147515	23245.115553
41.538500	0.001437	0.001356	-0.001500	0.005810	7169.239365	43840.411933	3937.594161	23259.362189
42.036000	-0.000011	0.001032	0.000259	0.005818	7154.828006	43809.194881	3942.084769	23258.997851
42.536500	-0.000144	0.000967	0.001146	0.005806	7153.629802	43804.258890	3944.396887	23259.586017
43.036000	0.002072	0.000737	0.003185	0.005488	7178.748960	43812.494520	3950.477600	23274.503634
43.537000	0.004386	0.001738	0.006211	0.001308	7243.801462	44303.053672	3969.280424	23471.869371
44.037500	0.002270	0.000884	0.001795	0.003052	7205.021015	44056.393856	3953.190180	23389.306622
44.537000	0.000531	0.000894	-0.003331	0.006056	7157.835993	43773.941515	3932.297019	23247.846785
45.035000	0.000898	0.001507	0.001251	0.008587	7136.478844	43593.962854	3937.529626	23129.405635
45.535500	0.003929	0.002049	0.002388	0.004850	7203.629871	43996.499425	3950.068721	23304.510683
46.038500	0.002538	0.001731	0.003420	0.004781	7190.425956	43972.947608	3952.919632	23307.753828
46.536000	0.001095	0.001325	-0.002016	0.005963	7164.339727	43823.162926	3935.885418	23252.194881
47.036000	0.000013	0.001396	-0.002595	0.007634	7137.143140	43672.835588	3930.154834	23173.908329
47.536500	0.001302	0.001676	-0.001515	0.006183	7164.209140	43835.475228	3936.605040	23241.869491
48.039000	0.002285	0.001342	0.001691	0.004216	7193.537157	43989.535416	3949.904864	23334.377047
48.537000	0.003737	0.001392	0.001450	0.007005	7180.222518	43731.477789	3942.094081	23203.338280
49.036500	-0.000056	0.001675	-0.001517	0.009662	7116.547079	43509.097639	3927.741206	23079.300424
49.535000	0.003364	0.001297	0.001343	0.001762	7228.926208	44217.833687	3955.364073	23450.332844
50.037500	0.004442	0.002589	0.003970	0.007319	7184.107307	43814.516898	3947.773799	23188.637908
50.535000	-0.041969	-0.009536	0.002787	0.153469	5635.802699	31332.028030	3625.235059	17381.876581
51.035500	-0.061869	-0.019312	-0.000609	-0.035385	6955.397262	45819.957275	4050.645472	25288.384070
51.536000	-0.026449	-0.013675	-0.005929	-0.110912	8147.136981	54630.535616	4265.404652	29547.130108
52.036500	-0.005069	-0.010374	0.019172	-0.091405	8169.965564	52737.307287	4284.052794	28375.240470
52.536500	-0.020745	-0.010360	0.024565	-0.050657	7523.146425	48279.339824	4170.113561	26090.831801
53.037000	-0.009950	-0.003329	0.002079	-0.049002	7622.308447	48844.031130	4097.469525	26002.490023
53.537000	0.027988	0.004818	0.026985	-0.074674	8373.347897	52561.141074	4254.432819	27411.250560
54.037500	0.062489	0.015539	0.041912	-0.069817	8762.752657	53235.633590	4287.926701	27138.310523
54.537500	0.097161	0.024574	0.066548	-0.082950	9449.494813	55869.371499	4420.700087	27883.468949
55.034500	0.112932	0.040613	0.091933	-0.003738	8554.048341	48704.488252	4234.883554	23712.655740
55.535500	0.117789	0.049325	0.106155	0.055030	7889.443790	43722.851903	4097.599128	21074.447272
56.035500	0.122556	0.055402	0.115633	0.093449	7514.508988	40796.364094	4015.664648	19532.988722
56.536000	0.124504	0.061058	0.128041	0.124330	7214.595089	38660.493550	3966.149722	18389.137175
57.036500	0.130822	0.066817	0.134979	0.147622	7047.712014	37247.186638	3924.037387	17578.594593
57.536000	0.136004	0.070740	0.141058	0.164874	6932.957278	36210.411819	3896.167485	17005.683168
58.039500	0.137600	0.072306	0.143593	0.180868	6800.175274	35123.416357	3863.529816	16494.466717
58.537500	0.143341	0.078279	0.143740	0.192967	6742.919970	34672.677053	3835.381619	16120.074861
59.034500	0.144411	0.077846	0.149723	0.200734	6683.516978	34079.188451	3831.247234	15885.159539
59.535000	0.141646	0.078823	0.143366	0.208039	6595.901514	33628.838762	3800.136409	15668.029444
60.038000	0.132389	0.076512	0.144890	0.212562	6479.255817	33149.726092	3793.437292	15535.402812
60.535500	0.132776	0.077741	0.145652	0.216517	6449.652348	32960.784757	3786.355891	15420.589146
61.036500	0.132573	0.078248	0.141160	0.227658	6357.128944	32234.689837	3752.424590	15102.646990
61.536000	0.144208	0.081918	0.142119	0.230325	6430.068962	32302.425486	3748.789145	15027.742014
62.036500	0.144906	0.082986	0.142311	0.230652	6433.118649	32352.555894	3748.503948	15018.584929
62.539500	0.143898	0.082055	0.139201	0.225835	6464.593315	32616.921569	3752.133970	15154.114250
63.047500	0.145766	0.082673	0.143018	0.225124	6486.054222	32707.825151	3761.833069	15174.235966
63.534500	0.143583	0.082030	0.148562	0.226040	6460.276548	32601.175191	3771.852670	15148.301531
64.035000	0.145152	0.084322	0.141221	0.229893	6441.394071	32494.725073	3747.798906	15039.827237
64.538000	0.144429	0.083003	0.142632	0.229651	6437.432748	32421.552269	3751.313527	15046.620675
65.035500	0.141433	0.083854	0.145601	0.231516	6397.626779	32352.837274	3753.667734	14994.449736
65.535500	0.142856	0.083672	0.142975	0.232169	6403.899083	32296.328158	3746.694385	14976.213355
66.036000	0.142409	0.084060	0.144008	0.232798	6395.134913	32280.040389	3747.550443	14958.684142
66.536000	0.143440	0.084536	0.146363	0.234484	6389.811103	32198.460658	3748.970596	14911.842017
67.036500	0.145643	0.085330	0.145644	0.236210	6393.684726	32135.734591	3743.790955	14864.063092
67.537000	0.145049	0.085768	0.147880	0.235572	6394.046939	32208.129795	3749.883012	14881.710825
68.037000	0.146549	0.086736	0.148813	0.236282	6400.479574	32225.514210	3750.355444	14862.084899
68.534500	0.148603	0.087400	0.140850	0.237971	6403.461127	32156.502599	3730.053713	14815.535427
69.035500	0.147673	0.087333	0.144805	0.239784	6381.152074	32030.301614	3734.519602	14765.743534
69.535500	0.148921	0.088219	0.150725	0.239202	6396.012012	32128.806599	3748.214687	14781.695653
70.035500	0.148173	0.088592	0.146913	0.239995	6383.489835	32100.543976	3738.493435	14759.958158
70.536000	0.145769	0.087757	0.148196	0.240612	6359.080578	32003.333701	3739.894360	14743.097543
71.036500	0.145060	0.087303	0.149937	0.242002	6342.206208	31880.155515	3740.632607	14705.130622
71.536000	0.147866	0.089006	0.153649	0.241352	6370.027317	32037.396800	3749.858964	14722.872986
72.036000	0.148881	0.088927	0.150377	0.241072	6380.500575	32050.780954	3743.518823	14730.510909
72.537000	0.148639	0.088879	0.145741	0.242626	6365.971377	31943.615438	3730.545080	14688.136387
73.037000	0.149266	0.089192	0.151089	0.242553	6371.629929	31969.405186	3741.897097	14690.124928
73.535000	0.148188	0.088917	0.152009	0.241987	6367.491181	31988.905619	3745.035907	14705.549011
74.035000	0.148335	0.088999	0.151775	0.242175	6367.161626	31981.828835	3744.141755	14700.419150
74.535500	0.149552	0.089920	0.147626	0.243556	6365.835158	31951.041956	3732.533770	14662.854763
75.035000	0.152198	0.090467	0.156639	0.246099	6366.670407	31818.057596	3746.129308	14593.979209
75.536000	0.150061	0.089933	0.152956	0.243118	6373.493616	31981.215592	3744.647168	14674.764588
76.036500	0.150382	0.090820	0.155612	0.244197	6367.357926	31968.360397	3747.985451	14645.449119
76.536000	0.149982	0.088982	0.148523	0.244346	6362.936364	31835.853946	3732.756688	14641.420994
77.037000	0.150889	0.091154	0.155242	0.245559	6360.463866	31899.748912	3744.318677	14608.577671
77.537000	0.151030	0.090506	0.149506	0.245516	6361.954272	31859.428267	3732.367123	14609.746512
78.037500	0.151284	0.090251	0.154546	0.245475	6364.329089	31845.181240	3743.024977	14610.842772
78.537500	0.150964	0.090661	0.153101	0.246598	6352.712223	31797.804484	3737.622952	14580.526551
79.035500	0.152748	0.090587	0.155403	0.246610	6366.981088	31792.041875	3742.439399	14580.199004
79.535500	0.152873	0.090881	0.153488	0.246819	6366.311060	31797.747245	3737.971634	14574.567579
80.036000	0.153799	0.091198	0.158452	0.247628	6367.250908	31765.036829	3746.730895	14552.768631
80.536000	0.149915	0.092287	0.155536	0.248856	6326.224945	31755.825844	3737.995079	14519.793522
81.036000	0.150447	0.091202	0.151317	0.250376	6318.352153	31583.521023	3726.030889	14479.079635
81.536500	0.152890	0.091140	0.154572	0.248331	6354.266663	31714.640624	3737.075605	14533.891834
82.036500	0.152805	0.090482	0.153840	0.248967	6348.470557	31628.978345	3734.211251	14516.806398
82.537000	0.154247	0.091977	0.155551	0.250312	6349.244837	31638.934703	3734.976248	14480.783942
83.038000	0.151250	0.090891	0.151517	0.249311	6333.248455	31633.281812	3728.653545	14507.574143
83.535000	0.154880	0.091548	0.157605	0.250343	6354.085482	31608.535388	3739.216430	14479.946017
84.035000	0.153441	0.092277	0.153447	0.250922	6337.892603	31618.454355	3729.317119	14464.490139
84.535000	0.155237	0.091835	0.156332	0.251670	6346.288137	31539.966749	3733.769477	14444.516631
85.036000	0.154415	0.091893	0.157412	0.251143	6343.919446	31578.490824	3737.132635	14458.572799
85.536500	0.155424	0.092441	0.152412	0.251905	6345.905518	31564.409802	3725.134258	14438.271409
86.036000	0.152838	0.091748	0.149469	0.251561	6327.959380	31541.371014	3719.770999	14447.427355
86.536500	0.152247	0.091678	0.159126	0.252205	6318.122997	31494.482713	3738.501474	14430.285936
87.037000	0.154010	0.091666	0.155082	0.254731	6312.040866	31328.035387	3724.808333	14363.204667
87.540000	0.154086	0.091516	0.156741	0.252263	6332.326494	31479.976591	3733.385920	14428.738803
88.034500	0.154812	0.092556	0.157413	0.253725	6326.448617	31452.282001	3731.739544	14389.885398
88.535000	0.156711	0.091672	0.158871	0.252935	6347.964269	31446.113847	3736.435477	14410.851233
89.036000	0.150630	0.091490	0.149506	0.254837	6284.454842	31309.632807	3713.136037	14360.406414
89.536000	0.153199	0.091849	0.152921	0.253730	6313.564721	31405.622126	3722.415206	14389.753045
90.036000	0.154782	0.092072	0.150726	0.254739	6318.127098	31354.109518	3715.829390	14363.005470
90.536000	0.153087	0.091524	0.158012	0.254378	6307.520042	31341.844531	3731.625261	14372.565815
91.036500	0.154658	0.090959	0.152383	0.254672	6317.673083	31285.777673	3719.367904	14364.786604
91.536500	0.153519	0.092229	0.157290	0.254566	6309.462634	31375.717107	3729.732676	14367.597940
92.037000	0.151863	0.091019	0.155143	0.255292	6290.598042	31249.240930	3723.776763	14348.379458
92.537000	0.153644	0.091422	0.155573	0.254576	6310.368192	31322.259338	3726.145619	14367.313133
93.073000	0.154877	0.092744	0.154456	0.257375	6297.954170	31225.942899	3718.072327	14293.444286
93.535000	0.155138	0.091824	0.153474	0.255237	6316.998658	31305.364386	3720.448171	14349.835329
94.035500	0.154815	0.092513	0.163261	0.257763	6294.397058	31185.625001	3735.517501	14283.245030
94.536000	0.153339	0.091054	0.158903	0.255680	6299.193087	31226.235357	3730.768756	14338.112006
95.036000	0.154820	0.092249	0.159804	0.256444	6304.883014	31254.332013	3731.054780	14317.974618
95.536500	0.153556	0.091848	0.156012	0.255846	6299.603968	31267.193580	3724.428304	14333.739577
96.037000	0.153291	0.091691	0.154876	0.258231	6278.687394	31101.868918	3717.179070	14270.943439
