sample name	sample
index	862
start time	 04-08-2021  12:34:54 PM


Wavelength (nm)	Absorbance
494.344910	-0.013097
494.563924	-0.013097
494.782919	-0.013097
495.001897	0.067881
495.220856	-0.000468
495.439797	-0.002141
495.658719	-0.002027
495.877624	-0.006393
496.096510	-0.012384
496.315378	-0.019298
496.534227	-0.013835
496.753059	-0.017522
496.971872	-0.014784
497.190667	0.030592
497.409444	0.055757
497.628203	0.063004
497.846943	0.067935
498.065665	0.068833
498.284369	0.071731
498.503055	0.073301
498.721723	0.074995
498.940372	0.075379
499.159003	0.074921
499.377616	0.074688
499.596210	0.075529
499.814787	0.076306
500.033345	0.077806
500.251885	0.077728
500.470406	0.079695
500.688910	0.079101
500.907395	0.079397
501.125862	0.080854
501.344311	0.081099
501.562742	0.081107
501.781154	0.081181
501.999548	0.080364
502.217924	0.079686
502.436282	0.078583
502.654621	0.078979
502.872942	0.080119
503.091245	0.079856
503.309530	0.080201
503.527797	0.080158
503.746045	0.079794
503.964275	0.080784
504.182487	0.082015
504.400681	0.081645
504.618856	0.082007
504.837013	0.081603
505.055152	0.082291
505.273273	0.082656
505.491376	0.083536
505.709460	0.084238
505.927526	0.084366
506.145574	0.084387
506.363604	0.084186
506.581615	0.084776
506.799608	0.085063
507.017583	0.084903
507.235540	0.084048
507.453478	0.083365
507.671399	0.083401
507.889301	0.083146
508.107185	0.082584
508.325050	0.083616
508.542898	0.083328
508.760727	0.083863
508.978538	0.083808
509.196330	0.085160
509.414105	0.085949
509.631861	0.086591
509.849599	0.087054
510.067319	0.087383
510.285021	0.087915
510.502704	0.088411
510.720369	0.088496
510.938016	0.089233
511.155645	0.088763
511.373255	0.089110
511.590848	0.088830
511.808422	0.089519
512.025977	0.090650
512.243515	0.090714
512.461034	0.090138
512.678536	0.090764
512.896018	0.090402
513.113483	0.090445
513.330930	0.090264
513.548358	0.090624
513.765768	0.090882
513.983160	0.090547
514.200533	0.090315
514.417889	0.091094
514.635226	0.090401
514.852545	0.091365
515.069845	0.092156
515.287128	0.092455
515.504392	0.092186
515.721638	0.091646
515.938866	0.091142
516.156075	0.090625
516.373267	0.091300
516.590440	0.092223
516.807594	0.092620
517.024731	0.092401
517.241850	0.092609
517.458950	0.093787
517.676032	0.094243
517.893095	0.095722
518.110141	0.096785
518.327168	0.096991
518.544177	0.096276
518.761168	0.095607
518.978141	0.096499
519.195095	0.096733
519.412031	0.096381
519.628949	0.096910
519.845849	0.096851
520.062731	0.097361
520.279594	0.097139
520.496439	0.098079
520.713266	0.098384
520.930074	0.097912
521.146865	0.097733
521.363637	0.098165
521.580391	0.098240
521.797127	0.098076
522.013844	0.097729
522.230543	0.097918
522.447224	0.098276
522.663887	0.098771
522.880532	0.099396
523.097158	0.099971
523.313766	0.100119
523.530356	0.100042
523.746928	0.100543
523.963481	0.100573
524.180017	0.100882
524.396534	0.101557
524.613032	0.101706
524.829513	0.101848
525.045975	0.102209
525.262420	0.102510
525.478845	0.103091
525.695253	0.102803
525.911643	0.104124
526.128014	0.104605
526.344367	0.103823
526.560702	0.104231
526.777018	0.104902
526.993316	0.105643
527.209597	0.105998
527.425858	0.106301
527.642102	0.106909
527.858328	0.106308
528.074535	0.106269
528.290724	0.107604
528.506894	0.108065
528.723047	0.107927
528.939181	0.108163
529.155297	0.108205
529.371395	0.108728
529.587475	0.109142
529.803536	0.109664
530.019579	0.110639
530.235604	0.110852
530.451611	0.110956
530.667600	0.111171
530.883570	0.111005
531.099522	0.111547
531.315456	0.111985
531.531372	0.112075
531.747269	0.112793
531.963148	0.112880
532.179009	0.112463
532.394852	0.112967
532.610676	0.113488
532.826482	0.114025
533.042271	0.114978
533.258040	0.114976
533.473792	0.115739
533.689525	0.115783
533.905240	0.116225
534.120937	0.117082
534.336616	0.117030
534.552277	0.117145
534.767919	0.117510
534.983543	0.116822
535.199149	0.117374
535.414736	0.117387
535.630306	0.117983
535.845857	0.117889
536.061390	0.118290
536.276904	0.118305
536.492401	0.118618
536.707879	0.118752
536.923339	0.119263
537.138781	0.119117
537.354204	0.119944
537.569610	0.119979
537.784997	0.120741
538.000366	0.120590
538.215716	0.121307
538.431049	0.121236
538.646363	0.121172
538.861659	0.121738
539.076937	0.121676
539.292196	0.121279
539.507438	0.121203
539.722661	0.121309
539.937866	0.121688
540.153052	0.122127
540.368221	0.122838
540.583371	0.123589
540.798503	0.123690
541.013617	0.124121
541.228712	0.124597
541.443789	0.125188
541.658848	0.125089
541.873889	0.125194
542.088912	0.125043
542.303916	0.125575
542.518902	0.125643
542.733870	0.125940
542.948820	0.126309
543.163752	0.126917
543.378665	0.126893
543.593560	0.127398
543.808437	0.127689
544.023295	0.128524
544.238136	0.128226
544.452958	0.128838
544.667762	0.129125
544.882548	0.130087
545.097315	0.129973
545.312064	0.130597
545.526795	0.130955
545.741508	0.131739
545.956203	0.131506
546.170879	0.132149
546.385537	0.132274
546.600177	0.132568
546.814799	0.132415
547.029402	0.132597
547.243988	0.133099
547.458555	0.133038
547.673103	0.132999
547.887634	0.133433
548.102146	0.133691
548.316640	0.133624
548.531116	0.133587
548.745574	0.133422
548.960013	0.133584
549.174435	0.133480
549.388838	0.134078
549.603222	0.134396
549.817589	0.134704
550.031937	0.134668
550.246267	0.135490
550.460579	0.135495
550.674873	0.135966
550.889148	0.136705
551.103405	0.137240
551.317644	0.137004
551.531865	0.136840
551.746068	0.136776
551.960252	0.137230
552.174418	0.137068
552.388566	0.137745
552.602696	0.137972
552.816807	0.137795
553.030900	0.138011
553.244975	0.138682
553.459032	0.139403
553.673070	0.139934
553.887091	0.140189
554.101093	0.140565
554.315077	0.140566
554.529042	0.140784
554.742990	0.141281
554.956919	0.141265
555.170830	0.141293
555.384722	0.141395
555.598597	0.141385
555.812453	0.141314
556.026291	0.141272
556.240111	0.141597
556.453913	0.141629
556.667696	0.141854
556.881461	0.141684
557.095208	0.141650
557.308937	0.141368
557.522647	0.141806
557.736339	0.142070
557.950013	0.142298
558.163669	0.142746
558.377307	0.143062
558.590926	0.142958
558.804527	0.143436
559.018110	0.143623
559.231675	0.144190
559.445221	0.144004
559.658749	0.144447
559.872259	0.144505
560.085751	0.144468
560.299225	0.144880
560.512680	0.145014
560.726117	0.145153
560.939536	0.145687
561.152937	0.145420
561.366319	0.146015
561.579683	0.145986
561.793029	0.146177
562.006357	0.145815
562.219667	0.145931
562.432958	0.146307
562.646231	0.146312
562.859486	0.146122
563.072723	0.146329
563.285941	0.145997
563.499141	0.146214
563.712323	0.146583
563.925487	0.147186
564.138632	0.147326
564.351760	0.147027
564.564869	0.147679
564.777960	0.147826
564.991032	0.148567
565.204087	0.148918
565.417123	0.148879
565.630141	0.149015
565.843140	0.149185
566.056122	0.149387
566.269085	0.149790
566.482030	0.149570
566.694957	0.149713
566.907866	0.149620
567.120756	0.149856
567.333628	0.150148
567.546482	0.149941
567.759318	0.149865
567.972135	0.149768
568.184935	0.150100
568.397716	0.150257
568.610478	0.150310
568.823223	0.150212
569.035949	0.150569
569.248657	0.150600
569.461347	0.151055
569.674019	0.151403
569.886672	0.151314
570.099308	0.151416
570.311925	0.151754
570.524523	0.152175
570.737104	0.152508
570.949666	0.152329
571.162210	0.152192
571.374736	0.152246
571.587244	0.152575
571.799733	0.153407
572.012205	0.153875
572.224658	0.153980
572.437092	0.153958
572.649509	0.153722
572.861907	0.154059
573.074287	0.154588
573.286649	0.154716
573.498993	0.154683
573.711318	0.154570
573.923625	0.154439
574.135914	0.154612
574.348185	0.155099
574.560438	0.155592
574.772672	0.155177
574.984888	0.155333
575.197086	0.155780
575.409266	0.155802
575.621427	0.155902
575.833570	0.155649
576.045695	0.155655
576.257802	0.155488
576.469890	0.155787
576.681961	0.156264
576.894013	0.156274
577.106046	0.156161
577.318062	0.156810
577.530059	0.157269
577.742039	0.157743
577.954000	0.158147
578.165942	0.158416
578.377867	0.158573
578.589773	0.158754
578.801661	0.159291
579.013531	0.159406
579.225382	0.159184
579.437216	0.159276
579.649031	0.159318
579.860828	0.158996
580.072606	0.159211
580.284367	0.159349
580.496109	0.159803
580.707833	0.159892
580.919539	0.160203
581.131227	0.160341
581.342896	0.160391
581.554547	0.160761
581.766180	0.161252
581.977795	0.161560
582.189391	0.161534
582.400969	0.161537
582.612529	0.161390
582.824071	0.161652
583.035595	0.161918
583.247100	0.161903
583.458587	0.161988
583.670056	0.162358
583.881506	0.162470
584.092939	0.162950
584.304353	0.162855
584.515749	0.162922
584.727127	0.163268
584.938486	0.163207
585.149828	0.163367
585.361151	0.163334
585.572456	0.163335
585.783742	0.163358
585.995011	0.163071
586.206261	0.163452
586.417493	0.163620
586.628706	0.163478
586.839902	0.163838
587.051079	0.164330
587.262238	0.164791
587.473379	0.164952
587.684502	0.165170
587.895606	0.165584
588.106692	0.165954
588.317760	0.166218
588.528810	0.166262
588.739841	0.166331
588.950855	0.166084
589.161850	0.166010
589.372827	0.166019
589.583785	0.166171
589.794726	0.166384
590.005648	0.166590
590.216552	0.166887
590.427437	0.167231
590.638305	0.167547
590.849154	0.167821
591.059985	0.168524
591.270798	0.168972
591.481592	0.169048
591.692369	0.169039
591.903127	0.168589
592.113867	0.168737
592.324588	0.168721
592.535292	0.168561
592.745977	0.168732
592.956644	0.168296
593.167293	0.168141
593.377923	0.168453
593.588536	0.168799
593.799130	0.169421
594.009706	0.169689
594.220263	0.169875
594.430803	0.170265
594.641324	0.170311
594.851827	0.170461
595.062312	0.170759
595.272778	0.170856
595.483227	0.170838
595.693657	0.170688
595.904069	0.170330
596.114462	0.170406
596.324838	0.170217
596.535195	0.170616
596.745534	0.171139
596.955855	0.171710
597.166157	0.171774
597.376441	0.172265
597.586707	0.172919
597.796955	0.173462
598.007185	0.173523
598.217396	0.174154
598.427589	0.174155
598.637764	0.173979
598.847921	0.173486
599.058060	0.173782
599.268180	0.173588
599.478282	0.173560
599.688366	0.173682
599.898431	0.174256
600.108479	0.174282
600.318508	0.174315
600.528519	0.174640
600.738511	0.174811
600.948486	0.175062
601.158442	0.175283
601.368380	0.175427
601.578300	0.175553
601.788202	0.175347
601.998085	0.175616
602.207950	0.175661
602.417797	0.175730
602.627626	0.176138
602.837436	0.175836
603.047228	0.175605
603.257002	0.175559
603.466758	0.175666
603.676496	0.175804
603.886215	0.175692
604.095916	0.176077
604.305599	0.176072
604.515264	0.176140
604.724910	0.176453
604.934538	0.176940
605.144148	0.177064
605.353740	0.177180
605.563314	0.177236
605.772869	0.177541
605.982406	0.177676
606.191925	0.177873
606.401425	0.178048
606.610908	0.178187
606.820372	0.178133
607.029818	0.178465
607.239246	0.178688
607.448655	0.179145
607.658047	0.178992
607.867420	0.178821
608.076775	0.179139
608.286111	0.179145
608.495430	0.179173
608.704730	0.179420
608.914012	0.179113
609.123275	0.179158
609.332521	0.178970
609.541748	0.179263
609.750957	0.179571
609.960148	0.179764
610.169321	0.179737
610.378475	0.179863
610.587611	0.179933
610.796729	0.180132
611.005829	0.180075
611.214910	0.180323
611.423974	0.180309
611.633019	0.180488
611.842045	0.180539
612.051054	0.180846
612.260044	0.181257
612.469017	0.181261
612.677970	0.181575
612.886906	0.182097
613.095824	0.182339
613.304723	0.182599
613.513604	0.182498
613.722467	0.182415
613.931311	0.182462
614.140138	0.182434
614.348946	0.182643
614.557736	0.182746
614.766507	0.182567
614.975261	0.182716
615.183996	0.182640
615.392713	0.182992
615.601412	0.183317
615.810092	0.183537
616.018754	0.183511
616.227399	0.183848
616.436024	0.184139
616.644632	0.184496
616.853222	0.184207
617.061793	0.184619
617.270346	0.184595
617.478880	0.184855
617.687397	0.185045
617.895895	0.185106
618.104375	0.185298
618.312837	0.185369
618.521281	0.185361
618.729706	0.185748
618.938113	0.185856
619.146502	0.185949
619.354873	0.186016
619.563226	0.186003
619.771560	0.186264
619.979876	0.186240
620.188174	0.186200
620.396453	0.186313
620.604715	0.186483
620.812958	0.186498
621.021183	0.186830
621.229390	0.186803
621.437578	0.187044
621.645748	0.187580
621.853900	0.187769
622.062034	0.188018
622.270150	0.188473
622.478247	0.188495
622.686326	0.188510
622.894387	0.188337
623.102430	0.188488
623.310454	0.188610
623.518461	0.188170
623.726449	0.188188
623.934418	0.188102
624.142370	0.188008
624.350303	0.188333
624.558218	0.188447
624.766115	0.188733
624.973994	0.188991
625.181855	0.189131
625.389697	0.189583
625.597521	0.189573
625.805327	0.189943
626.013114	0.189705
626.220883	0.189688
626.428634	0.189950
626.636367	0.190193
626.844082	0.190202
627.051778	0.190326
627.259457	0.190290
627.467117	0.190651
627.674758	0.190558
627.882382	0.191147
628.089987	0.191195
628.297574	0.191393
628.505143	0.191374
628.712694	0.191369
628.920226	0.191274
629.127740	0.191436
629.335236	0.191472
629.542714	0.191819
629.750174	0.191924
629.957615	0.192345
630.165038	0.192657
630.372443	0.192942
630.579829	0.193229
630.787198	0.193525
630.994548	0.193830
631.201880	0.194028
631.409194	0.194018
631.616489	0.194125
631.823766	0.193855
632.031025	0.193717
632.238266	0.193974
632.445489	0.193982
632.652693	0.194030
632.859879	0.194032
633.067047	0.194019
633.274197	0.194205
633.481329	0.194339
633.688442	0.194806
633.895537	0.195406
634.102614	0.195291
634.309672	0.195486
634.516713	0.195845
634.723735	0.196087
634.930739	0.196344
635.137724	0.196567
635.344692	0.196645
635.551641	0.196669
635.758572	0.196323
635.965485	0.196582
636.172379	0.196777
636.379256	0.197031
636.586114	0.197378
636.792954	0.197637
636.999775	0.197909
637.206579	0.198333
637.413364	0.198339
637.620131	0.198659
637.826880	0.198771
638.033610	0.198844
638.240323	0.198635
638.447017	0.198476
638.653692	0.198474
638.860350	0.198436
639.066990	0.198351
639.273611	0.198577
639.480214	0.198577
639.686798	0.199029
639.893365	0.199366
640.099913	0.199760
640.306443	0.199981
640.512955	0.200197
640.719449	0.200576
640.925924	0.200792
641.132381	0.200978
641.338820	0.201099
641.545241	0.200948
641.751644	0.200911
641.958028	0.200950
642.164394	0.201198
642.370742	0.201430
642.577071	0.201470
642.783383	0.201420
642.989676	0.201618
643.195951	0.201915
643.402207	0.202352
643.608446	0.202955
643.814666	0.203157
644.020868	0.203393
644.227052	0.203522
644.433218	0.203545
644.639365	0.204111
644.845494	0.204317
645.051605	0.204387
645.257698	0.204259
645.463772	0.204186
645.669828	0.204323
645.875866	0.204252
646.081886	0.204386
646.287888	0.204591
646.493871	0.204640
646.699836	0.204761
646.905783	0.204970
647.111712	0.205183
647.317622	0.205252
647.523514	0.205536
647.729388	0.205762
647.935244	0.205946
648.141082	0.206259
648.346901	0.206311
648.552702	0.206525
648.758485	0.206595
648.964250	0.206769
649.169996	0.206969
649.375724	0.207222
649.581434	0.207231
649.787126	0.207488
649.992800	0.207637
650.198455	0.207509
650.404092	0.207816
650.609711	0.208272
650.815311	0.208336
651.020894	0.208371
651.226458	0.208285
651.432004	0.208587
651.637532	0.208935
651.843041	0.209097
652.048532	0.209560
652.254006	0.209605
652.459460	0.209629
652.664897	0.209795
652.870315	0.210183
653.075716	0.210215
653.281097	0.210504
653.486461	0.210342
653.691807	0.210545
653.897134	0.210810
654.102443	0.211122
654.307734	0.211377
654.513006	0.211684
654.718261	0.211876
654.923497	0.212210
655.128715	0.212502
655.333915	0.212731
655.539096	0.212839
655.744259	0.213054
655.949404	0.213160
656.154531	0.213099
656.359640	0.213346
656.564730	0.213615
656.769802	0.213734
656.974856	0.213780
657.179892	0.214119
657.384909	0.214303
657.589908	0.214384
657.794889	0.214736
657.999852	0.215298
658.204797	0.215518
658.409723	0.215775
658.614631	0.216139
658.819521	0.216253
659.024393	0.216436
659.229246	0.216857
659.434081	0.217032
659.638898	0.217075
659.843697	0.217021
660.048478	0.217019
660.253240	0.216976
660.457984	0.217135
660.662710	0.217421
660.867417	0.217696
661.072107	0.217537
661.276778	0.217351
661.481431	0.217430
661.686066	0.217732
661.890682	0.218205
662.095281	0.218566
662.299861	0.218907
662.504422	0.219235
662.708966	0.218951
662.913491	0.219086
663.117999	0.219483
663.322488	0.219481
663.526958	0.219777
663.731411	0.219877
663.935845	0.219994
664.140261	0.219971
664.344659	0.220056
664.549038	0.220507
664.753400	0.220668
664.957743	0.221180
665.162068	0.221691
665.366375	0.221656
665.570663	0.221838
665.774933	0.222033
665.979185	0.222238
666.183419	0.222703
666.387635	0.223095
666.591832	0.223574
666.796011	0.223621
667.000172	0.223838
667.204315	0.224149
667.408439	0.224270
667.612545	0.224359
667.816634	0.224713
668.020703	0.224649
668.224755	0.224669
668.428788	0.224890
668.632803	0.225031
668.836800	0.225137
669.040779	0.225448
669.244739	0.225885
669.448681	0.226106
669.652605	0.226086
669.856511	0.226571
670.060399	0.227023
670.264268	0.227195
670.468119	0.227573
670.671952	0.227840
670.875767	0.227976
671.079563	0.228121
671.283341	0.228297
671.487101	0.228726
671.690843	0.228618
671.894567	0.228677
672.098272	0.228911
672.301959	0.229033
672.505628	0.229260
672.709278	0.229400
672.912911	0.229482
673.116525	0.229888
673.320121	0.230061
673.523699	0.230394
673.727258	0.230513
673.930799	0.230731
674.134322	0.231092
674.337827	0.231233
674.541314	0.231450
674.744782	0.231696
674.948232	0.231555
675.151664	0.231617
675.355078	0.231451
675.558474	0.231685
675.761851	0.231845
675.965210	0.231784
676.168551	0.232063
676.371873	0.232073
676.575178	0.232268
676.778464	0.232623
676.981732	0.233016
677.184981	0.233331
677.388213	0.233563
677.591426	0.233656
677.794621	0.233842
677.997798	0.233970
678.200956	0.234423
678.404097	0.234559
678.607219	0.234655
678.810323	0.234694
679.013408	0.234826
679.216476	0.234962
679.419525	0.235136
679.622556	0.235607
679.825569	0.235720
680.028563	0.235811
680.231540	0.235965
680.434498	0.236056
680.637438	0.236415
680.840359	0.236642
681.043263	0.236875
681.246148	0.236930
681.449015	0.236878
681.651864	0.237135
681.854694	0.237228
682.057506	0.237416
682.260301	0.237763
682.463076	0.237716
682.665834	0.237871
682.868573	0.238321
683.071295	0.238836
683.273998	0.239052
683.476682	0.239174
683.679349	0.239440
683.881997	0.239510
684.084627	0.239889
684.287239	0.240337
684.489833	0.240567
684.692408	0.240312
684.894965	0.240513
685.097504	0.240795
685.300025	0.240992
685.502527	0.241100
685.705012	0.241331
685.907478	0.241309
686.109925	0.241313
686.312355	0.241498
686.514766	0.241684
686.717159	0.241770
686.919534	0.241846
687.121891	0.242072
687.324230	0.242367
687.526550	0.242711
687.728852	0.243113
687.931136	0.243077
688.133401	0.243495
688.335649	0.243622
688.537878	0.243749
688.740089	0.243813
688.942281	0.243845
689.144456	0.243976
689.346612	0.244000
689.548750	0.243885
689.750870	0.244091
689.952971	0.244060
690.155055	0.244534
690.357120	0.244773
690.559167	0.245055
690.761195	0.245421
690.963206	0.245579
691.165198	0.245890
691.367172	0.246008
691.569128	0.246430
691.771065	0.246611
691.972984	0.246554
692.174885	0.246703
692.376768	0.246808
692.578633	0.246991
692.780479	0.246958
692.982308	0.247148
693.184118	0.247182
693.385909	0.247055
