sample name	sample
index	1127
start time	 04-22-2021  02:09:30 PM


Wavelength (nm)	Absorbance
494.344910	-0.840299
494.563924	-0.840299
494.782919	-0.840299
495.001897	-0.547756
495.220856	-0.243695
495.439797	-0.121217
495.658719	-0.186454
495.877624	-0.137967
496.096510	-0.051405
496.315378	-0.023776
496.534227	0.045716
496.753059	0.227460
496.971872	0.119331
497.190667	0.127669
497.409444	0.126682
497.628203	0.128140
497.846943	0.129812
498.065665	0.132353
498.284369	0.130096
498.503055	0.129195
498.721723	0.130201
498.940372	0.130782
499.159003	0.132348
499.377616	0.133107
499.596210	0.133982
499.814787	0.133960
500.033345	0.133338
500.251885	0.133198
500.470406	0.133447
500.688910	0.130946
500.907395	0.131543
501.125862	0.129965
501.344311	0.130454
501.562742	0.130864
501.781154	0.131119
501.999548	0.132058
502.217924	0.133989
502.436282	0.133165
502.654621	0.135253
502.872942	0.134810
503.091245	0.135085
503.309530	0.133963
503.527797	0.133915
503.746045	0.134011
503.964275	0.133358
504.182487	0.133187
504.400681	0.133268
504.618856	0.132418
504.837013	0.132485
505.055152	0.133101
505.273273	0.133784
505.491376	0.133193
505.709460	0.132956
505.927526	0.132002
506.145574	0.132010
506.363604	0.132525
506.581615	0.131687
506.799608	0.133127
507.017583	0.132665
507.235540	0.133207
507.453478	0.134162
507.671399	0.134242
507.889301	0.134770
508.107185	0.135329
508.325050	0.136367
508.542898	0.138441
508.760727	0.137835
508.978538	0.138031
509.196330	0.137274
509.414105	0.136773
509.631861	0.136779
509.849599	0.138779
510.067319	0.137776
510.285021	0.137985
510.502704	0.136941
510.720369	0.136577
510.938016	0.137165
511.155645	0.137660
511.373255	0.138125
511.590848	0.138626
511.808422	0.136826
512.025977	0.137060
512.243515	0.137032
512.461034	0.136815
512.678536	0.137179
512.896018	0.136834
513.113483	0.136822
513.330930	0.137009
513.548358	0.136876
513.765768	0.137596
513.983160	0.137181
514.200533	0.137418
514.417889	0.138704
514.635226	0.140073
514.852545	0.139795
515.069845	0.139855
515.287128	0.139578
515.504392	0.140122
515.721638	0.140378
515.938866	0.141657
516.156075	0.142255
516.373267	0.142003
516.590440	0.140881
516.807594	0.142031
517.024731	0.142906
517.241850	0.144065
517.458950	0.144235
517.676032	0.144857
517.893095	0.144805
518.110141	0.144946
518.327168	0.145504
518.544177	0.145827
518.761168	0.145234
518.978141	0.143884
519.195095	0.143376
519.412031	0.144100
519.628949	0.144004
519.845849	0.144321
520.062731	0.143942
520.279594	0.143748
520.496439	0.144347
520.713266	0.145182
520.930074	0.146303
521.146865	0.145700
521.363637	0.144813
521.580391	0.145243
521.797127	0.145035
522.013844	0.144781
522.230543	0.145213
522.447224	0.145051
522.663887	0.144972
522.880532	0.145820
523.097158	0.147520
523.313766	0.148088
523.530356	0.147858
523.746928	0.148418
523.963481	0.149023
524.180017	0.149025
524.396534	0.148943
524.613032	0.149106
524.829513	0.149394
525.045975	0.149547
525.262420	0.150177
525.478845	0.150664
525.695253	0.150579
525.911643	0.152043
526.128014	0.152900
526.344367	0.153377
526.560702	0.153781
526.777018	0.153330
526.993316	0.153071
527.209597	0.153291
527.425858	0.153248
527.642102	0.154429
527.858328	0.153881
528.074535	0.153736
528.290724	0.154203
528.506894	0.154547
528.723047	0.154350
528.939181	0.154959
529.155297	0.154932
529.371395	0.155660
529.587475	0.155498
529.803536	0.154979
530.019579	0.155974
530.235604	0.156212
530.451611	0.156236
530.667600	0.157037
530.883570	0.156772
531.099522	0.156736
531.315456	0.156922
531.531372	0.157215
531.747269	0.157883
531.963148	0.157079
532.179009	0.157044
532.394852	0.157743
532.610676	0.158237
532.826482	0.158793
533.042271	0.159886
533.258040	0.160180
533.473792	0.160615
533.689525	0.161225
533.905240	0.162223
534.120937	0.163027
534.336616	0.163165
534.552277	0.163795
534.767919	0.164119
534.983543	0.164289
535.199149	0.164505
535.414736	0.163959
535.630306	0.163725
535.845857	0.163988
536.061390	0.164137
536.276904	0.164390
536.492401	0.164187
536.707879	0.164410
536.923339	0.164376
537.138781	0.163854
537.354204	0.164639
537.569610	0.164837
537.784997	0.164473
538.000366	0.164861
538.215716	0.164606
538.431049	0.165086
538.646363	0.165702
538.861659	0.165880
539.076937	0.166898
539.292196	0.167214
539.507438	0.167855
539.722661	0.168110
539.937866	0.168380
540.153052	0.169194
540.368221	0.168691
540.583371	0.168611
540.798503	0.169206
541.013617	0.169502
541.228712	0.170012
541.443789	0.170702
541.658848	0.171362
541.873889	0.171469
542.088912	0.172037
542.303916	0.172849
542.518902	0.173291
542.733870	0.173726
542.948820	0.173871
543.163752	0.173734
543.378665	0.173548
543.593560	0.173905
543.808437	0.173933
544.023295	0.174041
544.238136	0.174165
544.452958	0.174512
544.667762	0.174175
544.882548	0.174351
545.097315	0.173913
545.312064	0.174222
545.526795	0.174555
545.741508	0.175178
545.956203	0.175272
546.170879	0.175547
546.385537	0.175852
546.600177	0.176114
546.814799	0.176379
547.029402	0.177162
547.243988	0.177433
547.458555	0.177160
547.673103	0.177145
547.887634	0.177093
548.102146	0.177426
548.316640	0.177239
548.531116	0.177621
548.745574	0.177646
548.960013	0.178041
549.174435	0.178557
549.388838	0.178857
549.603222	0.178928
549.817589	0.179416
550.031937	0.179603
550.246267	0.179742
550.460579	0.179845
550.674873	0.180159
550.889148	0.180559
551.103405	0.180053
551.317644	0.180476
551.531865	0.180777
551.746068	0.180903
551.960252	0.180854
552.174418	0.180908
552.388566	0.180997
552.602696	0.181531
552.816807	0.181462
553.030900	0.181858
553.244975	0.181866
553.459032	0.181758
553.673070	0.181972
553.887091	0.182022
554.101093	0.182891
554.315077	0.183451
554.529042	0.183366
554.742990	0.183986
554.956919	0.184297
555.170830	0.184595
555.384722	0.184870
555.598597	0.184849
555.812453	0.185079
556.026291	0.185104
556.240111	0.185471
556.453913	0.185709
556.667696	0.185602
556.881461	0.185599
557.095208	0.185961
557.308937	0.186369
557.522647	0.186690
557.736339	0.186833
557.950013	0.186487
558.163669	0.185888
558.377307	0.185880
558.590926	0.185746
558.804527	0.185810
559.018110	0.186026
559.231675	0.185981
559.445221	0.186034
559.658749	0.186452
559.872259	0.186771
560.085751	0.187386
560.299225	0.187731
560.512680	0.188281
560.726117	0.188675
560.939536	0.188706
561.152937	0.189137
561.366319	0.189329
561.579683	0.189611
561.793029	0.189821
562.006357	0.189737
562.219667	0.189887
562.432958	0.189433
562.646231	0.189392
562.859486	0.189274
563.072723	0.189063
563.285941	0.189307
563.499141	0.189556
563.712323	0.189985
563.925487	0.190287
564.138632	0.190291
564.351760	0.190917
564.564869	0.191445
564.777960	0.191744
564.991032	0.191771
565.204087	0.191510
565.417123	0.191143
565.630141	0.191107
565.843140	0.191479
566.056122	0.192155
566.269085	0.192223
566.482030	0.192196
566.694957	0.192261
566.907866	0.192448
567.120756	0.192719
567.333628	0.192949
567.546482	0.193549
567.759318	0.193584
567.972135	0.193402
568.184935	0.193354
568.397716	0.193451
568.610478	0.193274
568.823223	0.193239
569.035949	0.193476
569.248657	0.193752
569.461347	0.193206
569.674019	0.193280
569.886672	0.192634
570.099308	0.192915
570.311925	0.193211
570.524523	0.193853
570.737104	0.194343
570.949666	0.194555
571.162210	0.194390
571.374736	0.194727
571.587244	0.194738
571.799733	0.195313
572.012205	0.195449
572.224658	0.195492
572.437092	0.195401
572.649509	0.195375
572.861907	0.195351
573.074287	0.195926
573.286649	0.196100
573.498993	0.196646
573.711318	0.196885
573.923625	0.197023
574.135914	0.196633
574.348185	0.196525
574.560438	0.196798
574.772672	0.196771
574.984888	0.196783
575.197086	0.197369
575.409266	0.197281
575.621427	0.197673
575.833570	0.197597
576.045695	0.198167
576.257802	0.198564
576.469890	0.198489
576.681961	0.199016
576.894013	0.199221
577.106046	0.198946
577.318062	0.198933
577.530059	0.198632
577.742039	0.199164
577.954000	0.199392
578.165942	0.199164
578.377867	0.199655
578.589773	0.199616
578.801661	0.199637
579.013531	0.199536
579.225382	0.199729
579.437216	0.199935
579.649031	0.199924
579.860828	0.199613
580.072606	0.200417
580.284367	0.200344
580.496109	0.200430
580.707833	0.200569
580.919539	0.200740
581.131227	0.200836
581.342896	0.201314
581.554547	0.201543
581.766180	0.201976
581.977795	0.201972
582.189391	0.202083
582.400969	0.202321
582.612529	0.202571
582.824071	0.202849
583.035595	0.203298
583.247100	0.203005
583.458587	0.202788
583.670056	0.203005
583.881506	0.202668
584.092939	0.202969
584.304353	0.203265
584.515749	0.203507
584.727127	0.203605
584.938486	0.203415
585.149828	0.203466
585.361151	0.203932
585.572456	0.203848
585.783742	0.204325
585.995011	0.204386
586.206261	0.204348
586.417493	0.204137
586.628706	0.203982
586.839902	0.203795
587.051079	0.204194
587.262238	0.203946
587.473379	0.204187
587.684502	0.204612
587.895606	0.204940
588.106692	0.204905
588.317760	0.205534
588.528810	0.206359
588.739841	0.206854
588.950855	0.207184
589.161850	0.207252
589.372827	0.207451
589.583785	0.207081
589.794726	0.206991
590.005648	0.207359
590.216552	0.207162
590.427437	0.206585
590.638305	0.206609
590.849154	0.206462
591.059985	0.206907
591.270798	0.206923
591.481592	0.207250
591.692369	0.207228
591.903127	0.207313
592.113867	0.207664
592.324588	0.207963
592.535292	0.208233
592.745977	0.208362
592.956644	0.208654
593.167293	0.209358
593.377923	0.209910
593.588536	0.210292
593.799130	0.210656
594.009706	0.210759
594.220263	0.211070
594.430803	0.211455
594.641324	0.212059
594.851827	0.212330
595.062312	0.212176
595.272778	0.211945
595.483227	0.212518
595.693657	0.212724
595.904069	0.212770
596.114462	0.213304
596.324838	0.213304
596.535195	0.213333
596.745534	0.213458
596.955855	0.213672
597.166157	0.214040
597.376441	0.213679
597.586707	0.213579
597.796955	0.213501
598.007185	0.213247
598.217396	0.213196
598.427589	0.212970
598.637764	0.212700
598.847921	0.212601
599.058060	0.212373
599.268180	0.212813
599.478282	0.213002
599.688366	0.213101
599.898431	0.213315
600.108479	0.213649
600.318508	0.213684
600.528519	0.214015
600.738511	0.213923
600.948486	0.214163
601.158442	0.214156
601.368380	0.214373
601.578300	0.214813
601.788202	0.215193
601.998085	0.215347
602.207950	0.215781
602.417797	0.215967
602.627626	0.216417
602.837436	0.216303
603.047228	0.216024
603.257002	0.215985
603.466758	0.215942
603.676496	0.215586
603.886215	0.215449
604.095916	0.215373
604.305599	0.215609
604.515264	0.215644
604.724910	0.215923
604.934538	0.216313
605.144148	0.216540
605.353740	0.217120
605.563314	0.217197
605.772869	0.217574
605.982406	0.217550
606.191925	0.217528
606.401425	0.217698
606.610908	0.217897
606.820372	0.218132
607.029818	0.218113
607.239246	0.217646
607.448655	0.217902
607.658047	0.217947
607.867420	0.218153
608.076775	0.218212
608.286111	0.218262
608.495430	0.218099
608.704730	0.218303
608.914012	0.218450
609.123275	0.218579
609.332521	0.218671
609.541748	0.218691
609.750957	0.219043
609.960148	0.219107
610.169321	0.219263
610.378475	0.219770
610.587611	0.219875
610.796729	0.220157
611.005829	0.220665
611.214910	0.221181
611.423974	0.221301
611.633019	0.221232
611.842045	0.221557
612.051054	0.221668
612.260044	0.221692
612.469017	0.221643
612.677970	0.221821
612.886906	0.221738
613.095824	0.221711
613.304723	0.221639
613.513604	0.222039
613.722467	0.221931
613.931311	0.221987
614.140138	0.221825
614.348946	0.221819
614.557736	0.221767
614.766507	0.221892
614.975261	0.221460
615.183996	0.221773
615.392713	0.221883
615.601412	0.221965
615.810092	0.222091
616.018754	0.222334
616.227399	0.222388
616.436024	0.222744
616.644632	0.222807
616.853222	0.223083
617.061793	0.223011
617.270346	0.222695
617.478880	0.222787
617.687397	0.222865
617.895895	0.222944
618.104375	0.223197
618.312837	0.223048
618.521281	0.223232
618.729706	0.223506
618.938113	0.223873
619.146502	0.224265
619.354873	0.224533
619.563226	0.224643
619.771560	0.224806
619.979876	0.224786
620.188174	0.224708
620.396453	0.225142
620.604715	0.224914
620.812958	0.225402
621.021183	0.225353
621.229390	0.225445
621.437578	0.225837
621.645748	0.226164
621.853900	0.226550
622.062034	0.226709
622.270150	0.226833
622.478247	0.227626
622.686326	0.227235
622.894387	0.227625
623.102430	0.227929
623.310454	0.227679
623.518461	0.227633
623.726449	0.227979
623.934418	0.228312
624.142370	0.227973
624.350303	0.227891
624.558218	0.227977
624.766115	0.228115
624.973994	0.227899
625.181855	0.228194
625.389697	0.228113
625.597521	0.227914
625.805327	0.228176
626.013114	0.228253
626.220883	0.228385
626.428634	0.228655
626.636367	0.228410
626.844082	0.228723
627.051778	0.228953
627.259457	0.229071
627.467117	0.229248
627.674758	0.229097
627.882382	0.229343
628.089987	0.229376
628.297574	0.229447
628.505143	0.229784
628.712694	0.229687
628.920226	0.229634
629.127740	0.229824
629.335236	0.229992
629.542714	0.229932
629.750174	0.230012
629.957615	0.230048
630.165038	0.230377
630.372443	0.230480
630.579829	0.230924
630.787198	0.231282
630.994548	0.231690
631.201880	0.231972
631.409194	0.232706
631.616489	0.233000
631.823766	0.233524
632.031025	0.233507
632.238266	0.233763
632.445489	0.233895
632.652693	0.233704
632.859879	0.233626
633.067047	0.233365
633.274197	0.233308
633.481329	0.233453
633.688442	0.233399
633.895537	0.233461
634.102614	0.233656
634.309672	0.233688
634.516713	0.233888
634.723735	0.234389
634.930739	0.234600
635.137724	0.234517
635.344692	0.234333
635.551641	0.234465
635.758572	0.234812
635.965485	0.234915
636.172379	0.235084
636.379256	0.235137
636.586114	0.235220
636.792954	0.235561
636.999775	0.235877
637.206579	0.236392
637.413364	0.236478
637.620131	0.236569
637.826880	0.236659
638.033610	0.236696
638.240323	0.237214
638.447017	0.237402
638.653692	0.237501
638.860350	0.237722
639.066990	0.238023
639.273611	0.238154
639.480214	0.238339
639.686798	0.238589
639.893365	0.238980
640.099913	0.239057
640.306443	0.239340
640.512955	0.239524
640.719449	0.239684
640.925924	0.239797
641.132381	0.240048
641.338820	0.240346
641.545241	0.240410
641.751644	0.240476
641.958028	0.240589
642.164394	0.240473
642.370742	0.240635
642.577071	0.240717
642.783383	0.240617
642.989676	0.240560
643.195951	0.240296
643.402207	0.240345
643.608446	0.240504
643.814666	0.240786
644.020868	0.240784
644.227052	0.240782
644.433218	0.240914
644.639365	0.240905
644.845494	0.241253
645.051605	0.241846
645.257698	0.242140
645.463772	0.242317
645.669828	0.242203
645.875866	0.242709
646.081886	0.242966
646.287888	0.243385
646.493871	0.243795
646.699836	0.243942
646.905783	0.243826
647.111712	0.244068
647.317622	0.244166
647.523514	0.244485
647.729388	0.244494
647.935244	0.244508
648.141082	0.244391
648.346901	0.244388
648.552702	0.244389
648.758485	0.244659
648.964250	0.244687
649.169996	0.244935
649.375724	0.245209
649.581434	0.245207
649.787126	0.245501
649.992800	0.245361
650.198455	0.245912
650.404092	0.246393
650.609711	0.246581
650.815311	0.246905
651.020894	0.246888
651.226458	0.246901
651.432004	0.247460
651.637532	0.247794
651.843041	0.248288
652.048532	0.248377
652.254006	0.248279
652.459460	0.248508
652.664897	0.248706
652.870315	0.249089
653.075716	0.249536
653.281097	0.249426
653.486461	0.249499
653.691807	0.249472
653.897134	0.249543
654.102443	0.249637
654.307734	0.249432
654.513006	0.249402
654.718261	0.249344
654.923497	0.249264
655.128715	0.249486
655.333915	0.249877
655.539096	0.250294
655.744259	0.250327
655.949404	0.250460
656.154531	0.250707
656.359640	0.250874
656.564730	0.251016
656.769802	0.250901
656.974856	0.250960
657.179892	0.250822
657.384909	0.251049
657.589908	0.251399
657.794889	0.251790
657.999852	0.252114
658.204797	0.252666
658.409723	0.253138
658.614631	0.253757
658.819521	0.253761
659.024393	0.254144
659.229246	0.254195
659.434081	0.254423
659.638898	0.254589
659.843697	0.254741
660.048478	0.254781
660.253240	0.254794
660.457984	0.254767
660.662710	0.255166
660.867417	0.255175
661.072107	0.255411
661.276778	0.255583
661.481431	0.255648
661.686066	0.256002
661.890682	0.256160
662.095281	0.256253
662.299861	0.256830
662.504422	0.256879
662.708966	0.257242
662.913491	0.257398
663.117999	0.257332
663.322488	0.257696
663.526958	0.257470
663.731411	0.257608
663.935845	0.257693
664.140261	0.257596
664.344659	0.257773
664.549038	0.257793
664.753400	0.257966
664.957743	0.258212
665.162068	0.258172
665.366375	0.258798
665.570663	0.258800
665.774933	0.259367
665.979185	0.259484
666.183419	0.259845
666.387635	0.260251
666.591832	0.260626
666.796011	0.260895
667.000172	0.261150
667.204315	0.261074
667.408439	0.261192
667.612545	0.261507
667.816634	0.261687
668.020703	0.261968
668.224755	0.261950
668.428788	0.261894
668.632803	0.261918
668.836800	0.262235
669.040779	0.262677
669.244739	0.262968
669.448681	0.262752
669.652605	0.263144
669.856511	0.263250
670.060399	0.263506
670.264268	0.263756
670.468119	0.264034
670.671952	0.264185
670.875767	0.264165
671.079563	0.264485
671.283341	0.264604
671.487101	0.264497
671.690843	0.264690
671.894567	0.264806
672.098272	0.265118
672.301959	0.265331
672.505628	0.265563
672.709278	0.265829
672.912911	0.266013
673.116525	0.266330
673.320121	0.266612
673.523699	0.266928
673.727258	0.267123
673.930799	0.267310
674.134322	0.267823
674.337827	0.267980
674.541314	0.268059
674.744782	0.268238
674.948232	0.268451
675.151664	0.268760
675.355078	0.268845
675.558474	0.269265
675.761851	0.269392
675.965210	0.269259
676.168551	0.269509
676.371873	0.269867
676.575178	0.270263
676.778464	0.270732
676.981732	0.270788
677.184981	0.271156
677.388213	0.271187
677.591426	0.271079
677.794621	0.271318
677.997798	0.271697
678.200956	0.271918
678.404097	0.271918
678.607219	0.272010
678.810323	0.272232
679.013408	0.272136
679.216476	0.272400
679.419525	0.272885
679.622556	0.273202
679.825569	0.273133
680.028563	0.273354
680.231540	0.273657
680.434498	0.273557
680.637438	0.273826
680.840359	0.274168
681.043263	0.274412
681.246148	0.274320
681.449015	0.274284
681.651864	0.274346
681.854694	0.274562
682.057506	0.274706
682.260301	0.275006
682.463076	0.275434
682.665834	0.275640
682.868573	0.275865
683.071295	0.276147
683.273998	0.276567
683.476682	0.276785
683.679349	0.276804
683.881997	0.276860
684.084627	0.277056
684.287239	0.277029
684.489833	0.277218
684.692408	0.277171
684.894965	0.277470
685.097504	0.277431
685.300025	0.277663
685.502527	0.277858
685.705012	0.277893
685.907478	0.277933
686.109925	0.278194
686.312355	0.278441
686.514766	0.278853
686.717159	0.279209
686.919534	0.279724
687.121891	0.280048
687.324230	0.280148
687.526550	0.280457
687.728852	0.280680
687.931136	0.280689
688.133401	0.280717
688.335649	0.280531
688.537878	0.280407
688.740089	0.280434
688.942281	0.280583
689.144456	0.280763
689.346612	0.280805
689.548750	0.281009
689.750870	0.281297
689.952971	0.281244
690.155055	0.281655
690.357120	0.281941
690.559167	0.281843
690.761195	0.281823
690.963206	0.281942
691.165198	0.282108
691.367172	0.282198
691.569128	0.282041
691.771065	0.282054
691.972984	0.282154
692.174885	0.282453
692.376768	0.282703
692.578633	0.282907
692.780479	0.283019
692.982308	0.283235
693.184118	0.283549
693.385909	0.283908
