sample name	sample
index	536
start time	 03-11-2021  05:05:25 PM


Wavelength (nm)	Absorbance
494.344910	NaN
494.563924	NaN
494.782919	NaN
495.001897	0.365275
495.220856	NaN
495.439797	NaN
495.658719	0.419050
495.877624	0.805085
496.096510	0.696532
496.315378	2.314569
496.534227	0.383343
496.753059	NaN
496.971872	NaN
497.190667	0.199956
497.409444	0.181452
497.628203	0.181079
497.846943	0.175693
498.065665	0.174635
498.284369	0.172001
498.503055	0.170792
498.721723	0.170350
498.940372	0.168466
499.159003	0.169283
499.377616	0.169427
499.596210	0.169165
499.814787	0.170488
500.033345	0.170202
500.251885	0.171762
500.470406	0.173252
500.688910	0.173477
500.907395	0.174914
501.125862	0.173864
501.344311	0.172999
501.562742	0.172408
501.781154	0.171700
501.999548	0.171911
502.217924	0.171985
502.436282	0.172064
502.654621	0.172779
502.872942	0.173507
503.091245	0.173357
503.309530	0.175120
503.527797	0.176727
503.746045	0.177663
503.964275	0.178065
504.182487	0.178469
504.400681	0.178440
504.618856	0.177757
504.837013	0.177094
505.055152	0.178054
505.273273	0.177722
505.491376	0.177197
505.709460	0.175629
505.927526	0.176080
506.145574	0.176106
506.363604	0.176642
506.581615	0.176745
506.799608	0.176615
507.017583	0.175657
507.235540	0.175135
507.453478	0.175188
507.671399	0.175716
507.889301	0.175003
508.107185	0.174487
508.325050	0.174338
508.542898	0.174878
508.760727	0.175858
508.978538	0.176988
509.196330	0.176846
509.414105	0.177449
509.631861	0.178151
509.849599	0.179005
510.067319	0.179932
510.285021	0.180444
510.502704	0.180817
510.720369	0.179837
510.938016	0.179947
511.155645	0.180136
511.373255	0.180317
511.590848	0.180512
511.808422	0.181171
512.025977	0.181224
512.243515	0.181390
512.461034	0.180826
512.678536	0.181490
512.896018	0.181665
513.113483	0.182694
513.330930	0.182466
513.548358	0.182846
513.765768	0.183049
513.983160	0.183526
514.200533	0.182436
514.417889	0.183406
514.635226	0.184291
514.852545	0.184694
515.069845	0.184583
515.287128	0.185061
515.504392	0.186060
515.721638	0.185780
515.938866	0.184979
516.156075	0.186483
516.373267	0.185816
516.590440	0.186032
516.807594	0.185694
517.024731	0.186025
517.241850	0.186273
517.458950	0.185932
517.676032	0.186356
517.893095	0.187417
518.110141	0.186736
518.327168	0.187762
518.544177	0.187589
518.761168	0.188556
518.978141	0.188861
519.195095	0.188908
519.412031	0.188350
519.628949	0.188476
519.845849	0.188862
520.062731	0.190013
520.279594	0.190120
520.496439	0.190742
520.713266	0.192016
520.930074	0.191798
521.146865	0.192970
521.363637	0.194130
521.580391	0.193859
521.797127	0.194665
522.013844	0.194081
522.230543	0.194014
522.447224	0.193800
522.663887	0.192743
522.880532	0.193445
523.097158	0.192762
523.313766	0.192786
523.530356	0.194294
523.746928	0.193834
523.963481	0.194746
524.180017	0.194848
524.396534	0.196054
524.613032	0.195858
524.829513	0.196496
525.045975	0.196904
525.262420	0.196507
525.478845	0.196587
525.695253	0.197237
525.911643	0.196953
526.128014	0.197449
526.344367	0.196934
526.560702	0.199035
526.777018	0.198812
526.993316	0.199685
527.209597	0.200811
527.425858	0.200765
527.642102	0.200709
527.858328	0.200747
528.074535	0.200953
528.290724	0.200427
528.506894	0.199767
528.723047	0.200543
528.939181	0.200426
529.155297	0.200109
529.371395	0.199782
529.587475	0.200293
529.803536	0.201238
530.019579	0.201625
530.235604	0.203077
530.451611	0.203640
530.667600	0.203326
530.883570	0.203891
531.099522	0.204147
531.315456	0.204656
531.531372	0.204730
531.747269	0.205362
531.963148	0.206170
532.179009	0.206536
532.394852	0.206130
532.610676	0.206674
532.826482	0.206686
533.042271	0.207305
533.258040	0.207376
533.473792	0.207474
533.689525	0.207319
533.905240	0.207519
534.120937	0.207757
534.336616	0.208803
534.552277	0.209226
534.767919	0.209731
534.983543	0.210021
535.199149	0.210870
535.414736	0.211311
535.630306	0.212006
535.845857	0.212197
536.061390	0.212019
536.276904	0.211620
536.492401	0.211591
536.707879	0.211843
536.923339	0.211850
537.138781	0.212105
537.354204	0.212715
537.569610	0.212752
537.784997	0.213078
538.000366	0.213807
538.215716	0.213935
538.431049	0.214363
538.646363	0.214520
538.861659	0.215234
539.076937	0.215725
539.292196	0.216105
539.507438	0.216506
539.722661	0.216929
539.937866	0.216993
540.153052	0.218012
540.368221	0.218084
540.583371	0.218546
540.798503	0.218901
541.013617	0.218915
541.228712	0.218793
541.443789	0.218822
541.658848	0.219123
541.873889	0.219583
542.088912	0.219454
542.303916	0.220382
542.518902	0.220440
542.733870	0.220926
542.948820	0.221505
543.163752	0.222674
543.378665	0.222873
543.593560	0.222535
543.808437	0.223285
544.023295	0.224211
544.238136	0.224186
544.452958	0.225010
544.667762	0.225112
544.882548	0.225155
545.097315	0.224914
545.312064	0.225368
545.526795	0.226162
545.741508	0.225710
545.956203	0.225713
546.170879	0.226144
546.385537	0.226223
546.600177	0.226924
546.814799	0.227539
547.029402	0.227871
547.243988	0.228492
547.458555	0.228488
547.673103	0.228490
547.887634	0.228191
548.102146	0.228298
548.316640	0.227970
548.531116	0.227979
548.745574	0.227750
548.960013	0.227840
549.174435	0.227490
549.388838	0.227952
549.603222	0.228944
549.817589	0.229093
550.031937	0.229179
550.246267	0.230000
550.460579	0.229914
550.674873	0.229922
550.889148	0.230284
551.103405	0.230534
551.317644	0.230919
551.531865	0.231039
551.746068	0.231635
551.960252	0.231967
552.174418	0.232151
552.388566	0.232471
552.602696	0.232863
552.816807	0.232790
553.030900	0.233549
553.244975	0.233699
553.459032	0.233818
553.673070	0.234293
553.887091	0.235065
554.101093	0.235144
554.315077	0.235601
554.529042	0.236157
554.742990	0.236325
554.956919	0.236157
555.170830	0.236373
555.384722	0.236756
555.598597	0.236949
555.812453	0.236564
556.026291	0.236769
556.240111	0.237287
556.453913	0.237438
556.667696	0.237838
556.881461	0.238402
557.095208	0.238316
557.308937	0.238308
557.522647	0.238211
557.736339	0.237977
557.950013	0.238054
558.163669	0.237824
558.377307	0.238215
558.590926	0.238088
558.804527	0.237898
559.018110	0.238568
559.231675	0.238303
559.445221	0.238487
559.658749	0.238986
559.872259	0.238958
560.085751	0.238844
560.299225	0.239160
560.512680	0.239534
560.726117	0.240330
560.939536	0.240308
561.152937	0.240732
561.366319	0.241212
561.579683	0.241552
561.793029	0.242170
562.006357	0.242661
562.219667	0.242726
562.432958	0.243269
562.646231	0.243046
562.859486	0.243038
563.072723	0.243247
563.285941	0.243374
563.499141	0.243783
563.712323	0.243844
563.925487	0.243953
564.138632	0.244120
564.351760	0.244065
564.564869	0.244016
564.777960	0.244324
564.991032	0.244657
565.204087	0.244464
565.417123	0.244470
565.630141	0.244479
565.843140	0.244866
566.056122	0.245191
566.269085	0.245693
566.482030	0.246194
566.694957	0.246577
566.907866	0.246747
567.120756	0.247492
567.333628	0.247825
567.546482	0.248595
567.759318	0.249099
567.972135	0.248930
568.184935	0.248615
568.397716	0.248591
568.610478	0.248628
568.823223	0.248965
569.035949	0.248609
569.248657	0.249369
569.461347	0.249465
569.674019	0.249491
569.886672	0.249860
570.099308	0.250434
570.311925	0.250996
570.524523	0.251434
570.737104	0.251288
570.949666	0.251996
571.162210	0.251401
571.374736	0.251133
571.587244	0.251324
571.799733	0.251186
572.012205	0.250946
572.224658	0.251125
572.437092	0.251198
572.649509	0.251613
572.861907	0.251542
573.074287	0.251908
573.286649	0.252560
573.498993	0.252330
573.711318	0.252737
573.923625	0.253372
574.135914	0.253583
574.348185	0.253620
574.560438	0.253881
574.772672	0.254284
574.984888	0.254338
575.197086	0.254561
575.409266	0.254395
575.621427	0.254605
575.833570	0.254886
576.045695	0.254956
576.257802	0.255326
576.469890	0.255654
576.681961	0.255194
576.894013	0.255447
577.106046	0.254967
577.318062	0.255579
577.530059	0.255716
577.742039	0.255428
577.954000	0.255600
578.165942	0.255621
578.377867	0.255658
578.589773	0.256055
578.801661	0.256299
579.013531	0.256926
579.225382	0.257104
579.437216	0.257312
579.649031	0.257427
579.860828	0.257460
580.072606	0.257966
580.284367	0.258408
580.496109	0.258620
580.707833	0.258903
580.919539	0.259007
581.131227	0.259189
581.342896	0.259389
581.554547	0.259762
581.766180	0.259826
581.977795	0.259872
582.189391	0.260153
582.400969	0.261072
582.612529	0.261561
582.824071	0.261933
583.035595	0.262098
583.247100	0.262453
583.458587	0.262997
583.670056	0.263665
583.881506	0.263990
584.092939	0.264288
584.304353	0.263832
584.515749	0.263771
584.727127	0.263993
584.938486	0.264151
585.149828	0.264132
585.361151	0.264209
585.572456	0.264903
585.783742	0.264958
585.995011	0.264590
586.206261	0.264825
586.417493	0.264737
586.628706	0.264904
586.839902	0.265331
587.051079	0.265663
587.262238	0.265844
587.473379	0.265298
587.684502	0.265558
587.895606	0.265917
588.106692	0.266158
588.317760	0.266230
588.528810	0.266178
588.739841	0.266414
588.950855	0.266453
589.161850	0.266506
589.372827	0.266470
589.583785	0.266396
589.794726	0.266546
590.005648	0.266751
590.216552	0.267222
590.427437	0.267521
590.638305	0.267477
590.849154	0.267649
591.059985	0.267793
591.270798	0.267649
591.481592	0.267719
591.692369	0.268063
591.903127	0.268184
592.113867	0.268089
592.324588	0.268074
592.535292	0.268424
592.745977	0.268568
592.956644	0.269000
593.167293	0.269676
593.377923	0.270016
593.588536	0.270288
593.799130	0.270606
594.009706	0.271229
594.220263	0.271745
594.430803	0.272267
594.641324	0.272754
594.851827	0.272899
595.062312	0.272992
595.272778	0.273323
595.483227	0.272863
595.693657	0.273022
595.904069	0.272960
596.114462	0.273432
596.324838	0.273131
596.535195	0.273093
596.745534	0.273340
596.955855	0.273511
597.166157	0.273742
597.376441	0.274295
597.586707	0.274380
597.796955	0.274517
598.007185	0.274176
598.217396	0.274499
598.427589	0.274822
598.637764	0.274976
598.847921	0.275274
599.058060	0.275376
599.268180	0.275545
599.478282	0.275711
599.688366	0.275646
599.898431	0.276312
600.108479	0.276361
600.318508	0.276679
600.528519	0.276649
600.738511	0.276754
600.948486	0.277012
601.158442	0.277099
601.368380	0.277031
601.578300	0.277729
601.788202	0.277851
601.998085	0.278258
602.207950	0.278197
602.417797	0.278605
602.627626	0.278884
602.837436	0.278962
603.047228	0.279276
603.257002	0.279670
603.466758	0.279607
603.676496	0.279616
603.886215	0.279509
604.095916	0.280031
604.305599	0.280168
604.515264	0.280735
604.724910	0.280755
604.934538	0.280738
605.144148	0.281323
605.353740	0.281865
605.563314	0.281956
605.772869	0.282532
605.982406	0.282443
606.191925	0.282735
606.401425	0.282864
606.610908	0.283078
606.820372	0.283544
607.029818	0.283105
607.239246	0.283021
607.448655	0.283131
607.658047	0.282972
607.867420	0.282927
608.076775	0.283111
608.286111	0.282859
608.495430	0.283116
608.704730	0.283508
608.914012	0.284336
609.123275	0.284757
609.332521	0.285536
609.541748	0.285765
609.750957	0.286283
609.960148	0.286265
610.169321	0.286777
610.378475	0.287176
610.587611	0.287547
610.796729	0.287598
611.005829	0.287580
611.214910	0.287423
611.423974	0.287630
611.633019	0.287566
611.842045	0.287763
612.051054	0.287958
612.260044	0.287819
612.469017	0.287285
612.677970	0.287067
612.886906	0.287227
613.095824	0.287153
613.304723	0.286889
613.513604	0.287129
613.722467	0.287328
613.931311	0.287208
614.140138	0.287293
614.348946	0.287513
614.557736	0.287904
614.766507	0.288238
614.975261	0.288515
615.183996	0.288899
615.392713	0.288953
615.601412	0.289003
615.810092	0.289440
616.018754	0.289584
616.227399	0.290102
616.436024	0.290198
616.644632	0.290372
616.853222	0.290844
617.061793	0.290933
617.270346	0.291348
617.478880	0.291505
617.687397	0.291469
617.895895	0.291886
618.104375	0.291944
618.312837	0.291958
618.521281	0.292146
618.729706	0.292073
618.938113	0.292593
619.146502	0.292577
619.354873	0.292990
619.563226	0.292764
619.771560	0.293180
619.979876	0.293291
620.188174	0.293490
620.396453	0.293573
620.604715	0.293485
620.812958	0.293486
621.021183	0.293635
621.229390	0.293578
621.437578	0.294236
621.645748	0.293885
621.853900	0.293761
622.062034	0.294105
622.270150	0.294131
622.478247	0.294557
622.686326	0.294648
622.894387	0.294891
623.102430	0.295053
623.310454	0.295249
623.518461	0.295545
623.726449	0.295882
623.934418	0.295848
624.142370	0.295874
624.350303	0.295835
624.558218	0.295955
624.766115	0.296076
624.973994	0.296427
625.181855	0.296443
625.389697	0.296515
625.597521	0.296703
625.805327	0.296934
626.013114	0.297144
626.220883	0.297299
626.428634	0.297566
626.636367	0.297760
626.844082	0.297839
627.051778	0.297909
627.259457	0.298129
627.467117	0.298422
627.674758	0.298862
627.882382	0.299015
628.089987	0.299262
628.297574	0.299512
628.505143	0.299789
628.712694	0.299869
628.920226	0.300116
629.127740	0.300356
629.335236	0.300594
629.542714	0.300563
629.750174	0.300811
629.957615	0.300956
630.165038	0.301018
630.372443	0.300959
630.579829	0.301240
630.787198	0.301429
630.994548	0.301580
631.201880	0.301707
631.409194	0.302100
631.616489	0.302299
631.823766	0.302526
632.031025	0.302746
632.238266	0.303105
632.445489	0.302987
632.652693	0.303091
632.859879	0.303303
633.067047	0.303385
633.274197	0.303315
633.481329	0.303364
633.688442	0.303398
633.895537	0.304033
634.102614	0.303909
634.309672	0.304325
634.516713	0.304615
634.723735	0.304890
634.930739	0.305129
635.137724	0.305278
635.344692	0.305447
635.551641	0.305700
635.758572	0.305128
635.965485	0.305588
636.172379	0.305745
636.379256	0.306058
636.586114	0.305966
636.792954	0.306128
636.999775	0.306361
637.206579	0.306648
637.413364	0.306732
637.620131	0.307242
637.826880	0.307326
638.033610	0.307382
638.240323	0.307522
638.447017	0.307733
638.653692	0.307929
638.860350	0.308174
639.066990	0.308435
639.273611	0.308514
639.480214	0.308698
639.686798	0.308787
639.893365	0.309006
640.099913	0.309113
640.306443	0.309483
640.512955	0.309631
640.719449	0.309665
640.925924	0.309643
641.132381	0.310242
641.338820	0.310423
641.545241	0.310940
641.751644	0.311248
641.958028	0.311411
642.164394	0.311663
642.370742	0.311691
642.577071	0.312045
642.783383	0.312144
642.989676	0.312227
643.195951	0.312727
643.402207	0.312722
643.608446	0.312809
643.814666	0.312788
644.020868	0.312924
644.227052	0.313318
644.433218	0.313423
644.639365	0.313520
644.845494	0.313832
645.051605	0.313761
645.257698	0.313785
645.463772	0.314076
645.669828	0.314425
645.875866	0.314358
646.081886	0.314537
646.287888	0.314828
646.493871	0.315160
646.699836	0.315095
646.905783	0.315029
647.111712	0.315374
647.317622	0.315400
647.523514	0.315572
647.729388	0.316156
647.935244	0.316147
648.141082	0.316563
648.346901	0.316795
648.552702	0.316934
648.758485	0.317251
648.964250	0.317507
649.169996	0.317635
649.375724	0.317788
649.581434	0.317997
649.787126	0.318258
649.992800	0.318134
650.198455	0.318543
650.404092	0.318762
650.609711	0.318931
650.815311	0.318929
651.020894	0.319416
651.226458	0.319881
651.432004	0.319816
651.637532	0.320227
651.843041	0.320376
652.048532	0.320418
652.254006	0.320529
652.459460	0.320782
652.664897	0.321191
652.870315	0.321367
653.075716	0.321492
653.281097	0.321815
653.486461	0.322047
653.691807	0.322388
653.897134	0.322631
654.102443	0.323023
654.307734	0.323311
654.513006	0.323349
654.718261	0.323523
654.923497	0.323503
655.128715	0.323807
655.333915	0.323994
655.539096	0.324199
655.744259	0.324438
655.949404	0.324603
656.154531	0.324870
656.359640	0.325113
656.564730	0.325352
656.769802	0.325742
656.974856	0.325636
657.179892	0.325751
657.384909	0.325975
657.589908	0.326394
657.794889	0.326775
657.999852	0.327092
658.204797	0.327389
658.409723	0.327577
658.614631	0.327841
658.819521	0.328101
659.024393	0.328384
659.229246	0.328573
659.434081	0.328462
659.638898	0.328482
659.843697	0.328685
660.048478	0.329041
660.253240	0.329209
660.457984	0.329202
660.662710	0.329497
660.867417	0.329959
661.072107	0.330106
661.276778	0.330287
661.481431	0.330344
661.686066	0.330234
661.890682	0.330331
662.095281	0.330523
662.299861	0.330896
662.504422	0.331125
662.708966	0.330893
662.913491	0.331241
663.117999	0.331633
663.322488	0.331984
663.526958	0.332372
663.731411	0.332529
663.935845	0.332787
664.140261	0.333005
664.344659	0.333051
664.549038	0.333539
664.753400	0.333630
664.957743	0.333746
665.162068	0.333953
665.366375	0.334216
665.570663	0.334450
665.774933	0.334631
665.979185	0.334727
666.183419	0.335212
666.387635	0.335435
666.591832	0.335665
666.796011	0.336138
667.000172	0.336557
667.204315	0.336795
667.408439	0.337201
667.612545	0.337695
667.816634	0.338168
668.020703	0.338195
668.224755	0.338570
668.428788	0.338798
668.632803	0.339145
668.836800	0.339236
669.040779	0.339530
669.244739	0.339769
669.448681	0.339931
669.652605	0.340195
669.856511	0.340499
670.060399	0.340482
670.264268	0.340956
670.468119	0.341011
670.671952	0.341392
670.875767	0.341792
671.079563	0.341823
671.283341	0.342062
671.487101	0.341784
671.690843	0.342059
671.894567	0.342390
672.098272	0.342450
672.301959	0.342652
672.505628	0.342630
672.709278	0.342630
672.912911	0.342910
673.116525	0.343127
673.320121	0.343804
673.523699	0.343888
673.727258	0.344233
673.930799	0.344574
674.134322	0.344857
674.337827	0.345332
674.541314	0.345737
674.744782	0.346026
674.948232	0.346155
675.151664	0.346113
675.355078	0.346619
675.558474	0.346790
675.761851	0.347005
675.965210	0.347201
676.168551	0.347216
676.371873	0.347324
676.575178	0.347661
676.778464	0.347853
676.981732	0.348360
677.184981	0.348587
677.388213	0.348938
677.591426	0.349091
677.794621	0.349447
677.997798	0.349863
678.200956	0.350088
678.404097	0.350137
678.607219	0.350328
678.810323	0.350305
679.013408	0.350462
679.216476	0.350508
679.419525	0.350710
679.622556	0.350722
679.825569	0.350990
680.028563	0.351254
680.231540	0.351616
680.434498	0.351828
680.637438	0.352132
680.840359	0.352298
681.043263	0.352501
681.246148	0.352899
681.449015	0.353375
681.651864	0.353853
681.854694	0.354186
682.057506	0.354716
682.260301	0.355444
682.463076	0.355813
682.665834	0.356259
682.868573	0.356729
683.071295	0.357072
683.273998	0.357018
683.476682	0.356925
683.679349	0.356993
683.881997	0.356961
684.084627	0.357286
684.287239	0.357557
684.489833	0.357821
684.692408	0.357724
684.894965	0.357855
685.097504	0.358171
685.300025	0.358596
685.502527	0.358886
685.705012	0.358857
685.907478	0.358693
686.109925	0.358874
686.312355	0.359227
686.514766	0.359743
686.717159	0.359970
686.919534	0.360557
687.121891	0.360670
687.324230	0.361028
687.526550	0.361651
687.728852	0.361886
687.931136	0.362313
688.133401	0.362454
688.335649	0.362511
688.537878	0.362730
688.740089	0.362783
688.942281	0.363138
689.144456	0.363450
689.346612	0.363489
689.548750	0.363618
689.750870	0.364053
689.952971	0.364081
690.155055	0.364071
690.357120	0.364146
690.559167	0.364216
690.761195	0.364342
690.963206	0.364283
691.165198	0.364571
691.367172	0.364718
691.569128	0.364609
691.771065	0.364815
691.972984	0.365042
692.174885	0.365395
692.376768	0.365653
692.578633	0.365841
692.780479	0.365990
692.982308	0.365938
693.184118	0.366309
693.385909	0.366626
693.587683	0.366835
693.789438	0.367136
