sample name	sample
index	784
start time	 03-31-2021  01:56:17 PM


Wavelength (nm)	Absorbance
494.344910	-0.070797
494.563924	-0.070797
494.782919	-0.070797
495.001897	NaN
495.220856	0.338473
495.439797	0.402658
495.658719	0.426462
495.877624	0.557681
496.096510	0.268863
496.315378	0.175515
496.534227	0.188445
496.753059	0.056412
496.971872	0.010477
497.190667	0.063156
497.409444	0.064323
497.628203	0.068207
497.846943	0.070046
498.065665	0.070608
498.284369	0.071262
498.503055	0.073553
498.721723	0.073063
498.940372	0.073943
499.159003	0.073884
499.377616	0.074105
499.596210	0.074096
499.814787	0.073826
500.033345	0.075942
500.251885	0.075625
500.470406	0.074029
500.688910	0.074907
500.907395	0.073591
501.125862	0.073068
501.344311	0.074480
501.562742	0.074462
501.781154	0.075145
501.999548	0.074475
502.217924	0.075118
502.436282	0.074844
502.654621	0.074804
502.872942	0.075613
503.091245	0.076579
503.309530	0.076193
503.527797	0.076741
503.746045	0.076360
503.964275	0.075531
504.182487	0.075111
504.400681	0.076555
504.618856	0.076555
504.837013	0.076533
505.055152	0.076973
505.273273	0.076625
505.491376	0.076143
505.709460	0.076142
505.927526	0.077461
506.145574	0.077555
506.363604	0.075886
506.581615	0.075692
506.799608	0.076387
507.017583	0.076748
507.235540	0.076633
507.453478	0.077454
507.671399	0.076644
507.889301	0.076205
508.107185	0.076423
508.325050	0.076331
508.542898	0.076755
508.760727	0.076984
508.978538	0.076086
509.196330	0.076063
509.414105	0.075425
509.631861	0.076256
509.849599	0.075949
510.067319	0.075629
510.285021	0.075818
510.502704	0.076105
510.720369	0.075728
510.938016	0.075468
511.155645	0.076072
511.373255	0.076699
511.590848	0.077017
511.808422	0.077866
512.025977	0.078041
512.243515	0.078098
512.461034	0.077783
512.678536	0.077848
512.896018	0.078205
513.113483	0.078265
513.330930	0.077990
513.548358	0.078033
513.765768	0.076683
513.983160	0.077888
514.200533	0.079147
514.417889	0.079471
514.635226	0.079289
514.852545	0.079880
515.069845	0.080193
515.287128	0.080231
515.504392	0.079885
515.721638	0.079720
515.938866	0.079015
516.156075	0.078882
516.373267	0.078806
516.590440	0.078526
516.807594	0.078046
517.024731	0.078088
517.241850	0.077632
517.458950	0.078008
517.676032	0.078671
517.893095	0.078686
518.110141	0.078621
518.327168	0.079225
518.544177	0.079456
518.761168	0.079715
518.978141	0.079872
519.195095	0.080569
519.412031	0.080409
519.628949	0.080786
519.845849	0.080788
520.062731	0.080251
520.279594	0.079575
520.496439	0.079612
520.713266	0.080061
520.930074	0.080342
521.146865	0.080290
521.363637	0.080297
521.580391	0.079915
521.797127	0.079960
522.013844	0.081156
522.230543	0.081868
522.447224	0.082694
522.663887	0.082488
522.880532	0.082064
523.097158	0.082250
523.313766	0.082242
523.530356	0.083026
523.746928	0.083336
523.963481	0.083090
524.180017	0.083004
524.396534	0.082053
524.613032	0.081846
524.829513	0.082154
525.045975	0.082015
525.262420	0.082660
525.478845	0.082534
525.695253	0.082390
525.911643	0.082009
526.128014	0.082319
526.344367	0.082554
526.560702	0.082659
526.777018	0.082785
526.993316	0.083466
527.209597	0.083882
527.425858	0.084076
527.642102	0.084993
527.858328	0.085496
528.074535	0.085398
528.290724	0.085679
528.506894	0.085705
528.723047	0.085219
528.939181	0.084770
529.155297	0.084401
529.371395	0.084121
529.587475	0.083030
529.803536	0.082776
530.019579	0.082947
530.235604	0.083112
530.451611	0.083903
530.667600	0.084123
530.883570	0.084149
531.099522	0.084537
531.315456	0.085054
531.531372	0.085901
531.747269	0.086430
531.963148	0.087344
532.179009	0.087561
532.394852	0.087385
532.610676	0.087902
532.826482	0.088368
533.042271	0.088479
533.258040	0.088725
533.473792	0.088649
533.689525	0.088890
533.905240	0.088329
534.120937	0.088672
534.336616	0.089299
534.552277	0.089019
534.767919	0.088707
534.983543	0.089135
535.199149	0.089594
535.414736	0.090158
535.630306	0.090191
535.845857	0.090334
536.061390	0.090653
536.276904	0.090126
536.492401	0.090554
536.707879	0.091319
536.923339	0.090903
537.138781	0.090687
537.354204	0.090929
537.569610	0.091335
537.784997	0.091475
538.000366	0.091457
538.215716	0.092249
538.431049	0.092301
538.646363	0.092850
538.861659	0.093385
539.076937	0.093408
539.292196	0.093567
539.507438	0.093656
539.722661	0.093869
539.937866	0.094507
540.153052	0.094308
540.368221	0.094505
540.583371	0.094364
540.798503	0.094141
541.013617	0.094114
541.228712	0.093991
541.443789	0.094250
541.658848	0.094804
541.873889	0.094502
542.088912	0.094411
542.303916	0.095007
542.518902	0.094949
542.733870	0.095522
542.948820	0.095799
543.163752	0.095897
543.378665	0.096012
543.593560	0.095412
543.808437	0.095921
544.023295	0.096370
544.238136	0.096127
544.452958	0.095827
544.667762	0.095559
544.882548	0.095571
545.097315	0.095962
545.312064	0.095879
545.526795	0.096218
545.741508	0.096474
545.956203	0.096532
546.170879	0.096907
546.385537	0.097528
546.600177	0.097676
546.814799	0.098283
547.029402	0.098610
547.243988	0.098637
547.458555	0.098653
547.673103	0.098259
547.887634	0.098826
548.102146	0.098999
548.316640	0.098606
548.531116	0.098438
548.745574	0.098444
548.960013	0.098176
549.174435	0.098928
549.388838	0.099316
549.603222	0.100270
549.817589	0.100178
550.031937	0.100476
550.246267	0.101096
550.460579	0.101632
550.674873	0.101383
550.889148	0.101208
551.103405	0.100723
551.317644	0.100604
551.531865	0.100223
551.746068	0.100314
551.960252	0.100449
552.174418	0.100798
552.388566	0.100979
552.602696	0.101113
552.816807	0.101502
553.030900	0.101548
553.244975	0.101723
553.459032	0.101905
553.673070	0.102282
553.887091	0.102217
554.101093	0.102497
554.315077	0.102720
554.529042	0.103185
554.742990	0.103463
554.956919	0.103894
555.170830	0.104707
555.384722	0.104715
555.598597	0.104239
555.812453	0.104619
556.026291	0.104538
556.240111	0.104754
556.453913	0.104558
556.667696	0.104253
556.881461	0.104611
557.095208	0.104147
557.308937	0.104537
557.522647	0.104946
557.736339	0.105077
557.950013	0.105305
558.163669	0.105494
558.377307	0.105866
558.590926	0.106590
558.804527	0.106628
559.018110	0.107086
559.231675	0.106882
559.445221	0.107163
559.658749	0.107044
559.872259	0.107129
560.085751	0.107408
560.299225	0.107680
560.512680	0.107719
560.726117	0.107547
560.939536	0.107454
561.152937	0.107704
561.366319	0.107658
561.579683	0.107809
561.793029	0.108076
562.006357	0.107768
562.219667	0.107957
562.432958	0.107726
562.646231	0.108297
562.859486	0.108519
563.072723	0.108572
563.285941	0.108919
563.499141	0.108772
563.712323	0.108533
563.925487	0.108767
564.138632	0.108885
564.351760	0.109440
564.564869	0.109353
564.777960	0.109472
564.991032	0.109587
565.204087	0.109568
565.417123	0.110022
565.630141	0.110154
565.843140	0.110081
566.056122	0.110025
566.269085	0.110024
566.482030	0.110385
566.694957	0.110891
566.907866	0.111042
567.120756	0.111483
567.333628	0.111462
567.546482	0.111719
567.759318	0.111956
567.972135	0.112249
568.184935	0.112503
568.397716	0.112391
568.610478	0.111721
568.823223	0.111481
569.035949	0.111272
569.248657	0.111357
569.461347	0.111709
569.674019	0.112270
569.886672	0.112132
570.099308	0.112243
570.311925	0.112343
570.524523	0.112465
570.737104	0.112988
570.949666	0.113198
571.162210	0.113579
571.374736	0.113722
571.587244	0.113618
571.799733	0.113782
572.012205	0.114038
572.224658	0.114258
572.437092	0.114771
572.649509	0.114660
572.861907	0.114665
573.074287	0.114313
573.286649	0.114413
573.498993	0.114432
573.711318	0.115110
573.923625	0.115203
574.135914	0.115205
574.348185	0.115276
574.560438	0.115512
574.772672	0.115641
574.984888	0.116144
575.197086	0.116299
575.409266	0.116374
575.621427	0.116270
575.833570	0.116318
576.045695	0.116583
576.257802	0.116951
576.469890	0.117399
576.681961	0.117564
576.894013	0.117457
577.106046	0.117417
577.318062	0.117765
577.530059	0.117544
577.742039	0.117421
577.954000	0.117472
578.165942	0.117526
578.377867	0.117747
578.589773	0.117975
578.801661	0.118419
579.013531	0.118698
579.225382	0.118537
579.437216	0.118912
579.649031	0.119299
579.860828	0.119487
580.072606	0.119727
580.284367	0.119284
580.496109	0.119126
580.707833	0.118895
580.919539	0.119006
581.131227	0.119370
581.342896	0.119396
581.554547	0.119273
581.766180	0.119406
581.977795	0.119372
582.189391	0.119624
582.400969	0.119729
582.612529	0.120128
582.824071	0.120212
583.035595	0.120062
583.247100	0.120425
583.458587	0.120709
583.670056	0.120319
583.881506	0.120408
584.092939	0.120392
584.304353	0.120985
584.515749	0.120984
584.727127	0.120755
584.938486	0.121030
585.149828	0.120693
585.361151	0.120906
585.572456	0.121328
585.783742	0.121283
585.995011	0.121468
586.206261	0.120897
586.417493	0.121122
586.628706	0.121414
586.839902	0.121576
587.051079	0.121966
587.262238	0.121692
587.473379	0.121756
587.684502	0.122162
587.895606	0.122387
588.106692	0.122501
588.317760	0.122458
588.528810	0.122626
588.739841	0.123033
588.950855	0.123217
589.161850	0.123604
589.372827	0.123662
589.583785	0.123619
589.794726	0.123733
590.005648	0.124225
590.216552	0.124333
590.427437	0.124304
590.638305	0.124031
590.849154	0.123684
591.059985	0.123853
591.270798	0.124030
591.481592	0.124115
591.692369	0.124257
591.903127	0.124791
592.113867	0.125330
592.324588	0.125694
592.535292	0.126104
592.745977	0.126620
592.956644	0.126836
593.167293	0.127045
593.377923	0.127082
593.588536	0.126782
593.799130	0.126261
594.009706	0.126124
594.220263	0.125957
594.430803	0.125860
594.641324	0.125866
594.851827	0.125618
595.062312	0.125351
595.272778	0.125573
595.483227	0.126064
595.693657	0.126484
595.904069	0.126657
596.114462	0.126635
596.324838	0.126585
596.535195	0.126714
596.745534	0.127136
596.955855	0.127653
597.166157	0.127986
597.376441	0.128177
597.586707	0.128243
597.796955	0.128056
598.007185	0.128471
598.217396	0.128623
598.427589	0.129012
598.637764	0.128890
598.847921	0.128944
599.058060	0.128708
599.268180	0.128615
599.478282	0.128689
599.688366	0.129078
599.898431	0.129067
600.108479	0.129571
600.318508	0.129279
600.528519	0.129483
600.738511	0.129763
600.948486	0.129806
601.158442	0.129899
601.368380	0.129994
601.578300	0.130021
601.788202	0.130281
601.998085	0.130007
602.207950	0.130006
602.417797	0.130184
602.627626	0.130250
602.837436	0.130451
603.047228	0.130686
603.257002	0.130718
603.466758	0.130799
603.676496	0.131021
603.886215	0.131321
604.095916	0.131412
604.305599	0.131318
604.515264	0.130950
604.724910	0.131056
604.934538	0.131018
605.144148	0.131189
605.353740	0.131381
605.563314	0.131242
605.772869	0.131287
605.982406	0.131240
606.191925	0.131756
606.401425	0.132313
606.610908	0.132521
606.820372	0.132961
607.029818	0.133389
607.239246	0.133301
607.448655	0.133470
607.658047	0.133548
607.867420	0.133978
608.076775	0.133569
608.286111	0.133245
608.495430	0.133090
608.704730	0.132983
608.914012	0.132476
609.123275	0.132736
609.332521	0.132525
609.541748	0.133023
609.750957	0.132997
609.960148	0.133290
610.169321	0.133878
610.378475	0.133950
610.587611	0.134188
610.796729	0.134692
611.005829	0.134528
611.214910	0.135003
611.423974	0.134560
611.633019	0.134735
611.842045	0.134754
612.051054	0.134643
612.260044	0.134595
612.469017	0.134487
612.677970	0.134371
612.886906	0.134716
613.095824	0.134755
613.304723	0.134795
613.513604	0.135064
613.722467	0.135233
613.931311	0.135104
614.140138	0.135531
614.348946	0.135493
614.557736	0.135705
614.766507	0.135705
614.975261	0.135784
615.183996	0.135895
615.392713	0.135936
615.601412	0.135944
615.810092	0.136118
616.018754	0.136051
616.227399	0.136231
616.436024	0.135996
616.644632	0.136035
616.853222	0.136098
617.061793	0.136179
617.270346	0.136011
617.478880	0.136219
617.687397	0.136490
617.895895	0.136733
618.104375	0.136926
618.312837	0.137193
618.521281	0.137371
618.729706	0.137216
618.938113	0.137448
619.146502	0.137723
619.354873	0.137529
619.563226	0.137761
619.771560	0.137865
619.979876	0.138019
620.188174	0.138108
620.396453	0.138281
620.604715	0.138668
620.812958	0.138744
621.021183	0.138810
621.229390	0.139193
621.437578	0.139101
621.645748	0.139055
621.853900	0.139134
622.062034	0.139431
622.270150	0.139494
622.478247	0.139735
622.686326	0.139604
622.894387	0.139889
623.102430	0.139723
623.310454	0.139801
623.518461	0.139865
623.726449	0.139973
623.934418	0.139808
624.142370	0.139923
624.350303	0.139914
624.558218	0.140042
624.766115	0.139878
624.973994	0.140120
625.181855	0.140288
625.389697	0.140602
625.597521	0.140659
625.805327	0.140870
626.013114	0.140784
626.220883	0.140794
626.428634	0.141006
626.636367	0.141074
626.844082	0.141223
627.051778	0.141177
627.259457	0.141009
627.467117	0.141219
627.674758	0.141361
627.882382	0.141482
628.089987	0.141452
628.297574	0.141803
628.505143	0.142232
628.712694	0.142127
628.920226	0.142249
629.127740	0.142435
629.335236	0.142360
629.542714	0.142327
629.750174	0.142489
629.957615	0.142436
630.165038	0.142120
630.372443	0.141987
630.579829	0.142366
630.787198	0.142510
630.994548	0.142740
631.201880	0.142843
631.409194	0.143225
631.616489	0.143420
631.823766	0.143551
632.031025	0.143812
632.238266	0.144077
632.445489	0.144089
632.652693	0.144223
632.859879	0.144153
633.067047	0.144296
633.274197	0.144383
633.481329	0.144496
633.688442	0.144729
633.895537	0.145085
634.102614	0.145118
634.309672	0.145249
634.516713	0.145179
634.723735	0.145263
634.930739	0.145418
635.137724	0.145470
635.344692	0.145438
635.551641	0.145670
635.758572	0.145485
635.965485	0.145391
636.172379	0.145512
636.379256	0.145754
636.586114	0.145882
636.792954	0.145856
636.999775	0.145789
637.206579	0.145649
637.413364	0.145740
637.620131	0.145890
637.826880	0.146045
638.033610	0.146215
638.240323	0.146351
638.447017	0.146457
638.653692	0.146545
638.860350	0.146659
639.066990	0.146949
639.273611	0.146907
639.480214	0.146831
639.686798	0.146850
639.893365	0.146789
640.099913	0.146516
640.306443	0.146554
640.512955	0.146627
640.719449	0.146821
640.925924	0.147013
641.132381	0.147072
641.338820	0.147488
641.545241	0.147634
641.751644	0.147612
641.958028	0.148003
642.164394	0.148068
642.370742	0.148405
642.577071	0.148495
642.783383	0.148640
642.989676	0.148830
643.195951	0.148688
643.402207	0.148691
643.608446	0.148762
643.814666	0.148883
644.020868	0.149049
644.227052	0.148979
644.433218	0.149126
644.639365	0.149226
644.845494	0.149144
645.051605	0.149366
645.257698	0.149631
645.463772	0.149812
645.669828	0.149809
645.875866	0.149809
646.081886	0.149894
646.287888	0.149792
646.493871	0.149638
646.699836	0.149929
646.905783	0.150173
647.111712	0.150379
647.317622	0.150564
647.523514	0.150850
647.729388	0.151080
647.935244	0.151132
648.141082	0.151295
648.346901	0.151615
648.552702	0.151591
648.758485	0.151423
648.964250	0.151371
649.169996	0.151209
649.375724	0.151025
649.581434	0.151215
649.787126	0.151395
649.992800	0.151459
650.198455	0.151406
650.404092	0.151656
650.609711	0.151898
650.815311	0.152062
651.020894	0.152371
651.226458	0.152663
651.432004	0.152732
651.637532	0.152689
651.843041	0.152600
652.048532	0.152741
652.254006	0.152508
652.459460	0.152415
652.664897	0.152460
652.870315	0.152607
653.075716	0.152618
653.281097	0.152742
653.486461	0.153062
653.691807	0.153498
653.897134	0.153824
654.102443	0.154192
654.307734	0.154358
654.513006	0.154424
654.718261	0.154654
654.923497	0.154807
655.128715	0.155001
655.333915	0.155045
655.539096	0.155007
655.744259	0.154767
655.949404	0.155057
656.154531	0.155490
656.359640	0.155867
656.564730	0.155862
656.769802	0.156130
656.974856	0.156197
657.179892	0.156364
657.384909	0.156571
657.589908	0.156773
657.794889	0.156886
657.999852	0.156769
658.204797	0.156699
658.409723	0.156866
658.614631	0.157105
658.819521	0.157325
659.024393	0.157350
659.229246	0.157495
659.434081	0.157796
659.638898	0.157886
659.843697	0.158052
660.048478	0.158082
660.253240	0.158149
660.457984	0.158035
660.662710	0.158144
660.867417	0.158293
661.072107	0.158319
661.276778	0.158082
661.481431	0.158277
661.686066	0.158386
661.890682	0.158634
662.095281	0.158886
662.299861	0.159109
662.504422	0.159037
662.708966	0.159213
662.913491	0.159467
663.117999	0.160041
663.322488	0.160061
663.526958	0.160340
663.731411	0.160494
663.935845	0.160507
664.140261	0.160445
664.344659	0.160817
664.549038	0.160716
664.753400	0.160840
664.957743	0.161040
665.162068	0.161124
665.366375	0.161100
665.570663	0.161295
665.774933	0.161492
665.979185	0.161650
666.183419	0.161590
666.387635	0.161943
666.591832	0.162001
666.796011	0.161687
667.000172	0.161947
667.204315	0.162210
667.408439	0.162207
667.612545	0.162215
667.816634	0.162354
668.020703	0.162488
668.224755	0.162646
668.428788	0.162831
668.632803	0.163295
668.836800	0.163131
669.040779	0.163178
669.244739	0.163342
669.448681	0.163612
669.652605	0.163687
669.856511	0.163962
670.060399	0.164146
670.264268	0.164236
670.468119	0.164223
670.671952	0.164451
670.875767	0.164540
671.079563	0.164738
671.283341	0.164971
671.487101	0.165290
671.690843	0.165565
671.894567	0.165618
672.098272	0.165898
672.301959	0.166127
672.505628	0.166492
672.709278	0.166603
672.912911	0.166695
673.116525	0.166486
673.320121	0.166584
673.523699	0.166571
673.727258	0.166812
673.930799	0.166752
674.134322	0.166721
674.337827	0.166471
674.541314	0.166559
674.744782	0.166754
674.948232	0.166837
675.151664	0.166832
675.355078	0.166984
675.558474	0.166991
675.761851	0.167170
675.965210	0.167463
676.168551	0.167872
676.371873	0.167985
676.575178	0.167920
676.778464	0.168180
676.981732	0.168483
677.184981	0.168441
677.388213	0.168463
677.591426	0.168572
677.794621	0.168734
677.997798	0.168774
678.200956	0.168997
678.404097	0.169362
678.607219	0.169639
678.810323	0.169760
679.013408	0.169924
679.216476	0.170143
679.419525	0.170364
679.622556	0.170425
679.825569	0.170514
680.028563	0.170587
680.231540	0.170737
680.434498	0.170606
680.637438	0.170904
680.840359	0.170916
681.043263	0.171254
681.246148	0.171472
681.449015	0.171638
681.651864	0.171752
681.854694	0.171992
682.057506	0.172051
682.260301	0.172412
682.463076	0.172269
682.665834	0.172520
682.868573	0.172400
683.071295	0.172455
683.273998	0.172609
683.476682	0.172908
683.679349	0.173061
683.881997	0.173283
684.084627	0.173471
684.287239	0.173762
684.489833	0.173927
684.692408	0.174064
684.894965	0.174053
685.097504	0.174201
685.300025	0.174294
685.502527	0.174440
685.705012	0.174276
685.907478	0.174262
686.109925	0.174340
686.312355	0.174220
686.514766	0.174281
686.717159	0.174483
686.919534	0.174468
687.121891	0.174601
687.324230	0.174747
687.526550	0.174953
687.728852	0.175090
687.931136	0.175117
688.133401	0.175459
688.335649	0.175716
688.537878	0.175837
688.740089	0.175948
688.942281	0.175932
689.144456	0.176044
689.346612	0.176230
689.548750	0.176292
689.750870	0.176441
689.952971	0.176501
690.155055	0.176702
690.357120	0.176656
690.559167	0.176753
690.761195	0.176774
690.963206	0.176751
691.165198	0.176831
691.367172	0.177150
691.569128	0.177104
691.771065	0.177357
691.972984	0.177351
692.174885	0.177322
692.376768	0.177541
692.578633	0.177920
692.780479	0.178125
692.982308	0.178000
693.184118	0.178079
693.385909	0.178348
