sample name	sample
index	1244
start time	 04-29-2021  11:46:25 AM
880	0.478565
Peak Time (s)	91.537
Peak Height 	0.4786
calc peak height	90,93
Baseline Time (s)	9.537
Baseline Value 	-0.004623
subtract baseline	10,4
Abs	0.309747
Peak Time (s)	92.035
Peak Height 	0.3097
calc peak height	90,93
Baseline Time (s)	11.535
Baseline Value 	0.004624
subtract baseline	10,3
PK_550	0.158620
Peak Time (s)	90.036
Peak Height 	0.1586
calc peak height	90,93
Baseline Time (s)	9.037
Baseline Value 	8.613E-4
subtract baseline	10,2
PK_880	0.289755
Peak Time (s)	90.036
Peak Height 	0.2898
calc peak height	90,93
Baseline Time (s)	11.035
Baseline Value 	0.002307
subtract baseline	10,1


Time (s)	A880-A510	A880-A775	A880-A975	A880	I510	I775	I975	I880	
0.036500	-0.002437	-0.001231	-0.005988	0.001859	6204.737121	44075.798377	3891.105880	22810.575734
0.537500	-0.001739	-0.000462	-0.004744	0.004376	6190.823553	43910.339278	3888.075860	22695.324669
1.037500	-0.001757	-0.000595	-0.003634	0.003596	6196.643918	43971.496395	3892.577881	22730.973851
1.535500	-0.001475	-0.000660	-0.004990	0.005825	6181.797370	43754.956088	3884.055292	22629.271128
2.035500	-0.001838	0.000127	-0.002255	0.001393	6212.897767	44249.077326	3901.158842	22831.953435
2.535500	-0.000653	-0.000507	-0.001273	0.000559	6228.444235	44268.124881	3905.538627	22870.346093
3.036000	-0.001781	-0.000666	-0.005465	-0.002226	6241.247003	44519.069689	3902.144588	22999.008970
3.536000	-0.006034	-0.000972	-0.005787	0.004851	6154.639817	43817.370672	3884.475962	22673.662374
4.036500	0.002214	-0.000055	0.002766	0.000824	6248.570027	44285.932291	3914.697506	22858.133237
4.536500	-0.000695	0.000202	-0.002465	0.000905	6225.440300	44302.695185	3901.827596	22854.383809
5.037000	-0.000414	-0.000283	-0.004013	0.000196	6233.086110	44324.074825	3899.812019	22887.077029
5.534500	-0.000272	-0.000045	-0.002673	0.000570	6231.287247	44311.076972	3902.133382	22869.804822
6.035000	0.000270	-0.000141	-0.003927	0.000386	6236.910176	44319.471282	3899.560698	22878.318513
6.535000	-0.000359	-0.000215	-0.000411	0.000587	6230.493500	44293.253980	3907.554050	22869.034398
7.035500	-0.000884	-0.000135	-0.001254	0.000130	6229.964484	44344.407296	3906.619256	22890.081811
7.535500	-0.001678	-0.000258	-0.002732	-0.000255	6226.810199	44369.515831	3903.980523	22907.859613
8.036000	0.000551	-0.000198	-0.002050	-0.000083	6242.710679	44358.800734	3905.211118	22899.901843
8.536000	0.000451	0.000318	-0.002364	0.000264	6239.248431	44374.902668	3903.615006	22883.907014
9.036500	-0.000424	0.000000	0.002912	-0.000179	6235.906740	44386.876131	3917.500028	22904.346226
9.537000	-0.000512	0.000254	-0.001663	0.000000	6233.844530	44394.044999	3905.945991	22896.093849
10.037000	0.002663	-0.000003	0.000365	0.000248	6256.540401	44345.783197	3910.258075	22884.664591
10.535000	-0.000960	-0.000109	-0.003169	-0.000085	6231.039414	44367.468881	3902.519194	22900.023823
11.035000	0.000000	-0.000449	0.001293	-0.000521	6241.831752	44376.624641	3914.383303	22920.110222
11.535000	0.001098	0.000832	0.000000	0.001121	6237.630848	44342.265935	3907.258782	22844.490440
12.035000	-0.001160	-0.000663	-0.001669	-0.000021	6228.998055	44308.457721	3905.982812	22897.046621
12.536000	-0.002608	-0.000722	-0.001554	-0.000615	6222.420456	44359.530213	3907.699592	22924.476993
13.038500	-0.001016	0.000014	0.003589	-0.000439	6233.343627	44413.119782	3919.794572	22916.362536
13.536500	-0.000509	-0.001026	-0.002170	-0.000212	6235.509545	44292.121300	3905.233961	22905.882986
14.036500	-0.002065	-0.000659	0.000798	0.002114	6205.626671	44105.813351	3906.786574	22798.845133
14.537000	0.000150	0.000164	0.001198	0.001673	6226.040168	44225.959398	3908.824099	22819.113789
15.039500	-0.001480	-0.000352	-0.001687	-0.000538	6230.526308	44387.609785	3907.191011	22920.923630
15.535000	-0.003044	0.000357	-0.001724	0.004495	6179.981906	43976.467671	3894.992112	22689.904470
16.035000	0.000017	-0.000139	-0.004312	-0.000213	6239.580110	44376.825784	3900.074908	22905.907862
16.535000	-0.001354	-0.000572	-0.000353	-0.000935	6234.563225	44404.394048	3911.385439	22939.237588
17.035500	0.000676	0.000037	-0.001109	-0.003544	6270.606543	44713.215505	3915.899027	23060.190954
17.540500	-0.001677	-0.000850	-0.000515	0.000478	6221.170027	44243.097022	3907.566530	22874.045380
18.036500	-0.000788	-0.000555	-0.003554	0.000970	6224.224259	44224.323559	3899.052651	22851.397373
18.536500	-0.000330	-0.000157	-0.000884	0.001195	6226.020207	44240.843307	3904.941843	22841.047228
19.037500	0.000149	-0.000534	-0.001407	0.000829	6232.548447	44239.831404	3904.561969	22857.896921
19.537000	-0.003040	-0.000451	-0.002528	0.001147	6205.568913	44217.478259	3901.095202	22843.296029
20.037000	-0.001535	0.000195	-0.006154	0.001022	6218.076810	44290.811317	3892.704023	22849.014745
20.535000	-0.001029	0.000106	-0.001939	0.000788	6223.776471	44304.690610	3903.379986	22859.806474
21.035500	-0.000715	-0.001034	-0.001880	0.000407	6229.129827	44232.376138	3904.438908	22877.323146
21.535000	0.000350	0.000188	-0.000249	0.001418	6229.551083	44252.488660	3905.935697	22830.805408
22.038500	-0.000257	0.000729	0.004680	0.001327	6225.569059	44312.722406	3918.140983	22834.988393
22.536000	-0.000958	-0.000041	-0.000846	0.001175	6221.346563	44253.871867	3905.082944	22842.004544
23.036500	-0.001412	-0.000498	-0.003179	0.001227	6217.451892	44205.387553	3899.338606	22839.610581
23.536500	-0.002630	-0.000865	-0.004108	0.000585	6213.024549	44231.594418	3898.649642	22869.146779
24.037000	0.000886	0.000311	-0.000941	0.001607	6232.231541	44246.199876	3903.810571	22822.143935
24.534000	-0.000574	-0.000452	0.003066	0.001046	6225.295336	44226.945795	3914.886461	22847.917767
25.035000	-0.002532	-0.000050	-0.002828	0.000819	6211.975855	44286.907480	3901.162302	22858.357730
25.535000	-0.001486	0.000615	-0.004088	0.001665	6213.516954	44269.615865	3896.108132	22819.475301
26.035000	0.000165	-0.000335	-0.001426	0.000806	6232.846726	44260.959894	3904.573245	22858.977119
26.535500	-0.001539	-0.000616	0.000307	0.000676	6220.704253	44246.578412	3909.077365	22864.933868
27.035500	0.000336	-0.000069	-0.005396	-0.001516	6252.163899	44508.195984	3900.601133	22966.125008
27.536500	0.000270	-0.000546	0.002791	-0.000043	6240.224791	44321.722489	3916.872070	22898.055376
28.036500	0.001164	0.000239	-0.000809	0.000034	6246.556237	44389.322492	3907.930618	22894.512776
28.536500	-0.000286	-0.000008	-0.001221	-0.000289	6237.827147	44396.621385	3907.715739	22909.440473
29.037000	0.000170	0.000490	-0.001131	-0.000101	6239.901265	44426.282871	3907.477345	22900.739323
29.537500	-0.002265	-0.000264	0.000322	0.002356	6202.245750	44120.370542	3905.050789	22787.765266
30.035000	0.001302	0.000550	0.001791	0.000431	6244.553960	44381.225529	3913.280589	22876.248875
30.535000	-0.002903	-0.000254	-0.001789	0.001989	6200.173164	44156.125035	3900.847720	22804.607016
31.035500	0.001348	0.001196	-0.004062	0.002564	6228.406142	44239.338389	3894.018398	22778.214636
31.536000	-0.003379	-0.001137	-0.007188	0.004130	6180.212890	43869.862773	3882.866320	22706.565980
32.036000	-0.000608	-0.000278	-0.000311	-0.000207	6234.698999	44363.027772	3909.722159	22905.636054
32.536500	0.000810	0.000210	-0.000852	-0.000387	6247.079028	44426.835213	3908.846942	22913.966465
33.036500	0.000094	0.000189	0.001995	-0.000366	6241.362619	44422.805417	3915.717129	22912.958130
33.537000	-0.002748	0.000304	0.001249	0.004313	6183.620097	43988.743644	3902.566377	22698.221761
34.037000	-0.000199	0.000774	0.000191	0.001913	6221.500866	44261.137288	3905.804219	22808.078862
34.534500	0.001020	0.000158	-0.002568	0.001610	6233.235175	44231.349824	3899.884524	22821.975961
35.035000	-0.000761	-0.000101	-0.005415	0.001430	6220.892845	44223.797914	3893.493894	22830.250182
35.535500	-0.001086	-0.000153	-0.003001	0.001961	6214.313962	44168.379438	3898.002972	22805.885082
36.038500	-0.001243	0.000656	-0.001769	0.002374	6209.930938	44206.045694	3899.968664	22786.908446
36.536000	-0.001455	0.000196	0.000749	0.002032	6210.931459	44194.735517	3906.863812	22802.601359
37.036000	-0.002152	0.000182	-0.000990	0.001622	6208.733227	44232.415817	3903.654374	22821.425127
37.536000	-0.001694	0.000510	0.002410	0.002398	6206.295365	44189.928177	3910.004654	22785.843592
38.037000	-0.003088	0.000162	-0.002740	0.002018	6198.527319	44192.879986	3898.492687	22803.249657
38.537500	-0.000220	0.000723	0.000111	0.002142	6219.581446	44234.491698	3905.058225	22797.566647
39.037500	-0.000736	0.000604	0.000677	0.002502	6212.845048	44188.873683	3905.554326	22781.044111
39.535000	-0.001320	0.000044	-0.005984	0.001906	6212.940061	44192.272163	3891.002649	22808.389653
40.035500	-0.000503	0.000352	-0.000624	0.001945	6218.918137	44217.862142	3903.757604	22806.593030
40.538500	0.000028	0.000044	0.000131	0.001716	6224.775509	44210.410941	3906.137201	22817.141974
41.035500	-0.002131	0.000255	-0.001131	0.002071	6205.453988	44196.765952	3902.233463	22800.841404
41.536000	-0.000707	0.000351	-0.001571	0.002013	6216.824850	44211.398820	3901.314144	22803.488348
42.036500	-0.001744	0.001116	0.003597	0.002439	6205.593913	44243.579160	3912.787191	22783.944754
42.537000	-0.000722	0.000319	-0.001237	0.001484	6220.779107	44258.687814	3903.392535	22827.793103
43.037000	-0.001888	0.000366	0.003332	0.001738	6209.866163	44239.002827	3913.849866	22816.120739
43.537500	0.000830	0.000419	0.002770	-0.000422	6247.502607	44450.192919	3917.749094	22915.583475
44.039500	0.000423	0.000446	0.000903	-0.000298	6243.383918	44440.969500	3912.893727	22909.854441
44.535000	-0.001141	-0.000335	0.003362	-0.000481	6232.703590	44383.728104	3919.340473	22918.305717
45.035500	-0.000705	-0.000617	0.004967	-0.000513	6236.317917	44359.838217	3923.353984	22919.763061
45.535500	-0.000797	0.000021	0.005482	0.000974	6224.123417	44278.870374	3920.967398	22851.212679
46.035500	0.000368	0.000228	-0.000273	-0.000129	6241.649286	44403.869722	3909.624556	22902.040907
46.536000	-0.000884	-0.000682	-0.003411	-0.000683	6236.246423	44369.845845	3903.374202	22927.592207
47.036500	-0.002479	0.000635	0.000525	0.003006	6195.632132	44143.929024	3903.970229	22757.942368
47.536500	-0.003765	0.000712	-0.003662	0.003413	6182.725112	44112.588302	3892.945429	22739.332025
48.037000	-0.001224	-0.000757	0.002087	-0.000431	6231.673473	44338.651608	3916.102718	22915.991973
48.537000	-0.000661	0.000244	-0.000791	-0.000125	6233.656778	44404.993522	3908.358501	22901.858558
49.034500	-0.001106	-0.000461	0.000490	-0.000886	6236.096172	44410.325243	3913.317770	22936.971647
49.535000	-0.001461	-0.000178	-0.003563	0.000608	6221.827752	44294.736302	3899.900670	22868.060265
50.035000	0.002642	0.000405	0.003301	0.002078	6242.169903	44210.407572	3912.947141	22800.526459
50.538500	0.009740	-0.007048	0.011841	0.029449	6088.734673	41026.619868	3868.103584	21583.172503
51.035000	0.021092	-0.018877	0.004100	0.251443	4854.794355	25150.877174	3452.419535	14094.259998
51.539000	0.002671	-0.041993	-0.019648	-0.123806	7373.632991	52967.589886	4195.582900	29501.790725
52.036500	0.012762	-0.116807	-0.009554	-0.295867	9716.227725	65535.000000	4893.519684	42448.595391
52.536500	0.013562	-0.089649	-0.003393	-0.265013	9259.015052	65004.152504	4780.914140	39734.343397
53.037000	0.012544	-0.055033	0.002053	-0.215059	8552.365984	62848.916165	4593.434086	35728.917420
53.534500	0.017243	-0.032941	0.006911	-0.169111	8038.220496	59644.279447	4436.606402	32430.061840
54.034500	0.015499	-0.024962	0.011156	-0.153782	7839.303846	58691.823746	4396.781399	31404.919701
54.538000	0.018609	-0.019175	0.013309	-0.150971	7842.711399	59075.494184	4394.448606	31220.786284
55.035500	0.028662	-0.015108	0.025010	-0.144324	7881.808455	58742.730782	4412.455638	30790.215872
55.536000	0.039537	-0.003368	0.034648	-0.089326	7398.405598	53447.873524	4258.112211	27469.203597
56.036000	0.059687	0.009290	0.054493	-0.025127	6962.399478	47790.512368	4122.003847	24088.888624
56.536500	0.070240	0.020353	0.068292	0.035254	6519.661802	42970.785922	3993.263113	21334.701285
57.037000	0.087954	0.033317	0.087026	0.086855	6246.313988	39559.298469	3910.389106	19266.187180
57.534000	0.103944	0.042624	0.105139	0.134358	6010.561954	36472.203287	3841.409813	17567.388988
58.037000	0.121474	0.053303	0.127625	0.177307	5832.477736	34067.543684	3796.066247	16183.494389
58.535000	0.140481	0.064741	0.139885	0.216861	5695.947163	32113.299194	3738.816434	15024.549194
59.037500	0.156053	0.074913	0.161102	0.249360	5588.228042	30649.021597	3716.181910	14148.215408
59.535500	0.177907	0.087678	0.179097	0.285879	5498.241416	29171.720146	3680.275829	13238.672908
60.035500	0.190732	0.096482	0.200839	0.307575	5445.260437	28403.024426	3680.362224	12733.415101
60.535500	0.199790	0.103895	0.204218	0.327450	5382.110062	27681.442759	3649.645475	12292.219917
61.036000	0.211622	0.109064	0.223047	0.358413	5274.198050	26252.068043	3627.783626	11643.865101
61.536500	0.217514	0.113486	0.228034	0.398720	5091.637772	24399.513042	3567.516187	10866.228050
62.037500	0.218937	0.117659	0.234023	0.402751	5078.386376	24406.542566	3570.731031	10792.354842
62.537500	0.225474	0.121308	0.242526	0.408176	5084.023732	24318.722703	3575.812398	10694.003282
63.051000	0.228581	0.124993	0.241749	0.407927	5101.144008	24513.704823	3574.939126	10698.500427
63.540500	0.234172	0.127282	0.246585	0.412265	5107.566267	24411.933248	3575.762805	10620.697244
64.035000	0.236589	0.130157	0.249034	0.412769	5117.405861	24529.763086	3578.992229	10611.701993
64.535500	0.240822	0.131257	0.259583	0.414409	5130.816748	24502.891323	3593.973286	10582.529829
65.035500	0.244532	0.132367	0.260133	0.420129	5120.418541	24274.708648	3585.242583	10481.619762
65.536000	0.244151	0.133002	0.251018	0.426744	5084.578935	23982.293101	3559.309454	10366.560187
66.036500	0.248460	0.136834	0.261008	0.428029	5099.997040	24106.347270	3573.543692	10344.410436
66.536500	0.248256	0.135857	0.262243	0.427763	5100.317355	24071.619567	3576.028775	10348.994214
67.036500	0.253088	0.137974	0.270162	0.431787	5104.455263	23978.855601	3582.513323	10280.020478
67.537500	0.252128	0.140762	0.264551	0.438255	5066.697868	23800.896333	3562.590571	10170.474892
68.034500	0.260357	0.142544	0.272046	0.440941	5094.813994	23757.462708	3570.455817	10125.468648
68.535000	0.257580	0.141681	0.279337	0.442184	5074.386465	23656.547029	3580.472492	10104.739275
69.035500	0.259939	0.144075	0.277509	0.445633	5068.880585	23606.155419	3571.724351	10047.507451
69.535500	0.262781	0.145198	0.270813	0.449357	5064.440198	23482.450197	3554.762127	9986.234564
70.036000	0.262653	0.144630	0.276267	0.449174	5064.714316	23464.221130	3563.887129	9989.226445
70.536000	0.263452	0.146328	0.276321	0.452061	5054.224457	23407.972227	3559.286835	9942.056834
71.036500	0.266856	0.147452	0.279717	0.455017	5056.467551	23321.573785	3559.998555	9894.085029
71.537000	0.268224	0.148774	0.283856	0.459919	5038.816283	23153.922495	3558.764139	9815.262925
72.036500	0.269497	0.149876	0.285166	0.458897	5050.265753	23253.238169	3562.547140	9831.621403
72.537000	0.273248	0.150448	0.290735	0.461207	5057.488874	23171.948644	3567.866901	9794.697012
73.035000	0.271854	0.150241	0.285140	0.462449	5044.300374	23104.402529	3556.751866	9774.921884
73.534500	0.276874	0.152071	0.299420	0.465421	5054.536323	23051.292699	3575.231623	9727.822632
74.035500	0.272996	0.151494	0.285133	0.464625	5039.144503	23061.469023	3553.238743	9740.411825
74.536000	0.274956	0.150898	0.290378	0.465358	5045.259689	22999.820650	3560.518032	9728.822122
75.036000	0.274299	0.153018	0.295625	0.468143	5028.148900	22969.054023	3564.522076	9684.981199
75.536500	0.276620	0.153520	0.287456	0.471454	5023.251781	22839.648027	3546.043146	9633.218094
76.036500	0.277495	0.153716	0.298405	0.469710	5036.232073	22928.925273	3566.502417	9660.434536
76.537000	0.280325	0.155156	0.298344	0.472271	5037.565804	22877.277496	3562.227824	9620.506501
77.037000	0.277359	0.155301	0.294233	0.473411	5017.246974	22831.545424	3553.741832	9602.814431
77.537500	0.278708	0.154761	0.300679	0.476629	5008.057348	22659.764288	3558.946329	9553.114587
78.035000	0.282342	0.158193	0.301772	0.477559	5021.364823	22773.993826	3559.211473	9538.822829
78.535000	0.284260	0.157879	0.299716	0.477604	5030.628512	22757.570649	3555.818639	9538.131242
79.035000	0.282162	0.158874	0.296619	0.480107	5007.943708	22688.677692	3546.855257	9499.808972
79.535500	0.281601	0.159945	0.304976	0.482382	4994.079153	22633.860318	3556.594911	9465.168484
80.036000	0.284079	0.159977	0.305105	0.480325	5016.288944	22729.043509	3560.127641	9496.478178
80.536500	0.285800	0.159719	0.300271	0.479425	5029.234848	22758.450349	3553.781871	9510.234981
81.036500	0.285429	0.161495	0.305029	0.483015	5009.705564	22675.601341	3555.660634	9455.567500
81.537000	0.283961	0.159303	0.300025	0.481782	5008.549555	22632.002700	3549.613144	9474.294347
82.037000	0.280293	0.158939	0.302613	0.479102	5003.710046	22737.534006	3558.075399	9515.169166
82.537500	0.285932	0.161419	0.306591	0.480528	5024.431704	22785.729707	3562.212194	9493.384776
83.035000	0.285376	0.161352	0.302680	0.482932	5009.851665	22672.898630	3552.019870	9456.832421
83.535500	0.283570	0.161409	0.306345	0.480351	5013.660414	22793.411660	3562.099651	9496.093325
84.035500	0.283010	0.160638	0.300001	0.478997	5017.568524	22820.156456	3554.035671	9516.779324
84.536000	0.284144	0.160358	0.308752	0.478900	5023.639489	22811.735101	3568.396964	9518.256160
85.036500	0.282119	0.160369	0.308296	0.480253	5007.014286	22750.290122	3565.438244	9497.582167
85.536500	0.286078	0.159851	0.307477	0.477558	5039.886915	22850.072937	3568.509129	9538.841839
86.037500	0.287215	0.160099	0.308242	0.476867	5049.006282	22893.232067	3570.899175	9549.450013
86.537000	0.285360	0.160979	0.313289	0.477588	5036.167792	22900.597519	3578.054801	9538.381694
87.037500	0.285998	0.161201	0.304593	0.480805	5023.384986	22763.071415	3558.522664	9489.158118
87.535000	0.285573	0.158794	0.303242	0.476086	5044.708982	22869.183573	3563.990583	9561.482835
88.035000	0.287011	0.161084	0.310019	0.477225	5046.199240	22922.170702	3573.239404	9543.951544
88.535500	0.291531	0.160306	0.311652	0.477885	5065.556829	22855.954657	3574.847394	9533.815636
89.036000	0.288625	0.160333	0.306444	0.477473	5053.030304	22876.166258	3566.955242	9540.145713
89.536000	0.288848	0.159556	0.306267	0.476693	5058.057417	22876.285241	3567.943157	9552.134198
90.036000	0.289755	0.158620	0.308970	0.476231	5064.942336	22854.483503	3573.148275	9559.244688
90.537000	0.285981	0.157011	0.302265	0.475029	5052.029981	22835.810548	3564.121993	9577.788943
91.036500	0.287926	0.157750	0.306805	0.475404	5059.901291	22852.520544	3570.943276	9571.994691
91.537000	0.284920	0.158119	0.308535	0.478565	5029.132918	22724.576455	3568.591703	9523.388098
92.034500	0.288786	0.156900	0.309747	0.474747	5067.536873	22843.641677	3576.889877	9582.140315
92.535000	0.288813	0.156935	0.300211	0.475783	5062.450767	22797.687276	3559.558365	9566.139468
93.035500	0.287052	0.157341	0.304723	0.479862	5033.278485	22630.071143	3560.260772	9503.557201
93.535500	0.286202	0.158234	0.304742	0.478801	5034.325005	22719.110460	3562.014753	9519.783595
94.036000	0.286221	0.156630	0.301797	0.474308	5056.842117	22851.402183	3564.533265	9588.928521
94.536000	0.288324	0.155705	0.303542	0.473828	5069.839900	22830.929416	3568.171188	9596.350374
95.036000	0.290351	0.156468	0.312194	0.479015	5053.948412	22628.889024	3573.874954	9516.497587
95.536500	0.291523	0.156988	0.309537	0.478548	5062.179860	22673.791989	3570.266104	9523.656806
96.040000	0.291500	0.157375	0.304472	0.475345	5078.230739	22838.017131	3567.210918	9572.906617
