sample name	sample
index	421
start time	 03-08-2021  11:36:03 AM


Wavelength (nm)	Absorbance
494.344910	-0.300474
494.563924	-0.300474
494.782919	-0.300474
495.001897	-0.158839
495.220856	-0.120659
495.439797	-0.073684
495.658719	-0.095233
495.877624	-0.081626
496.096510	-0.070968
496.315378	-0.035724
496.534227	-0.035166
496.753059	-0.044287
496.971872	-0.030143
497.190667	0.133796
497.409444	0.151088
497.628203	0.158179
497.846943	0.162210
498.065665	0.161242
498.284369	0.160097
498.503055	0.160435
498.721723	0.160117
498.940372	0.160725
499.159003	0.160494
499.377616	0.160451
499.596210	0.160770
499.814787	0.160285
500.033345	0.161121
500.251885	0.162361
500.470406	0.163107
500.688910	0.164283
500.907395	0.164826
501.125862	0.164563
501.344311	0.164525
501.562742	0.164991
501.781154	0.165564
501.999548	0.165249
502.217924	0.164070
502.436282	0.163956
502.654621	0.164023
502.872942	0.164007
503.091245	0.164517
503.309530	0.165193
503.527797	0.164895
503.746045	0.164569
503.964275	0.164943
504.182487	0.165837
504.400681	0.165842
504.618856	0.164839
504.837013	0.164286
505.055152	0.164872
505.273273	0.164128
505.491376	0.164295
505.709460	0.164884
505.927526	0.165503
506.145574	0.165235
506.363604	0.165076
506.581615	0.166481
506.799608	0.167224
507.017583	0.166665
507.235540	0.167328
507.453478	0.168131
507.671399	0.167925
507.889301	0.166760
508.107185	0.167642
508.325050	0.167477
508.542898	0.167167
508.760727	0.167103
508.978538	0.167633
509.196330	0.167764
509.414105	0.166950
509.631861	0.166613
509.849599	0.168117
510.067319	0.168004
510.285021	0.169056
510.502704	0.169754
510.720369	0.168663
510.938016	0.169332
511.155645	0.169846
511.373255	0.170928
511.590848	0.170932
511.808422	0.171389
512.025977	0.171340
512.243515	0.171291
512.461034	0.171482
512.678536	0.173543
512.896018	0.173726
513.113483	0.172658
513.330930	0.172359
513.548358	0.172231
513.765768	0.172346
513.983160	0.173271
514.200533	0.173162
514.417889	0.172748
514.635226	0.172563
514.852545	0.172418
515.069845	0.173814
515.287128	0.173361
515.504392	0.174516
515.721638	0.174413
515.938866	0.175730
516.156075	0.176676
516.373267	0.177230
516.590440	0.177569
516.807594	0.177448
517.024731	0.177457
517.241850	0.177970
517.458950	0.177493
517.676032	0.177632
517.893095	0.176383
518.110141	0.176817
518.327168	0.177316
518.544177	0.177112
518.761168	0.177608
518.978141	0.177604
519.195095	0.178131
519.412031	0.179081
519.628949	0.179981
519.845849	0.180388
520.062731	0.180253
520.279594	0.180685
520.496439	0.181739
520.713266	0.182317
520.930074	0.184043
521.146865	0.185038
521.363637	0.185722
521.580391	0.185233
521.797127	0.185505
522.013844	0.185757
522.230543	0.185750
522.447224	0.185647
522.663887	0.185559
522.880532	0.184994
523.097158	0.184742
523.313766	0.185205
523.530356	0.185825
523.746928	0.187052
523.963481	0.187598
524.180017	0.188557
524.396534	0.188412
524.613032	0.189285
524.829513	0.189303
525.045975	0.189692
525.262420	0.189125
525.478845	0.189944
525.695253	0.189970
525.911643	0.189704
526.128014	0.189416
526.344367	0.189713
526.560702	0.189186
526.777018	0.189944
526.993316	0.190541
527.209597	0.190757
527.425858	0.191275
527.642102	0.191142
527.858328	0.192442
528.074535	0.192954
528.290724	0.193887
528.506894	0.194683
528.723047	0.194937
528.939181	0.194896
529.155297	0.194987
529.371395	0.194264
529.587475	0.194644
529.803536	0.194498
530.019579	0.194859
530.235604	0.194675
530.451611	0.195329
530.667600	0.195709
530.883570	0.195812
531.099522	0.197350
531.315456	0.198050
531.531372	0.198309
531.747269	0.198405
531.963148	0.198349
532.179009	0.199036
532.394852	0.199511
532.610676	0.200060
532.826482	0.200556
533.042271	0.200528
533.258040	0.200667
533.473792	0.201741
533.689525	0.202042
533.905240	0.202750
534.120937	0.202719
534.336616	0.202594
534.552277	0.201877
534.767919	0.202209
534.983543	0.202580
535.199149	0.202898
535.414736	0.202572
535.630306	0.202949
535.845857	0.203151
536.061390	0.204167
536.276904	0.204600
536.492401	0.205615
536.707879	0.206677
536.923339	0.206824
537.138781	0.207538
537.354204	0.208479
537.569610	0.208720
537.784997	0.209129
538.000366	0.209705
538.215716	0.210142
538.431049	0.211082
538.646363	0.211364
538.861659	0.211872
539.076937	0.212054
539.292196	0.211480
539.507438	0.212013
539.722661	0.212009
539.937866	0.211737
540.153052	0.211877
540.368221	0.211261
540.583371	0.211546
540.798503	0.211395
541.013617	0.211940
541.228712	0.212863
541.443789	0.212937
541.658848	0.213694
541.873889	0.214561
542.088912	0.215333
542.303916	0.215960
542.518902	0.215871
542.733870	0.216390
542.948820	0.216767
543.163752	0.216824
543.378665	0.217471
543.593560	0.217678
543.808437	0.217505
544.023295	0.217791
544.238136	0.218127
544.452958	0.218604
544.667762	0.219460
544.882548	0.219448
545.097315	0.219399
545.312064	0.219709
545.526795	0.220119
545.741508	0.220709
545.956203	0.221000
546.170879	0.221007
546.385537	0.220965
546.600177	0.221200
546.814799	0.221739
547.029402	0.222108
547.243988	0.222174
547.458555	0.222324
547.673103	0.222654
547.887634	0.222629
548.102146	0.223284
548.316640	0.223747
548.531116	0.223862
548.745574	0.224022
548.960013	0.223932
549.174435	0.224179
549.388838	0.224594
549.603222	0.224414
549.817589	0.224808
550.031937	0.225170
550.246267	0.225441
550.460579	0.225414
550.674873	0.225756
550.889148	0.226363
551.103405	0.226705
551.317644	0.227061
551.531865	0.227103
551.746068	0.227363
551.960252	0.226965
552.174418	0.227270
552.388566	0.226973
552.602696	0.226943
552.816807	0.227407
553.030900	0.227636
553.244975	0.227573
553.459032	0.228119
553.673070	0.228194
553.887091	0.228372
554.101093	0.228831
554.315077	0.229593
554.529042	0.229896
554.742990	0.230258
554.956919	0.230383
555.170830	0.230537
555.384722	0.230564
555.598597	0.231063
555.812453	0.231758
556.026291	0.231925
556.240111	0.231985
556.453913	0.232538
556.667696	0.232765
556.881461	0.232808
557.095208	0.233088
557.308937	0.233638
557.522647	0.233671
557.736339	0.233696
557.950013	0.233624
558.163669	0.234077
558.377307	0.233686
558.590926	0.233600
558.804527	0.234146
559.018110	0.234420
559.231675	0.234693
559.445221	0.234736
559.658749	0.235135
559.872259	0.235393
560.085751	0.235617
560.299225	0.235932
560.512680	0.236560
560.726117	0.236899
560.939536	0.237203
561.152937	0.237442
561.366319	0.237908
561.579683	0.238205
561.793029	0.238406
562.006357	0.238875
562.219667	0.239413
562.432958	0.239183
562.646231	0.239156
562.859486	0.239263
563.072723	0.239568
563.285941	0.239630
563.499141	0.239709
563.712323	0.239878
563.925487	0.239841
564.138632	0.240278
564.351760	0.240751
564.564869	0.240758
564.777960	0.241256
564.991032	0.241251
565.204087	0.241627
565.417123	0.241859
565.630141	0.242310
565.843140	0.242901
566.056122	0.242840
566.269085	0.243055
566.482030	0.243191
566.694957	0.243251
566.907866	0.243555
567.120756	0.243970
567.333628	0.244186
567.546482	0.244254
567.759318	0.243997
567.972135	0.244359
568.184935	0.244532
568.397716	0.244724
568.610478	0.244946
568.823223	0.245226
569.035949	0.245218
569.248657	0.245317
569.461347	0.245232
569.674019	0.245426
569.886672	0.245393
570.099308	0.245605
570.311925	0.246226
570.524523	0.246263
570.737104	0.246124
570.949666	0.246326
571.162210	0.247029
571.374736	0.247455
571.587244	0.247845
571.799733	0.248081
572.012205	0.248159
572.224658	0.248407
572.437092	0.248861
572.649509	0.248948
572.861907	0.249319
573.074287	0.249288
573.286649	0.249566
573.498993	0.250040
573.711318	0.250644
573.923625	0.251082
574.135914	0.251048
574.348185	0.251390
574.560438	0.252201
574.772672	0.251975
574.984888	0.251937
575.197086	0.252258
575.409266	0.252109
575.621427	0.251726
575.833570	0.251833
576.045695	0.251940
576.257802	0.252044
576.469890	0.252275
576.681961	0.252693
576.894013	0.253295
577.106046	0.253506
577.318062	0.253707
577.530059	0.254251
577.742039	0.254301
577.954000	0.254474
578.165942	0.254513
578.377867	0.253994
578.589773	0.254112
578.801661	0.254242
579.013531	0.254100
579.225382	0.254347
579.437216	0.254468
579.649031	0.254983
579.860828	0.255416
580.072606	0.255798
580.284367	0.256337
580.496109	0.256876
580.707833	0.257147
580.919539	0.258215
581.131227	0.258403
581.342896	0.258628
581.554547	0.258864
581.766180	0.259041
581.977795	0.259141
582.189391	0.259503
582.400969	0.259432
582.612529	0.259633
582.824071	0.259420
583.035595	0.259550
583.247100	0.259561
583.458587	0.259512
583.670056	0.259689
583.881506	0.260052
584.092939	0.260368
584.304353	0.260685
584.515749	0.260681
584.727127	0.260960
584.938486	0.261242
585.149828	0.261712
585.361151	0.262072
585.572456	0.262795
585.783742	0.263032
585.995011	0.263277
586.206261	0.263319
586.417493	0.263350
586.628706	0.263298
586.839902	0.263453
587.051079	0.263733
587.262238	0.264216
587.473379	0.264301
587.684502	0.264125
587.895606	0.263905
588.106692	0.264041
588.317760	0.264210
588.528810	0.264570
588.739841	0.264613
588.950855	0.264429
589.161850	0.264209
589.372827	0.263857
589.583785	0.264222
589.794726	0.264777
590.005648	0.264902
590.216552	0.265096
590.427437	0.265078
590.638305	0.265464
590.849154	0.266064
591.059985	0.266682
591.270798	0.266637
591.481592	0.267061
591.692369	0.267007
591.903127	0.267375
592.113867	0.267730
592.324588	0.268045
592.535292	0.268429
592.745977	0.268416
592.956644	0.268277
593.167293	0.269045
593.377923	0.269221
593.588536	0.269781
593.799130	0.270317
594.009706	0.270710
594.220263	0.271138
594.430803	0.271289
594.641324	0.271910
594.851827	0.272150
595.062312	0.272690
595.272778	0.272491
595.483227	0.272474
595.693657	0.272386
595.904069	0.272422
596.114462	0.272452
596.324838	0.272069
596.535195	0.271870
596.745534	0.272098
596.955855	0.272063
597.166157	0.272851
597.376441	0.273285
597.586707	0.273274
597.796955	0.273550
598.007185	0.274021
598.217396	0.274747
598.427589	0.275099
598.637764	0.275122
598.847921	0.274982
599.058060	0.274737
599.268180	0.274743
599.478282	0.275342
599.688366	0.275628
599.898431	0.275700
600.108479	0.275944
600.318508	0.275967
600.528519	0.276265
600.738511	0.277063
600.948486	0.277421
601.158442	0.277447
601.368380	0.277299
601.578300	0.277340
601.788202	0.277384
601.998085	0.277604
602.207950	0.277841
602.417797	0.277981
602.627626	0.278117
602.837436	0.278598
603.047228	0.278796
603.257002	0.279061
603.466758	0.279138
603.676496	0.279244
603.886215	0.279788
604.095916	0.279887
604.305599	0.280125
604.515264	0.280003
604.724910	0.279946
604.934538	0.280230
605.144148	0.280589
605.353740	0.280886
605.563314	0.281132
605.772869	0.281004
605.982406	0.281378
606.191925	0.281944
606.401425	0.282108
606.610908	0.282569
606.820372	0.282819
607.029818	0.282999
607.239246	0.283201
607.448655	0.283251
607.658047	0.283287
607.867420	0.283738
608.076775	0.283383
608.286111	0.283656
608.495430	0.283613
608.704730	0.283687
608.914012	0.283800
609.123275	0.284282
609.332521	0.284563
609.541748	0.284808
609.750957	0.284604
609.960148	0.285196
610.169321	0.285297
610.378475	0.285302
610.587611	0.285493
610.796729	0.285800
611.005829	0.285719
611.214910	0.285666
611.423974	0.285937
611.633019	0.286457
611.842045	0.286320
612.051054	0.286758
612.260044	0.286919
612.469017	0.287442
612.677970	0.287695
612.886906	0.287912
613.095824	0.288289
613.304723	0.288392
613.513604	0.288023
613.722467	0.288183
613.931311	0.288033
614.140138	0.288114
614.348946	0.287992
614.557736	0.287916
614.766507	0.287995
614.975261	0.287906
615.183996	0.288177
615.392713	0.288585
615.601412	0.288710
615.810092	0.288904
616.018754	0.289427
616.227399	0.289589
616.436024	0.289945
616.644632	0.290266
616.853222	0.290805
617.061793	0.290840
617.270346	0.290937
617.478880	0.291532
617.687397	0.291854
617.895895	0.291566
618.104375	0.291574
618.312837	0.291747
618.521281	0.291974
618.729706	0.291855
618.938113	0.291950
619.146502	0.292018
619.354873	0.291816
619.563226	0.291853
619.771560	0.291959
619.979876	0.292342
620.188174	0.292194
620.396453	0.292002
620.604715	0.292350
620.812958	0.292379
621.021183	0.292776
621.229390	0.292966
621.437578	0.293190
621.645748	0.293523
621.853900	0.293582
622.062034	0.293962
622.270150	0.293948
622.478247	0.293884
622.686326	0.294284
622.894387	0.294404
623.102430	0.294566
623.310454	0.294685
623.518461	0.294981
623.726449	0.295379
623.934418	0.295317
624.142370	0.295823
624.350303	0.296364
624.558218	0.296521
624.766115	0.296685
624.973994	0.296805
625.181855	0.297221
625.389697	0.297311
625.597521	0.297272
625.805327	0.297711
626.013114	0.297787
626.220883	0.297717
626.428634	0.297802
626.636367	0.298112
626.844082	0.298540
627.051778	0.298442
627.259457	0.298461
627.467117	0.298678
627.674758	0.298873
627.882382	0.299311
628.089987	0.299581
628.297574	0.299627
628.505143	0.299597
628.712694	0.299739
628.920226	0.299882
629.127740	0.300042
629.335236	0.300435
629.542714	0.300571
629.750174	0.300585
629.957615	0.300750
630.165038	0.301127
630.372443	0.301442
630.579829	0.301628
630.787198	0.301623
630.994548	0.302257
631.201880	0.302158
631.409194	0.301990
631.616489	0.301842
631.823766	0.302147
632.031025	0.302406
632.238266	0.302545
632.445489	0.302517
632.652693	0.303018
632.859879	0.302987
633.067047	0.303033
633.274197	0.303346
633.481329	0.303666
633.688442	0.303380
633.895537	0.303255
634.102614	0.303329
634.309672	0.303872
634.516713	0.304159
634.723735	0.304413
634.930739	0.304879
635.137724	0.305066
635.344692	0.305384
635.551641	0.305918
635.758572	0.306487
635.965485	0.306932
636.172379	0.306878
636.379256	0.307014
636.586114	0.307001
636.792954	0.307184
636.999775	0.307755
637.206579	0.308047
637.413364	0.308127
637.620131	0.308075
637.826880	0.308066
638.033610	0.308465
638.240323	0.308507
638.447017	0.308745
638.653692	0.308617
638.860350	0.308605
639.066990	0.308954
639.273611	0.309389
639.480214	0.309559
639.686798	0.309725
639.893365	0.309745
640.099913	0.310070
640.306443	0.310290
640.512955	0.310736
640.719449	0.310646
640.925924	0.310624
641.132381	0.310517
641.338820	0.310758
641.545241	0.311027
641.751644	0.311376
641.958028	0.311291
642.164394	0.311374
642.370742	0.311601
642.577071	0.312171
642.783383	0.312364
642.989676	0.312945
643.195951	0.313097
643.402207	0.313328
643.608446	0.313456
643.814666	0.313966
644.020868	0.314354
644.227052	0.314608
644.433218	0.314564
644.639365	0.314641
644.845494	0.314710
645.051605	0.315169
645.257698	0.315300
645.463772	0.315391
645.669828	0.315335
645.875866	0.315530
646.081886	0.315639
646.287888	0.315922
646.493871	0.316139
646.699836	0.316251
646.905783	0.316361
647.111712	0.316703
647.317622	0.316699
647.523514	0.316963
647.729388	0.317246
647.935244	0.317154
648.141082	0.317561
648.346901	0.317807
648.552702	0.318186
648.758485	0.318020
648.964250	0.318108
649.169996	0.318506
649.375724	0.318958
649.581434	0.319247
649.787126	0.319636
649.992800	0.319711
650.198455	0.319903
650.404092	0.320073
650.609711	0.320497
650.815311	0.320470
651.020894	0.320583
651.226458	0.320614
651.432004	0.320638
651.637532	0.320979
651.843041	0.321054
652.048532	0.321282
652.254006	0.321521
652.459460	0.321742
652.664897	0.322169
652.870315	0.322334
653.075716	0.322489
653.281097	0.322619
653.486461	0.322777
653.691807	0.323010
653.897134	0.323249
654.102443	0.322931
654.307734	0.322995
654.513006	0.323392
654.718261	0.323909
654.923497	0.324292
655.128715	0.324634
655.333915	0.324997
655.539096	0.325173
655.744259	0.325187
655.949404	0.325785
656.154531	0.326110
656.359640	0.325868
656.564730	0.325920
656.769802	0.326038
656.974856	0.325961
657.179892	0.326111
657.384909	0.326172
657.589908	0.326637
657.794889	0.327036
657.999852	0.327170
658.204797	0.327733
658.409723	0.327824
658.614631	0.327789
658.819521	0.328181
659.024393	0.328355
659.229246	0.329021
659.434081	0.329167
659.638898	0.329293
659.843697	0.329786
660.048478	0.329951
660.253240	0.330246
660.457984	0.330764
660.662710	0.330855
660.867417	0.331009
661.072107	0.330864
661.276778	0.331120
661.481431	0.331207
661.686066	0.331331
661.890682	0.331419
662.095281	0.331810
662.299861	0.331958
662.504422	0.332579
662.708966	0.332620
662.913491	0.332995
663.117999	0.333280
663.322488	0.333648
663.526958	0.333673
663.731411	0.334033
663.935845	0.334122
664.140261	0.334416
664.344659	0.334345
664.549038	0.334976
664.753400	0.335145
664.957743	0.335378
665.162068	0.335652
665.366375	0.336101
665.570663	0.336294
665.774933	0.336570
665.979185	0.336962
666.183419	0.337390
666.387635	0.337449
666.591832	0.337800
666.796011	0.338195
667.000172	0.338460
667.204315	0.338902
667.408439	0.339086
667.612545	0.339278
667.816634	0.339442
668.020703	0.339556
668.224755	0.339829
668.428788	0.339818
668.632803	0.339859
668.836800	0.339991
669.040779	0.340017
669.244739	0.340439
669.448681	0.340673
669.652605	0.340875
669.856511	0.340933
670.060399	0.341131
670.264268	0.341447
670.468119	0.341575
670.671952	0.341621
670.875767	0.341728
671.079563	0.341836
671.283341	0.342123
671.487101	0.342370
671.690843	0.342702
671.894567	0.342860
672.098272	0.343217
672.301959	0.343728
672.505628	0.343898
672.709278	0.344346
672.912911	0.344590
673.116525	0.344614
673.320121	0.344805
673.523699	0.345024
673.727258	0.345181
673.930799	0.345394
674.134322	0.345242
674.337827	0.345754
674.541314	0.346066
674.744782	0.346294
674.948232	0.346677
675.151664	0.346980
675.355078	0.347192
675.558474	0.347567
675.761851	0.347791
675.965210	0.348402
676.168551	0.348525
676.371873	0.348636
676.575178	0.348831
676.778464	0.348928
676.981732	0.349114
677.184981	0.349351
677.388213	0.349847
677.591426	0.349954
677.794621	0.350119
677.997798	0.350256
678.200956	0.350324
678.404097	0.350564
678.607219	0.350838
678.810323	0.350978
679.013408	0.351147
679.216476	0.350925
679.419525	0.351293
679.622556	0.351414
679.825569	0.351675
680.028563	0.351861
680.231540	0.351931
680.434498	0.352242
680.637438	0.352378
680.840359	0.352608
681.043263	0.352781
681.246148	0.352909
681.449015	0.353071
681.651864	0.353122
681.854694	0.353525
682.057506	0.353959
682.260301	0.354178
682.463076	0.354458
682.665834	0.354702
682.868573	0.355198
683.071295	0.355358
683.273998	0.355971
683.476682	0.356408
683.679349	0.356750
683.881997	0.356846
684.084627	0.357132
684.287239	0.357448
684.489833	0.357792
684.692408	0.358071
684.894965	0.358477
685.097504	0.358545
685.300025	0.359075
685.502527	0.358991
685.705012	0.359204
685.907478	0.359318
686.109925	0.359192
686.312355	0.359517
686.514766	0.359694
686.717159	0.359901
686.919534	0.359913
687.121891	0.359901
687.324230	0.360251
687.526550	0.360534
687.728852	0.360560
687.931136	0.361073
688.133401	0.361214
688.335649	0.361536
688.537878	0.361644
688.740089	0.361999
688.942281	0.362262
689.144456	0.362615
689.346612	0.362963
689.548750	0.363344
689.750870	0.363597
689.952971	0.363620
690.155055	0.363720
690.357120	0.364310
690.559167	0.364361
690.761195	0.364518
690.963206	0.364628
691.165198	0.364913
691.367172	0.365334
691.569128	0.365303
691.771065	0.365754
691.972984	0.365725
692.174885	0.365822
692.376768	0.366106
692.578633	0.366258
692.780479	0.366322
692.982308	0.366249
693.184118	0.366310
693.385909	0.366521
