sample name	sample
index	1012
start time	 04-19-2021  11:36:44 AM


Wavelength (nm)	Absorbance
494.344910	-0.124472
494.563924	-0.124472
494.782919	-0.124472
495.001897	-0.042495
495.220856	-0.055691
495.439797	-0.046353
495.658719	-0.053523
495.877624	-0.046313
496.096510	-0.048402
496.315378	-0.061637
496.534227	-0.078506
496.753059	-0.068498
496.971872	-0.071404
497.190667	0.008964
497.409444	0.039491
497.628203	0.050443
497.846943	0.056243
498.065665	0.058689
498.284369	0.059443
498.503055	0.061246
498.721723	0.061585
498.940372	0.062097
499.159003	0.062736
499.377616	0.062309
499.596210	0.062000
499.814787	0.061165
500.033345	0.061013
500.251885	0.061878
500.470406	0.061531
500.688910	0.061343
500.907395	0.061330
501.125862	0.060762
501.344311	0.060602
501.562742	0.062177
501.781154	0.061374
501.999548	0.061680
502.217924	0.061211
502.436282	0.061399
502.654621	0.060770
502.872942	0.061608
503.091245	0.061280
503.309530	0.061280
503.527797	0.060598
503.746045	0.061367
503.964275	0.061193
504.182487	0.061797
504.400681	0.061594
504.618856	0.062489
504.837013	0.061428
505.055152	0.061811
505.273273	0.061766
505.491376	0.061946
505.709460	0.062184
505.927526	0.062249
506.145574	0.061936
506.363604	0.062191
506.581615	0.061195
506.799608	0.061478
507.017583	0.061730
507.235540	0.061430
507.453478	0.061140
507.671399	0.061341
507.889301	0.060774
508.107185	0.060792
508.325050	0.061045
508.542898	0.061608
508.760727	0.062397
508.978538	0.062237
509.196330	0.063006
509.414105	0.062364
509.631861	0.062130
509.849599	0.062137
510.067319	0.061260
510.285021	0.061654
510.502704	0.061921
510.720369	0.061256
510.938016	0.061456
511.155645	0.061140
511.373255	0.061668
511.590848	0.061218
511.808422	0.061035
512.025977	0.061590
512.243515	0.060309
512.461034	0.059963
512.678536	0.059510
512.896018	0.059122
513.113483	0.059632
513.330930	0.059817
513.548358	0.060270
513.765768	0.060797
513.983160	0.060250
514.200533	0.060594
514.417889	0.060698
514.635226	0.060722
514.852545	0.061286
515.069845	0.060448
515.287128	0.059874
515.504392	0.060414
515.721638	0.060576
515.938866	0.061235
516.156075	0.061409
516.373267	0.061673
516.590440	0.061977
516.807594	0.061405
517.024731	0.062200
517.241850	0.062868
517.458950	0.061443
517.676032	0.061683
517.893095	0.061549
518.110141	0.062086
518.327168	0.062191
518.544177	0.062177
518.761168	0.062601
518.978141	0.061999
519.195095	0.061501
519.412031	0.062616
519.628949	0.062947
519.845849	0.062740
520.062731	0.062124
520.279594	0.062027
520.496439	0.062182
520.713266	0.061035
520.930074	0.061097
521.146865	0.061218
521.363637	0.061564
521.580391	0.060557
521.797127	0.060932
522.013844	0.060879
522.230543	0.060714
522.447224	0.060614
522.663887	0.061856
522.880532	0.061871
523.097158	0.061273
523.313766	0.060159
523.530356	0.060425
523.746928	0.060424
523.963481	0.060633
524.180017	0.060584
524.396534	0.060996
524.613032	0.061085
524.829513	0.061848
525.045975	0.062418
525.262420	0.062879
525.478845	0.062962
525.695253	0.063331
525.911643	0.063649
526.128014	0.063569
526.344367	0.063681
526.560702	0.063147
526.777018	0.062692
526.993316	0.062841
527.209597	0.062550
527.425858	0.062568
527.642102	0.062205
527.858328	0.061636
528.074535	0.061530
528.290724	0.061246
528.506894	0.061728
528.723047	0.061227
528.939181	0.061255
529.155297	0.061962
529.371395	0.062294
529.587475	0.061999
529.803536	0.062368
530.019579	0.062346
530.235604	0.062117
530.451611	0.061956
530.667600	0.062990
530.883570	0.062886
531.099522	0.062527
531.315456	0.062164
531.531372	0.061904
531.747269	0.061815
531.963148	0.062022
532.179009	0.062230
532.394852	0.061994
532.610676	0.061466
532.826482	0.061516
533.042271	0.061761
533.258040	0.061761
533.473792	0.062401
533.689525	0.062344
533.905240	0.063058
534.120937	0.063160
534.336616	0.062940
534.552277	0.062707
534.767919	0.063367
534.983543	0.063195
535.199149	0.063400
535.414736	0.063165
535.630306	0.063474
535.845857	0.062536
536.061390	0.062501
536.276904	0.062735
536.492401	0.063329
536.707879	0.062846
536.923339	0.062688
537.138781	0.061833
537.354204	0.062269
537.569610	0.062185
537.784997	0.062984
538.000366	0.063100
538.215716	0.063222
538.431049	0.063261
538.646363	0.062873
538.861659	0.062811
539.076937	0.063769
539.292196	0.063233
539.507438	0.063210
539.722661	0.062422
539.937866	0.062618
540.153052	0.062374
540.368221	0.061771
540.583371	0.061618
540.798503	0.061819
541.013617	0.061705
541.228712	0.062670
541.443789	0.062856
541.658848	0.063366
541.873889	0.062962
542.088912	0.063376
542.303916	0.063456
542.518902	0.063578
542.733870	0.064063
542.948820	0.064080
543.163752	0.063615
543.378665	0.063451
543.593560	0.063253
543.808437	0.063227
544.023295	0.063620
544.238136	0.063687
544.452958	0.064055
544.667762	0.063796
544.882548	0.064061
545.097315	0.064211
545.312064	0.064181
545.526795	0.064465
545.741508	0.064662
545.956203	0.064231
546.170879	0.064281
546.385537	0.063985
546.600177	0.064036
546.814799	0.063811
547.029402	0.063744
547.243988	0.063966
547.458555	0.064222
547.673103	0.064331
547.887634	0.064355
548.102146	0.064483
548.316640	0.064713
548.531116	0.064419
548.745574	0.064433
548.960013	0.064273
549.174435	0.064184
549.388838	0.063812
549.603222	0.064094
549.817589	0.064209
550.031937	0.064548
550.246267	0.064792
550.460579	0.064965
550.674873	0.065057
550.889148	0.065334
551.103405	0.065254
551.317644	0.065399
551.531865	0.065298
551.746068	0.065357
551.960252	0.065161
552.174418	0.065181
552.388566	0.065458
552.602696	0.065220
552.816807	0.065175
553.030900	0.065417
553.244975	0.065306
553.459032	0.065348
553.673070	0.065334
553.887091	0.064966
554.101093	0.064734
554.315077	0.064873
554.529042	0.065312
554.742990	0.064853
554.956919	0.064953
555.170830	0.065055
555.384722	0.064862
555.598597	0.064839
555.812453	0.065378
556.026291	0.065455
556.240111	0.065315
556.453913	0.064909
556.667696	0.065229
556.881461	0.065019
557.095208	0.064968
557.308937	0.065211
557.522647	0.065019
557.736339	0.064757
557.950013	0.064603
558.163669	0.064657
558.377307	0.065102
558.590926	0.065066
558.804527	0.065096
559.018110	0.065182
559.231675	0.065203
559.445221	0.065455
559.658749	0.065608
559.872259	0.065654
560.085751	0.065628
560.299225	0.065543
560.512680	0.065906
560.726117	0.065859
560.939536	0.065657
561.152937	0.065642
561.366319	0.065545
561.579683	0.065830
561.793029	0.065992
562.006357	0.066027
562.219667	0.066258
562.432958	0.066072
562.646231	0.066394
562.859486	0.066610
563.072723	0.066490
563.285941	0.066871
563.499141	0.066684
563.712323	0.066707
563.925487	0.066577
564.138632	0.066325
564.351760	0.066648
564.564869	0.066450
564.777960	0.066677
564.991032	0.066572
565.204087	0.066315
565.417123	0.066192
565.630141	0.066251
565.843140	0.066268
566.056122	0.066381
566.269085	0.066255
566.482030	0.066637
566.694957	0.066750
566.907866	0.066733
567.120756	0.066718
567.333628	0.067092
567.546482	0.067299
567.759318	0.067185
567.972135	0.067214
568.184935	0.066990
568.397716	0.066913
568.610478	0.066618
568.823223	0.066948
569.035949	0.067496
569.248657	0.067378
569.461347	0.067537
569.674019	0.067929
569.886672	0.068170
570.099308	0.068103
570.311925	0.067959
570.524523	0.068077
570.737104	0.068141
570.949666	0.067744
571.162210	0.067714
571.374736	0.067686
571.587244	0.067373
571.799733	0.066953
572.012205	0.066809
572.224658	0.066722
572.437092	0.066576
572.649509	0.066416
572.861907	0.066582
573.074287	0.066768
573.286649	0.066603
573.498993	0.066522
573.711318	0.066471
573.923625	0.067036
574.135914	0.067072
574.348185	0.067252
574.560438	0.067456
574.772672	0.067240
574.984888	0.067018
575.197086	0.067008
575.409266	0.066941
575.621427	0.067411
575.833570	0.067298
576.045695	0.067446
576.257802	0.067335
576.469890	0.066929
576.681961	0.067319
576.894013	0.067373
577.106046	0.067541
577.318062	0.067615
577.530059	0.067341
577.742039	0.067256
577.954000	0.067182
578.165942	0.067503
578.377867	0.067809
578.589773	0.067203
578.801661	0.067299
579.013531	0.067194
579.225382	0.067868
579.437216	0.067761
579.649031	0.067845
579.860828	0.068103
580.072606	0.068096
580.284367	0.068143
580.496109	0.068531
580.707833	0.068359
580.919539	0.068333
581.131227	0.067983
581.342896	0.068119
581.554547	0.068087
581.766180	0.067602
581.977795	0.067404
582.189391	0.067391
582.400969	0.067433
582.612529	0.067369
582.824071	0.067332
583.035595	0.067470
583.247100	0.067802
583.458587	0.067970
583.670056	0.068393
583.881506	0.068441
584.092939	0.068148
584.304353	0.068029
584.515749	0.068085
584.727127	0.068438
584.938486	0.068282
585.149828	0.068146
585.361151	0.068138
585.572456	0.067941
585.783742	0.068134
585.995011	0.068529
586.206261	0.068928
586.417493	0.068868
586.628706	0.068740
586.839902	0.068915
587.051079	0.068722
587.262238	0.068737
587.473379	0.068620
587.684502	0.068516
587.895606	0.068699
588.106692	0.068504
588.317760	0.068734
588.528810	0.069051
588.739841	0.068952
588.950855	0.069045
589.161850	0.069113
589.372827	0.069507
589.583785	0.069500
589.794726	0.069411
590.005648	0.069398
590.216552	0.069554
590.427437	0.068911
590.638305	0.069026
590.849154	0.069110
591.059985	0.068960
591.270798	0.068935
591.481592	0.069387
591.692369	0.069632
591.903127	0.069713
592.113867	0.069576
592.324588	0.069973
592.535292	0.069963
592.745977	0.069965
592.956644	0.070035
593.167293	0.069922
593.377923	0.069496
593.588536	0.069237
593.799130	0.069143
594.009706	0.069330
594.220263	0.069336
594.430803	0.069629
594.641324	0.069824
594.851827	0.069632
595.062312	0.069793
595.272778	0.069936
595.483227	0.069547
595.693657	0.069245
595.904069	0.069289
596.114462	0.069017
596.324838	0.068720
596.535195	0.068670
596.745534	0.068871
596.955855	0.068808
597.166157	0.068962
597.376441	0.069433
597.586707	0.069646
597.796955	0.069416
598.007185	0.069474
598.217396	0.069450
598.427589	0.069329
598.637764	0.069490
598.847921	0.069509
599.058060	0.068957
599.268180	0.068745
599.478282	0.069083
599.688366	0.069336
599.898431	0.069325
600.108479	0.069604
600.318508	0.069388
600.528519	0.069657
600.738511	0.069642
600.948486	0.069854
601.158442	0.069858
601.368380	0.069574
601.578300	0.069586
601.788202	0.069687
601.998085	0.069535
602.207950	0.069794
602.417797	0.069409
602.627626	0.069487
602.837436	0.069629
603.047228	0.069687
603.257002	0.069949
603.466758	0.069697
603.676496	0.069888
603.886215	0.069706
604.095916	0.070009
604.305599	0.069898
604.515264	0.069717
604.724910	0.069965
604.934538	0.069917
605.144148	0.069697
605.353740	0.069962
605.563314	0.069851
605.772869	0.070177
605.982406	0.069898
606.191925	0.070024
606.401425	0.070034
606.610908	0.069816
606.820372	0.069680
607.029818	0.069750
607.239246	0.069782
607.448655	0.069843
607.658047	0.069748
607.867420	0.069853
608.076775	0.070006
608.286111	0.070132
608.495430	0.070312
608.704730	0.070620
608.914012	0.070707
609.123275	0.070562
609.332521	0.070564
609.541748	0.070567
609.750957	0.070722
609.960148	0.070804
610.169321	0.070738
610.378475	0.070493
610.587611	0.070579
610.796729	0.070717
611.005829	0.070865
611.214910	0.070720
611.423974	0.070599
611.633019	0.070689
611.842045	0.070531
612.051054	0.070651
612.260044	0.070826
612.469017	0.070622
612.677970	0.070516
612.886906	0.070334
613.095824	0.070442
613.304723	0.070503
613.513604	0.070513
613.722467	0.070625
613.931311	0.070541
614.140138	0.070430
614.348946	0.070698
614.557736	0.070471
614.766507	0.070594
614.975261	0.070726
615.183996	0.070911
615.392713	0.070684
615.601412	0.070888
615.810092	0.070909
616.018754	0.070958
616.227399	0.070934
616.436024	0.070968
616.644632	0.070831
616.853222	0.071037
617.061793	0.071124
617.270346	0.071266
617.478880	0.070937
617.687397	0.070905
617.895895	0.070994
618.104375	0.070782
618.312837	0.071027
618.521281	0.071258
618.729706	0.071077
618.938113	0.070823
619.146502	0.070888
619.354873	0.071123
619.563226	0.071303
619.771560	0.071091
619.979876	0.071260
620.188174	0.071249
620.396453	0.071177
620.604715	0.071127
620.812958	0.071189
621.021183	0.071008
621.229390	0.071060
621.437578	0.071050
621.645748	0.071217
621.853900	0.071274
622.062034	0.071405
622.270150	0.071409
622.478247	0.071460
622.686326	0.071610
622.894387	0.071754
623.102430	0.071850
623.310454	0.071896
623.518461	0.072089
623.726449	0.072277
623.934418	0.072047
624.142370	0.072218
624.350303	0.072275
624.558218	0.072399
624.766115	0.072496
624.973994	0.072193
625.181855	0.072191
625.389697	0.072083
625.597521	0.072111
625.805327	0.072231
626.013114	0.072257
626.220883	0.072166
626.428634	0.071974
626.636367	0.071830
626.844082	0.071896
627.051778	0.072082
627.259457	0.072278
627.467117	0.071812
627.674758	0.071890
627.882382	0.071736
628.089987	0.071879
628.297574	0.071960
628.505143	0.071826
628.712694	0.072021
628.920226	0.071892
629.127740	0.071949
629.335236	0.072254
629.542714	0.072283
629.750174	0.072387
629.957615	0.072488
630.165038	0.072730
630.372443	0.072942
630.579829	0.072891
630.787198	0.072896
630.994548	0.072746
631.201880	0.072908
631.409194	0.072702
631.616489	0.072579
631.823766	0.072532
632.031025	0.072453
632.238266	0.072524
632.445489	0.072411
632.652693	0.072460
632.859879	0.072384
633.067047	0.072236
633.274197	0.072407
633.481329	0.072810
633.688442	0.072887
633.895537	0.072889
634.102614	0.073000
634.309672	0.073013
634.516713	0.073044
634.723735	0.073000
634.930739	0.073074
635.137724	0.073065
635.344692	0.072709
635.551641	0.072707
635.758572	0.072520
635.965485	0.072545
636.172379	0.072758
636.379256	0.072846
636.586114	0.072784
636.792954	0.072731
636.999775	0.072886
637.206579	0.072988
637.413364	0.072763
637.620131	0.072744
637.826880	0.072534
638.033610	0.072468
638.240323	0.072531
638.447017	0.072818
638.653692	0.073033
638.860350	0.073180
639.066990	0.073093
639.273611	0.073196
639.480214	0.073406
639.686798	0.073454
639.893365	0.073331
640.099913	0.073251
640.306443	0.073086
640.512955	0.072979
640.719449	0.072739
640.925924	0.072927
641.132381	0.072940
641.338820	0.072952
641.545241	0.072916
641.751644	0.072991
641.958028	0.073043
642.164394	0.073262
642.370742	0.073350
642.577071	0.073344
642.783383	0.073332
642.989676	0.073449
643.195951	0.073252
643.402207	0.073323
643.608446	0.073513
643.814666	0.073401
644.020868	0.073164
644.227052	0.073190
644.433218	0.073216
644.639365	0.073071
644.845494	0.073216
645.051605	0.073365
645.257698	0.073278
645.463772	0.073152
645.669828	0.073286
645.875866	0.073317
646.081886	0.073332
646.287888	0.073386
646.493871	0.073613
646.699836	0.073426
646.905783	0.073663
647.111712	0.073813
647.317622	0.073716
647.523514	0.073818
647.729388	0.074126
647.935244	0.074092
648.141082	0.074187
648.346901	0.074137
648.552702	0.074153
648.758485	0.073901
648.964250	0.074014
649.169996	0.074239
649.375724	0.074019
649.581434	0.074094
649.787126	0.074070
649.992800	0.074183
650.198455	0.074262
650.404092	0.074477
650.609711	0.074654
650.815311	0.074550
651.020894	0.074513
651.226458	0.074633
651.432004	0.074340
651.637532	0.074281
651.843041	0.074041
652.048532	0.073930
652.254006	0.073735
652.459460	0.073749
652.664897	0.073744
652.870315	0.073822
653.075716	0.073741
653.281097	0.073869
653.486461	0.073926
653.691807	0.073989
653.897134	0.074209
654.102443	0.074384
654.307734	0.074512
654.513006	0.074466
654.718261	0.074403
654.923497	0.074568
655.128715	0.074717
655.333915	0.074660
655.539096	0.074628
655.744259	0.074520
655.949404	0.074664
656.154531	0.074517
656.359640	0.074606
656.564730	0.074649
656.769802	0.074613
656.974856	0.074506
657.179892	0.074662
657.384909	0.074801
657.589908	0.074895
657.794889	0.074916
657.999852	0.075117
658.204797	0.075142
658.409723	0.075197
658.614631	0.075183
658.819521	0.075432
659.024393	0.075279
659.229246	0.075388
659.434081	0.075346
659.638898	0.075021
659.843697	0.074816
660.048478	0.074915
660.253240	0.074907
660.457984	0.074811
660.662710	0.074655
660.867417	0.074726
661.072107	0.074610
661.276778	0.074704
661.481431	0.074942
661.686066	0.074852
661.890682	0.074762
662.095281	0.074841
662.299861	0.075113
662.504422	0.075047
662.708966	0.075198
662.913491	0.075463
663.117999	0.075393
663.322488	0.075254
663.526958	0.075351
663.731411	0.075381
663.935845	0.075260
664.140261	0.075253
664.344659	0.075423
664.549038	0.075486
664.753400	0.075289
664.957743	0.075395
665.162068	0.075707
665.366375	0.075955
665.570663	0.076050
665.774933	0.076028
665.979185	0.076101
666.183419	0.076111
666.387635	0.076195
666.591832	0.076376
666.796011	0.076363
667.000172	0.076205
667.204315	0.076181
667.408439	0.076521
667.612545	0.076798
667.816634	0.076749
668.020703	0.076743
668.224755	0.076879
668.428788	0.076865
668.632803	0.076982
668.836800	0.076902
669.040779	0.076937
669.244739	0.076673
669.448681	0.076753
669.652605	0.076716
669.856511	0.076879
670.060399	0.076826
670.264268	0.076688
670.468119	0.076556
670.671952	0.076749
670.875767	0.076823
671.079563	0.076848
671.283341	0.076794
671.487101	0.076933
671.690843	0.076658
671.894567	0.076586
672.098272	0.076653
672.301959	0.076733
672.505628	0.076662
672.709278	0.076591
672.912911	0.076665
673.116525	0.076663
673.320121	0.076557
673.523699	0.076907
673.727258	0.077047
673.930799	0.077123
674.134322	0.077314
674.337827	0.077435
674.541314	0.077428
674.744782	0.077424
674.948232	0.077466
675.151664	0.077733
675.355078	0.077413
675.558474	0.077456
675.761851	0.077571
675.965210	0.077460
676.168551	0.077542
676.371873	0.077495
676.575178	0.077645
676.778464	0.077596
676.981732	0.077350
677.184981	0.077336
677.388213	0.077096
677.591426	0.077188
677.794621	0.077313
677.997798	0.077353
678.200956	0.077513
678.404097	0.077413
678.607219	0.077604
678.810323	0.077740
679.013408	0.078000
679.216476	0.078097
679.419525	0.078232
679.622556	0.078035
679.825569	0.077990
680.028563	0.077993
680.231540	0.078030
680.434498	0.077962
680.637438	0.078179
680.840359	0.078196
681.043263	0.078329
681.246148	0.077991
681.449015	0.078062
681.651864	0.078006
681.854694	0.077950
682.057506	0.077932
682.260301	0.077962
682.463076	0.077541
682.665834	0.077535
682.868573	0.077509
683.071295	0.077741
683.273998	0.077901
683.476682	0.078103
683.679349	0.078266
683.881997	0.078408
684.084627	0.078420
684.287239	0.078774
684.489833	0.079011
684.692408	0.079215
684.894965	0.079329
685.097504	0.079203
685.300025	0.078991
685.502527	0.078815
685.705012	0.078589
685.907478	0.078558
686.109925	0.078496
686.312355	0.078358
686.514766	0.078148
686.717159	0.078050
686.919534	0.078009
687.121891	0.077993
687.324230	0.078131
687.526550	0.078204
687.728852	0.078233
687.931136	0.078278
688.133401	0.078258
688.335649	0.078182
688.537878	0.078040
688.740089	0.078117
688.942281	0.078210
689.144456	0.078203
689.346612	0.078247
689.548750	0.078275
689.750870	0.078290
689.952971	0.078266
690.155055	0.078374
690.357120	0.078457
690.559167	0.078459
690.761195	0.078531
690.963206	0.078507
691.165198	0.078510
691.367172	0.078594
691.569128	0.078471
691.771065	0.078693
691.972984	0.078732
692.174885	0.078970
692.376768	0.079007
692.578633	0.078939
692.780479	0.078904
692.982308	0.078988
693.184118	0.078883
