sample name	sample
index	841
start time	 04-05-2021  11:01:53 AM


Wavelength (nm)	Absorbance
494.344910	-0.025897
494.563924	-0.025897
494.782919	-0.025897
495.001897	-0.040436
495.220856	-0.023633
495.439797	-0.025096
495.658719	-0.020955
495.877624	-0.020478
496.096510	-0.032467
496.315378	-0.030114
496.534227	-0.025835
496.753059	-0.030119
496.971872	-0.018531
497.190667	0.048370
497.409444	0.073714
497.628203	0.077890
497.846943	0.083245
498.065665	0.088256
498.284369	0.089147
498.503055	0.088107
498.721723	0.087940
498.940372	0.088019
499.159003	0.088026
499.377616	0.087192
499.596210	0.087357
499.814787	0.087676
500.033345	0.087312
500.251885	0.087488
500.470406	0.088807
500.688910	0.089516
500.907395	0.088850
501.125862	0.089826
501.344311	0.089117
501.562742	0.089514
501.781154	0.089126
501.999548	0.088787
502.217924	0.088839
502.436282	0.088316
502.654621	0.089705
502.872942	0.090821
503.091245	0.089746
503.309530	0.090686
503.527797	0.090023
503.746045	0.090070
503.964275	0.090638
504.182487	0.091333
504.400681	0.092023
504.618856	0.090788
504.837013	0.090640
505.055152	0.091093
505.273273	0.092108
505.491376	0.093458
505.709460	0.093003
505.927526	0.092498
506.145574	0.092069
506.363604	0.091668
506.581615	0.091981
506.799608	0.092669
507.017583	0.092683
507.235540	0.092435
507.453478	0.092191
507.671399	0.093082
507.889301	0.092923
508.107185	0.093439
508.325050	0.093998
508.542898	0.094812
508.760727	0.094520
508.978538	0.095272
509.196330	0.095500
509.414105	0.095581
509.631861	0.095701
509.849599	0.096208
510.067319	0.096251
510.285021	0.096765
510.502704	0.096940
510.720369	0.097200
510.938016	0.095963
511.155645	0.096049
511.373255	0.096348
511.590848	0.095762
511.808422	0.096949
512.025977	0.097424
512.243515	0.096386
512.461034	0.096335
512.678536	0.095962
512.896018	0.096915
513.113483	0.096629
513.330930	0.096150
513.548358	0.096478
513.765768	0.096068
513.983160	0.095785
514.200533	0.095860
514.417889	0.095598
514.635226	0.096076
514.852545	0.096463
515.069845	0.096904
515.287128	0.098191
515.504392	0.097880
515.721638	0.097504
515.938866	0.097277
516.156075	0.098796
516.373267	0.099248
516.590440	0.099718
516.807594	0.099782
517.024731	0.099776
517.241850	0.099933
517.458950	0.100829
517.676032	0.101624
517.893095	0.102763
518.110141	0.101956
518.327168	0.101926
518.544177	0.101714
518.761168	0.102207
518.978141	0.102385
519.195095	0.102037
519.412031	0.101928
519.628949	0.102227
519.845849	0.101625
520.062731	0.102400
520.279594	0.101984
520.496439	0.102477
520.713266	0.102975
520.930074	0.102864
521.146865	0.102994
521.363637	0.104225
521.580391	0.104085
521.797127	0.104854
522.013844	0.105631
522.230543	0.107051
522.447224	0.107337
522.663887	0.106757
522.880532	0.107505
523.097158	0.107649
523.313766	0.107630
523.530356	0.107652
523.746928	0.107777
523.963481	0.107755
524.180017	0.108015
524.396534	0.108183
524.613032	0.108618
524.829513	0.108789
525.045975	0.109498
525.262420	0.109498
525.478845	0.109855
525.695253	0.110774
525.911643	0.110455
526.128014	0.109853
526.344367	0.110392
526.560702	0.111196
526.777018	0.111687
526.993316	0.112223
527.209597	0.112211
527.425858	0.112464
527.642102	0.112205
527.858328	0.112238
528.074535	0.113115
528.290724	0.113333
528.506894	0.113409
528.723047	0.113821
528.939181	0.113959
529.155297	0.114315
529.371395	0.114884
529.587475	0.114727
529.803536	0.115359
530.019579	0.115176
530.235604	0.115132
530.451611	0.115213
530.667600	0.115319
530.883570	0.115201
531.099522	0.115859
531.315456	0.115939
531.531372	0.116491
531.747269	0.117358
531.963148	0.118085
532.179009	0.118372
532.394852	0.119066
532.610676	0.119116
532.826482	0.120129
533.042271	0.120215
533.258040	0.121037
533.473792	0.121356
533.689525	0.121472
533.905240	0.121182
534.120937	0.122047
534.336616	0.122001
534.552277	0.122207
534.767919	0.121961
534.983543	0.122296
535.199149	0.122059
535.414736	0.122764
535.630306	0.122604
535.845857	0.123908
536.061390	0.123914
536.276904	0.124169
536.492401	0.124544
536.707879	0.124956
536.923339	0.124862
537.138781	0.125780
537.354204	0.125714
537.569610	0.125796
537.784997	0.125690
538.000366	0.125963
538.215716	0.126438
538.431049	0.126618
538.646363	0.126636
538.861659	0.127342
539.076937	0.126551
539.292196	0.126571
539.507438	0.127823
539.722661	0.127682
539.937866	0.127871
540.153052	0.128204
540.368221	0.128998
540.583371	0.128831
540.798503	0.129003
541.013617	0.129746
541.228712	0.129767
541.443789	0.129571
541.658848	0.129943
541.873889	0.130142
542.088912	0.130120
542.303916	0.130192
542.518902	0.130915
542.733870	0.131438
542.948820	0.131859
543.163752	0.132691
543.378665	0.132773
543.593560	0.133121
543.808437	0.133203
544.023295	0.133853
544.238136	0.134031
544.452958	0.134698
544.667762	0.134417
544.882548	0.134430
545.097315	0.134325
545.312064	0.134637
545.526795	0.135032
545.741508	0.135299
545.956203	0.135175
546.170879	0.134566
546.385537	0.134445
546.600177	0.134826
546.814799	0.134876
547.029402	0.135487
547.243988	0.135551
547.458555	0.135330
547.673103	0.135240
547.887634	0.135553
548.102146	0.136506
548.316640	0.136831
548.531116	0.137384
548.745574	0.137917
548.960013	0.137969
549.174435	0.138132
549.388838	0.139048
549.603222	0.140074
549.817589	0.140663
550.031937	0.140816
550.246267	0.140924
550.460579	0.140826
550.674873	0.140819
550.889148	0.140922
551.103405	0.141416
551.317644	0.141220
551.531865	0.140952
551.746068	0.140177
551.960252	0.140687
552.174418	0.141047
552.388566	0.141347
552.602696	0.141516
552.816807	0.141937
553.030900	0.141427
553.244975	0.141590
553.459032	0.142005
553.673070	0.142944
553.887091	0.142969
554.101093	0.142527
554.315077	0.142715
554.529042	0.142928
554.742990	0.142971
554.956919	0.143814
555.170830	0.143864
555.384722	0.143997
555.598597	0.144397
555.812453	0.144240
556.026291	0.145066
556.240111	0.145142
556.453913	0.145307
556.667696	0.145477
556.881461	0.145415
557.095208	0.146013
557.308937	0.145909
557.522647	0.145710
557.736339	0.146429
557.950013	0.146345
558.163669	0.146674
558.377307	0.146888
558.590926	0.147142
558.804527	0.148081
559.018110	0.148083
559.231675	0.148529
559.445221	0.148990
559.658749	0.148966
559.872259	0.149083
560.085751	0.149209
560.299225	0.149698
560.512680	0.149822
560.726117	0.149052
560.939536	0.149170
561.152937	0.149073
561.366319	0.148677
561.579683	0.148878
561.793029	0.148854
562.006357	0.148916
562.219667	0.149096
562.432958	0.149816
562.646231	0.150176
562.859486	0.150030
563.072723	0.150560
563.285941	0.150944
563.499141	0.151040
563.712323	0.151767
563.925487	0.151944
564.138632	0.152208
564.351760	0.152071
564.564869	0.152587
564.777960	0.153469
564.991032	0.153287
565.204087	0.153622
565.417123	0.153397
565.630141	0.153619
565.843140	0.153692
566.056122	0.153464
566.269085	0.153640
566.482030	0.153554
566.694957	0.153248
566.907866	0.153334
567.120756	0.153386
567.333628	0.153376
567.546482	0.153292
567.759318	0.154033
567.972135	0.154325
568.184935	0.154056
568.397716	0.154479
568.610478	0.154659
568.823223	0.154894
569.035949	0.154872
569.248657	0.155593
569.461347	0.155710
569.674019	0.155544
569.886672	0.155884
570.099308	0.155861
570.311925	0.155874
570.524523	0.156054
570.737104	0.155904
570.949666	0.156035
571.162210	0.155894
571.374736	0.156015
571.587244	0.155841
571.799733	0.155485
572.012205	0.155958
572.224658	0.155896
572.437092	0.155950
572.649509	0.156422
572.861907	0.156584
573.074287	0.157065
573.286649	0.157204
573.498993	0.157455
573.711318	0.157837
573.923625	0.157911
574.135914	0.158204
574.348185	0.158635
574.560438	0.158434
574.772672	0.158904
574.984888	0.159170
575.197086	0.159395
575.409266	0.159811
575.621427	0.160091
575.833570	0.160027
576.045695	0.159670
576.257802	0.159555
576.469890	0.160069
576.681961	0.159691
576.894013	0.159869
577.106046	0.159845
577.318062	0.160019
577.530059	0.160297
577.742039	0.160777
577.954000	0.161249
578.165942	0.161399
578.377867	0.161479
578.589773	0.162188
578.801661	0.162084
579.013531	0.162188
579.225382	0.162168
579.437216	0.162025
579.649031	0.162288
579.860828	0.162692
580.072606	0.162857
580.284367	0.162878
580.496109	0.163011
580.707833	0.163189
580.919539	0.163523
581.131227	0.163925
581.342896	0.164291
581.554547	0.164203
581.766180	0.164049
581.977795	0.164100
582.189391	0.164688
582.400969	0.164526
582.612529	0.164675
582.824071	0.164393
583.035595	0.164381
583.247100	0.164641
583.458587	0.164584
583.670056	0.164967
583.881506	0.164740
584.092939	0.164872
584.304353	0.164831
584.515749	0.165182
584.727127	0.165518
584.938486	0.165162
585.149828	0.164970
585.361151	0.164926
585.572456	0.165362
585.783742	0.165456
585.995011	0.165343
586.206261	0.165532
586.417493	0.165296
586.628706	0.165684
586.839902	0.166119
587.051079	0.166325
587.262238	0.166917
587.473379	0.166922
587.684502	0.167903
587.895606	0.168000
588.106692	0.168343
588.317760	0.168692
588.528810	0.168901
588.739841	0.169019
588.950855	0.169488
589.161850	0.169747
589.372827	0.169901
589.583785	0.169661
589.794726	0.170037
590.005648	0.170034
590.216552	0.170169
590.427437	0.170533
590.638305	0.170630
590.849154	0.170429
591.059985	0.170301
591.270798	0.170652
591.481592	0.170744
591.692369	0.171029
591.903127	0.171180
592.113867	0.171436
592.324588	0.171250
592.535292	0.171425
592.745977	0.171498
592.956644	0.171771
593.167293	0.171383
593.377923	0.171372
593.588536	0.171197
593.799130	0.171623
594.009706	0.171551
594.220263	0.171678
594.430803	0.172122
594.641324	0.172087
594.851827	0.172574
595.062312	0.172988
595.272778	0.173631
595.483227	0.173648
595.693657	0.173927
595.904069	0.174309
596.114462	0.174100
596.324838	0.173965
596.535195	0.174398
596.745534	0.174451
596.955855	0.174489
597.166157	0.174106
597.376441	0.174595
597.586707	0.174400
597.796955	0.174357
598.007185	0.174918
598.217396	0.175110
598.427589	0.175209
598.637764	0.175270
598.847921	0.175338
599.058060	0.175575
599.268180	0.175837
599.478282	0.176220
599.688366	0.176537
599.898431	0.176674
600.108479	0.176722
600.318508	0.177289
600.528519	0.177113
600.738511	0.177215
600.948486	0.177699
601.158442	0.177536
601.368380	0.177691
601.578300	0.177820
601.788202	0.177877
601.998085	0.178241
602.207950	0.178052
602.417797	0.178203
602.627626	0.178608
602.837436	0.178803
603.047228	0.178835
603.257002	0.179028
603.466758	0.178907
603.676496	0.179074
603.886215	0.178888
604.095916	0.179182
604.305599	0.179491
604.515264	0.179385
604.724910	0.179165
604.934538	0.179595
605.144148	0.179665
605.353740	0.179860
605.563314	0.179803
605.772869	0.180283
605.982406	0.180204
606.191925	0.180645
606.401425	0.180846
606.610908	0.181172
606.820372	0.181004
607.029818	0.181101
607.239246	0.180960
607.448655	0.180987
607.658047	0.180899
607.867420	0.181047
608.076775	0.181055
608.286111	0.181369
608.495430	0.181198
608.704730	0.181468
608.914012	0.181397
609.123275	0.181773
609.332521	0.181902
609.541748	0.182372
609.750957	0.182517
609.960148	0.182457
610.169321	0.182199
610.378475	0.182628
610.587611	0.182596
610.796729	0.183024
611.005829	0.182806
611.214910	0.183415
611.423974	0.183051
611.633019	0.183183
611.842045	0.183254
612.051054	0.183327
612.260044	0.183258
612.469017	0.183634
612.677970	0.183636
612.886906	0.184122
613.095824	0.184213
613.304723	0.184398
613.513604	0.184505
613.722467	0.184638
613.931311	0.185069
614.140138	0.185424
614.348946	0.185431
614.557736	0.185515
614.766507	0.185643
614.975261	0.185428
615.183996	0.185859
615.392713	0.186021
615.601412	0.186312
615.810092	0.186459
616.018754	0.186421
616.227399	0.186630
616.436024	0.187003
616.644632	0.187205
616.853222	0.187547
617.061793	0.187615
617.270346	0.187497
617.478880	0.187440
617.687397	0.187665
617.895895	0.187819
618.104375	0.187984
618.312837	0.188027
618.521281	0.188068
618.729706	0.188109
618.938113	0.188122
619.146502	0.188360
619.354873	0.188643
619.563226	0.188841
619.771560	0.189058
619.979876	0.189231
620.188174	0.189403
620.396453	0.189481
620.604715	0.189776
620.812958	0.189839
621.021183	0.190145
621.229390	0.190060
621.437578	0.190060
621.645748	0.190203
621.853900	0.190279
622.062034	0.190067
622.270150	0.190162
622.478247	0.190256
622.686326	0.190489
622.894387	0.190662
623.102430	0.190855
623.310454	0.190928
623.518461	0.190998
623.726449	0.191248
623.934418	0.191551
624.142370	0.191744
624.350303	0.191703
624.558218	0.191738
624.766115	0.191686
624.973994	0.191831
625.181855	0.192190
625.389697	0.192276
625.597521	0.192239
625.805327	0.192409
626.013114	0.192694
626.220883	0.192841
626.428634	0.193090
626.636367	0.193490
626.844082	0.193966
627.051778	0.193950
627.259457	0.194198
627.467117	0.194453
627.674758	0.194551
627.882382	0.194545
628.089987	0.194826
628.297574	0.194958
628.505143	0.194957
628.712694	0.194793
628.920226	0.194943
629.127740	0.195235
629.335236	0.195734
629.542714	0.196121
629.750174	0.196565
629.957615	0.196721
630.165038	0.196691
630.372443	0.196618
630.579829	0.196796
630.787198	0.196591
630.994548	0.196639
631.201880	0.196236
631.409194	0.196083
631.616489	0.196073
631.823766	0.196182
632.031025	0.196713
632.238266	0.197035
632.445489	0.197110
632.652693	0.197503
632.859879	0.197608
633.067047	0.197922
633.274197	0.198236
633.481329	0.198244
633.688442	0.198303
633.895537	0.198272
634.102614	0.198364
634.309672	0.198610
634.516713	0.199055
634.723735	0.199098
634.930739	0.199131
635.137724	0.199347
635.344692	0.199484
635.551641	0.199729
635.758572	0.199895
635.965485	0.200225
636.172379	0.200339
636.379256	0.200078
636.586114	0.200184
636.792954	0.200518
636.999775	0.200783
637.206579	0.201063
637.413364	0.201027
637.620131	0.201009
637.826880	0.201028
638.033610	0.201050
638.240323	0.201352
638.447017	0.201658
638.653692	0.201975
638.860350	0.202027
639.066990	0.202468
639.273611	0.202777
639.480214	0.203038
639.686798	0.203347
639.893365	0.203678
640.099913	0.203666
640.306443	0.203558
640.512955	0.203447
640.719449	0.203305
640.925924	0.203175
641.132381	0.203325
641.338820	0.203373
641.545241	0.203288
641.751644	0.203374
641.958028	0.203517
642.164394	0.203747
642.370742	0.203869
642.577071	0.203882
642.783383	0.203900
642.989676	0.204010
643.195951	0.204239
643.402207	0.204515
643.608446	0.204517
643.814666	0.205013
644.020868	0.205297
644.227052	0.205602
644.433218	0.205931
644.639365	0.206165
644.845494	0.206395
645.051605	0.206475
645.257698	0.206673
645.463772	0.206860
645.669828	0.206878
645.875866	0.206930
646.081886	0.207025
646.287888	0.207380
646.493871	0.207665
646.699836	0.207791
646.905783	0.207929
647.111712	0.208040
647.317622	0.208526
647.523514	0.208622
647.729388	0.208881
647.935244	0.209017
648.141082	0.209157
648.346901	0.209174
648.552702	0.209564
648.758485	0.210039
648.964250	0.210333
649.169996	0.210411
649.375724	0.210471
649.581434	0.210550
649.787126	0.210629
649.992800	0.210536
650.198455	0.210862
650.404092	0.211043
650.609711	0.210939
650.815311	0.211035
651.020894	0.211036
651.226458	0.211275
651.432004	0.211527
651.637532	0.211755
651.843041	0.212205
652.048532	0.212296
652.254006	0.212391
652.459460	0.212810
652.664897	0.213006
652.870315	0.213165
653.075716	0.213367
653.281097	0.213707
653.486461	0.213920
653.691807	0.214133
653.897134	0.214304
654.102443	0.214401
654.307734	0.214301
654.513006	0.214258
654.718261	0.214577
654.923497	0.214956
655.128715	0.215023
655.333915	0.215018
655.539096	0.215270
655.744259	0.215566
655.949404	0.215724
656.154531	0.216079
656.359640	0.216641
656.564730	0.217136
656.769802	0.217529
656.974856	0.217941
657.179892	0.218400
657.384909	0.218242
657.589908	0.218449
657.794889	0.218621
657.999852	0.218767
658.204797	0.218897
658.409723	0.218927
658.614631	0.218846
658.819521	0.218868
659.024393	0.219157
659.229246	0.219619
659.434081	0.219707
659.638898	0.219938
659.843697	0.220028
660.048478	0.219978
660.253240	0.220258
660.457984	0.220300
660.662710	0.220526
660.867417	0.220361
661.072107	0.220365
661.276778	0.220648
661.481431	0.220775
661.686066	0.221145
661.890682	0.221279
662.095281	0.221333
662.299861	0.221615
662.504422	0.221830
662.708966	0.222420
662.913491	0.222686
663.117999	0.222703
663.322488	0.223081
663.526958	0.223440
663.731411	0.223761
663.935845	0.223771
664.140261	0.224139
664.344659	0.224298
664.549038	0.224284
664.753400	0.224474
664.957743	0.224749
665.162068	0.224699
665.366375	0.224751
665.570663	0.225060
665.774933	0.225432
665.979185	0.225437
666.183419	0.225669
666.387635	0.226205
666.591832	0.226404
666.796011	0.226566
667.000172	0.227050
667.204315	0.227316
667.408439	0.227558
667.612545	0.227906
667.816634	0.228293
668.020703	0.228534
668.224755	0.228473
668.428788	0.228533
668.632803	0.228776
668.836800	0.228855
669.040779	0.229147
669.244739	0.229391
669.448681	0.229518
669.652605	0.229599
669.856511	0.229808
670.060399	0.229960
670.264268	0.230323
670.468119	0.230498
670.671952	0.230565
670.875767	0.230702
671.079563	0.231000
671.283341	0.231244
671.487101	0.231545
671.690843	0.231590
671.894567	0.231749
672.098272	0.232037
672.301959	0.232486
672.505628	0.232859
672.709278	0.233071
672.912911	0.233063
673.116525	0.232979
673.320121	0.233184
673.523699	0.233473
673.727258	0.233590
673.930799	0.233792
674.134322	0.233969
674.337827	0.234076
674.541314	0.234398
674.744782	0.234538
674.948232	0.234853
675.151664	0.234989
675.355078	0.235134
675.558474	0.235337
675.761851	0.235389
675.965210	0.235449
676.168551	0.235853
676.371873	0.235969
676.575178	0.236284
676.778464	0.236406
676.981732	0.236571
677.184981	0.236543
677.388213	0.236931
677.591426	0.237250
677.794621	0.237457
677.997798	0.237739
678.200956	0.238113
678.404097	0.238155
678.607219	0.238419
678.810323	0.238652
679.013408	0.238993
679.216476	0.239365
679.419525	0.239527
679.622556	0.239703
679.825569	0.239766
680.028563	0.239564
680.231540	0.240035
680.434498	0.240185
680.637438	0.240491
680.840359	0.240846
681.043263	0.240940
681.246148	0.241287
681.449015	0.241483
681.651864	0.241687
681.854694	0.242100
682.057506	0.242232
682.260301	0.242631
682.463076	0.242862
682.665834	0.243058
682.868573	0.243446
683.071295	0.243609
683.273998	0.243972
683.476682	0.244034
683.679349	0.244151
683.881997	0.244292
684.084627	0.244479
684.287239	0.244591
684.489833	0.244806
684.692408	0.244864
684.894965	0.244941
685.097504	0.245002
685.300025	0.245270
685.502527	0.245454
685.705012	0.245629
685.907478	0.245589
686.109925	0.245693
686.312355	0.245803
686.514766	0.245822
686.717159	0.246033
686.919534	0.246183
687.121891	0.246224
687.324230	0.246288
687.526550	0.246560
687.728852	0.247047
687.931136	0.247255
688.133401	0.247583
688.335649	0.247926
688.537878	0.248190
688.740089	0.248312
688.942281	0.248865
689.144456	0.249211
689.346612	0.249545
689.548750	0.249557
689.750870	0.249935
689.952971	0.249995
690.155055	0.250284
690.357120	0.250357
690.559167	0.250719
690.761195	0.250834
690.963206	0.251125
691.165198	0.251019
691.367172	0.251268
691.569128	0.251060
691.771065	0.251580
691.972984	0.251602
692.174885	0.251927
692.376768	0.252152
692.578633	0.252109
692.780479	0.252150
692.982308	0.252692
693.184118	0.252844
693.385909	0.253251
