sample name	sample
index	1104
start time	 04-22-2021  12:48:05 PM


Wavelength (nm)	Absorbance
494.344910	0.614226
494.563924	0.614226
494.782919	0.614226
495.001897	NaN
495.220856	0.963972
495.439797	0.213793
495.658719	0.028865
495.877624	0.002314
496.096510	-0.080921
496.315378	-0.137116
496.534227	-0.256844
496.753059	-0.140871
496.971872	-0.133267
497.190667	0.062979
497.409444	0.081845
497.628203	0.083470
497.846943	0.085477
498.065665	0.086875
498.284369	0.085334
498.503055	0.084897
498.721723	0.084621
498.940372	0.083635
499.159003	0.084532
499.377616	0.085508
499.596210	0.085867
499.814787	0.086120
500.033345	0.086625
500.251885	0.087648
500.470406	0.088746
500.688910	0.088475
500.907395	0.089680
501.125862	0.089468
501.344311	0.088705
501.562742	0.087954
501.781154	0.088698
501.999548	0.088331
502.217924	0.088203
502.436282	0.087585
502.654621	0.087573
502.872942	0.087035
503.091245	0.086072
503.309530	0.085005
503.527797	0.085850
503.746045	0.084730
503.964275	0.084787
504.182487	0.084659
504.400681	0.084967
504.618856	0.084550
504.837013	0.085202
505.055152	0.086329
505.273273	0.087807
505.491376	0.088458
505.709460	0.088904
505.927526	0.088507
506.145574	0.087541
506.363604	0.088054
506.581615	0.089962
506.799608	0.090214
507.017583	0.089362
507.235540	0.089066
507.453478	0.088568
507.671399	0.087539
507.889301	0.087402
508.107185	0.088283
508.325050	0.088474
508.542898	0.086526
508.760727	0.086100
508.978538	0.086875
509.196330	0.086473
509.414105	0.086149
509.631861	0.086982
509.849599	0.087054
510.067319	0.087410
510.285021	0.086952
510.502704	0.087883
510.720369	0.087988
510.938016	0.087821
511.155645	0.087737
511.373255	0.088134
511.590848	0.087914
511.808422	0.087025
512.025977	0.087075
512.243515	0.087091
512.461034	0.087665
512.678536	0.087903
512.896018	0.087653
513.113483	0.088344
513.330930	0.089732
513.548358	0.089398
513.765768	0.090545
513.983160	0.089901
514.200533	0.089970
514.417889	0.089812
514.635226	0.090261
514.852545	0.090756
515.069845	0.090705
515.287128	0.088879
515.504392	0.089335
515.721638	0.089574
515.938866	0.090334
516.156075	0.090358
516.373267	0.090226
516.590440	0.090481
516.807594	0.090250
517.024731	0.090624
517.241850	0.091259
517.458950	0.091204
517.676032	0.091182
517.893095	0.090962
518.110141	0.091250
518.327168	0.090527
518.544177	0.090148
518.761168	0.090312
518.978141	0.090164
519.195095	0.090236
519.412031	0.090361
519.628949	0.090278
519.845849	0.090144
520.062731	0.089553
520.279594	0.090445
520.496439	0.090087
520.713266	0.090531
520.930074	0.090702
521.146865	0.090723
521.363637	0.090817
521.580391	0.090978
521.797127	0.091353
522.013844	0.092173
522.230543	0.091830
522.447224	0.092331
522.663887	0.092220
522.880532	0.092052
523.097158	0.092102
523.313766	0.092271
523.530356	0.092726
523.746928	0.092668
523.963481	0.092545
524.180017	0.092749
524.396534	0.092275
524.613032	0.091971
524.829513	0.091863
525.045975	0.091670
525.262420	0.092273
525.478845	0.091838
525.695253	0.092269
525.911643	0.092418
526.128014	0.092546
526.344367	0.092712
526.560702	0.093453
526.777018	0.093645
526.993316	0.093486
527.209597	0.092533
527.425858	0.092661
527.642102	0.092275
527.858328	0.092170
528.074535	0.091821
528.290724	0.092551
528.506894	0.092569
528.723047	0.092934
528.939181	0.094364
529.155297	0.095336
529.371395	0.095755
529.587475	0.095809
529.803536	0.095677
530.019579	0.096365
530.235604	0.095838
530.451611	0.095720
530.667600	0.095442
530.883570	0.094485
531.099522	0.093482
531.315456	0.093093
531.531372	0.093571
531.747269	0.093614
531.963148	0.093726
532.179009	0.094125
532.394852	0.093969
532.610676	0.094201
532.826482	0.094458
533.042271	0.095168
533.258040	0.095105
533.473792	0.095278
533.689525	0.095163
533.905240	0.095149
534.120937	0.094687
534.336616	0.095474
534.552277	0.095658
534.767919	0.095882
534.983543	0.096033
535.199149	0.096392
535.414736	0.096394
535.630306	0.097397
535.845857	0.097222
536.061390	0.098247
536.276904	0.097445
536.492401	0.097509
536.707879	0.097504
536.923339	0.097255
537.138781	0.097573
537.354204	0.097134
537.569610	0.096913
537.784997	0.097183
538.000366	0.097180
538.215716	0.098188
538.431049	0.098029
538.646363	0.098193
538.861659	0.098287
539.076937	0.098611
539.292196	0.099253
539.507438	0.099396
539.722661	0.099322
539.937866	0.098762
540.153052	0.097947
540.368221	0.098071
540.583371	0.097938
540.798503	0.098755
541.013617	0.099266
541.228712	0.098757
541.443789	0.099172
541.658848	0.099505
541.873889	0.099789
542.088912	0.100117
542.303916	0.100341
542.518902	0.100676
542.733870	0.100436
542.948820	0.099538
543.163752	0.100161
543.378665	0.099737
543.593560	0.099809
543.808437	0.100057
544.023295	0.100350
544.238136	0.100307
544.452958	0.100415
544.667762	0.100733
544.882548	0.101092
545.097315	0.101643
545.312064	0.101467
545.526795	0.101649
545.741508	0.101795
545.956203	0.101844
546.170879	0.102038
546.385537	0.102422
546.600177	0.102355
546.814799	0.102636
547.029402	0.102671
547.243988	0.102930
547.458555	0.102985
547.673103	0.103248
547.887634	0.103536
548.102146	0.103741
548.316640	0.103251
548.531116	0.103603
548.745574	0.103551
548.960013	0.103422
549.174435	0.103620
549.388838	0.103616
549.603222	0.103328
549.817589	0.103223
550.031937	0.103505
550.246267	0.104152
550.460579	0.103783
550.674873	0.104018
550.889148	0.104361
551.103405	0.104534
551.317644	0.104508
551.531865	0.104407
551.746068	0.104861
551.960252	0.104815
552.174418	0.105386
552.388566	0.105731
552.602696	0.105494
552.816807	0.105058
553.030900	0.105538
553.244975	0.105651
553.459032	0.105851
553.673070	0.105829
553.887091	0.106356
554.101093	0.105821
554.315077	0.105937
554.529042	0.106050
554.742990	0.106067
554.956919	0.105455
555.170830	0.105515
555.384722	0.105527
555.598597	0.105181
555.812453	0.104784
556.026291	0.104990
556.240111	0.104720
556.453913	0.104960
556.667696	0.105109
556.881461	0.105564
557.095208	0.105864
557.308937	0.106195
557.522647	0.106174
557.736339	0.106236
557.950013	0.106248
558.163669	0.106473
558.377307	0.106713
558.590926	0.106566
558.804527	0.106829
559.018110	0.106662
559.231675	0.106794
559.445221	0.107022
559.658749	0.107013
559.872259	0.106985
560.085751	0.106997
560.299225	0.107001
560.512680	0.107811
560.726117	0.107462
560.939536	0.107737
561.152937	0.107536
561.366319	0.107706
561.579683	0.107896
561.793029	0.107939
562.006357	0.108238
562.219667	0.108239
562.432958	0.108259
562.646231	0.108366
562.859486	0.108232
563.072723	0.109025
563.285941	0.108798
563.499141	0.108729
563.712323	0.108939
563.925487	0.108973
564.138632	0.109214
564.351760	0.108892
564.564869	0.109393
564.777960	0.109343
564.991032	0.108787
565.204087	0.109192
565.417123	0.109584
565.630141	0.109396
565.843140	0.109465
566.056122	0.109318
566.269085	0.109456
566.482030	0.109279
566.694957	0.110135
566.907866	0.110416
567.120756	0.110774
567.333628	0.110784
567.546482	0.110981
567.759318	0.110859
567.972135	0.111126
568.184935	0.111064
568.397716	0.110878
568.610478	0.110608
568.823223	0.110939
569.035949	0.110485
569.248657	0.110480
569.461347	0.110547
569.674019	0.110642
569.886672	0.110356
570.099308	0.110418
570.311925	0.110600
570.524523	0.110586
570.737104	0.110461
570.949666	0.110638
571.162210	0.110629
571.374736	0.110591
571.587244	0.110865
571.799733	0.111165
572.012205	0.111331
572.224658	0.111528
572.437092	0.111331
572.649509	0.111190
572.861907	0.111451
573.074287	0.111487
573.286649	0.111643
573.498993	0.111691
573.711318	0.111698
573.923625	0.111693
574.135914	0.111673
574.348185	0.111957
574.560438	0.111900
574.772672	0.111836
574.984888	0.112053
575.197086	0.112234
575.409266	0.112126
575.621427	0.112357
575.833570	0.112546
576.045695	0.112770
576.257802	0.112686
576.469890	0.112726
576.681961	0.112472
576.894013	0.112346
577.106046	0.112341
577.318062	0.112226
577.530059	0.112005
577.742039	0.112008
577.954000	0.111952
578.165942	0.111872
578.377867	0.112141
578.589773	0.112320
578.801661	0.112317
579.013531	0.112156
579.225382	0.112353
579.437216	0.112857
579.649031	0.113057
579.860828	0.113260
580.072606	0.113648
580.284367	0.113832
580.496109	0.114299
580.707833	0.114388
580.919539	0.114557
581.131227	0.114786
581.342896	0.114697
581.554547	0.114688
581.766180	0.114573
581.977795	0.114521
582.189391	0.114412
582.400969	0.114482
582.612529	0.114470
582.824071	0.114364
583.035595	0.114251
583.247100	0.113960
583.458587	0.114138
583.670056	0.114395
583.881506	0.114558
584.092939	0.114512
584.304353	0.114465
584.515749	0.114867
584.727127	0.115280
584.938486	0.115643
585.149828	0.115820
585.361151	0.115641
585.572456	0.115908
585.783742	0.115989
585.995011	0.116122
586.206261	0.116260
586.417493	0.116079
586.628706	0.116360
586.839902	0.116072
587.051079	0.116225
587.262238	0.117023
587.473379	0.116680
587.684502	0.116923
587.895606	0.117074
588.106692	0.117146
588.317760	0.117372
588.528810	0.117094
588.739841	0.117275
588.950855	0.117314
589.161850	0.116566
589.372827	0.116403
589.583785	0.116223
589.794726	0.116015
590.005648	0.116124
590.216552	0.115629
590.427437	0.115186
590.638305	0.115295
590.849154	0.115346
591.059985	0.115416
591.270798	0.115643
591.481592	0.115644
591.692369	0.115865
591.903127	0.115621
592.113867	0.116080
592.324588	0.116455
592.535292	0.116568
592.745977	0.116875
592.956644	0.117102
593.167293	0.117092
593.377923	0.117403
593.588536	0.117588
593.799130	0.117722
594.009706	0.117705
594.220263	0.117833
594.430803	0.118009
594.641324	0.117829
594.851827	0.118139
595.062312	0.118390
595.272778	0.118189
595.483227	0.118232
595.693657	0.118393
595.904069	0.118579
596.114462	0.118977
596.324838	0.118826
596.535195	0.118799
596.745534	0.118814
596.955855	0.118517
597.166157	0.118422
597.376441	0.118230
597.586707	0.118031
597.796955	0.118098
598.007185	0.117596
598.217396	0.117632
598.427589	0.117676
598.637764	0.117402
598.847921	0.117532
599.058060	0.117761
599.268180	0.117877
599.478282	0.117997
599.688366	0.117561
599.898431	0.117969
600.108479	0.118168
600.318508	0.118293
600.528519	0.118233
600.738511	0.118485
600.948486	0.118685
601.158442	0.118739
601.368380	0.118685
601.578300	0.119122
601.788202	0.118986
601.998085	0.118644
602.207950	0.118820
602.417797	0.118876
602.627626	0.118905
602.837436	0.118744
603.047228	0.118823
603.257002	0.118910
603.466758	0.119041
603.676496	0.119309
603.886215	0.119778
604.095916	0.119785
604.305599	0.120213
604.515264	0.120113
604.724910	0.120334
604.934538	0.120398
605.144148	0.120415
605.353740	0.120446
605.563314	0.120589
605.772869	0.120609
605.982406	0.120569
606.191925	0.120648
606.401425	0.121214
606.610908	0.121296
606.820372	0.121296
607.029818	0.121576
607.239246	0.121583
607.448655	0.121293
607.658047	0.120987
607.867420	0.121073
608.076775	0.120950
608.286111	0.120560
608.495430	0.120403
608.704730	0.120473
608.914012	0.120515
609.123275	0.120677
609.332521	0.120592
609.541748	0.121059
609.750957	0.120898
609.960148	0.121134
610.169321	0.121325
610.378475	0.121611
610.587611	0.121830
610.796729	0.121715
611.005829	0.121597
611.214910	0.121912
611.423974	0.121694
611.633019	0.121978
611.842045	0.121618
612.051054	0.121647
612.260044	0.121423
612.469017	0.121390
612.677970	0.121604
612.886906	0.121581
613.095824	0.121475
613.304723	0.121586
613.513604	0.121444
613.722467	0.121705
613.931311	0.121824
614.140138	0.121903
614.348946	0.122046
614.557736	0.121884
614.766507	0.121934
614.975261	0.122119
615.183996	0.122254
615.392713	0.122311
615.601412	0.122135
615.810092	0.122162
616.018754	0.122369
616.227399	0.122148
616.436024	0.122515
616.644632	0.122742
616.853222	0.122793
617.061793	0.122695
617.270346	0.122509
617.478880	0.122998
617.687397	0.123090
617.895895	0.123109
618.104375	0.123323
618.312837	0.123381
618.521281	0.123504
618.729706	0.123364
618.938113	0.123757
619.146502	0.124100
619.354873	0.123909
619.563226	0.123769
619.771560	0.123517
619.979876	0.123465
620.188174	0.123414
620.396453	0.123231
620.604715	0.123435
620.812958	0.123543
621.021183	0.123686
621.229390	0.123609
621.437578	0.123449
621.645748	0.123747
621.853900	0.123798
622.062034	0.123721
622.270150	0.124000
622.478247	0.123893
622.686326	0.123402
622.894387	0.123541
623.102430	0.123766
623.310454	0.124073
623.518461	0.124032
623.726449	0.123883
623.934418	0.124066
624.142370	0.123870
624.350303	0.124102
624.558218	0.124263
624.766115	0.124169
624.973994	0.124092
625.181855	0.124107
625.389697	0.123976
625.597521	0.124216
625.805327	0.124200
626.013114	0.124328
626.220883	0.124263
626.428634	0.124432
626.636367	0.124319
626.844082	0.124274
627.051778	0.124434
627.259457	0.124739
627.467117	0.125218
627.674758	0.125315
627.882382	0.125619
628.089987	0.125656
628.297574	0.125394
628.505143	0.125371
628.712694	0.125812
628.920226	0.125821
629.127740	0.126050
629.335236	0.125794
629.542714	0.125878
629.750174	0.125793
629.957615	0.126126
630.165038	0.126605
630.372443	0.127000
630.579829	0.126903
630.787198	0.126714
630.994548	0.126648
631.201880	0.126602
631.409194	0.126698
631.616489	0.126624
631.823766	0.126537
632.031025	0.126585
632.238266	0.126644
632.445489	0.126772
632.652693	0.126956
632.859879	0.127060
633.067047	0.127259
633.274197	0.127061
633.481329	0.127089
633.688442	0.127179
633.895537	0.127193
634.102614	0.127258
634.309672	0.127124
634.516713	0.127235
634.723735	0.127276
634.930739	0.127214
635.137724	0.127258
635.344692	0.127424
635.551641	0.127321
635.758572	0.127305
635.965485	0.127299
636.172379	0.127368
636.379256	0.127470
636.586114	0.127573
636.792954	0.127735
636.999775	0.127980
637.206579	0.128063
637.413364	0.128143
637.620131	0.128166
637.826880	0.128357
638.033610	0.128543
638.240323	0.128546
638.447017	0.128553
638.653692	0.128620
638.860350	0.128623
639.066990	0.128691
639.273611	0.128831
639.480214	0.128860
639.686798	0.128880
639.893365	0.128880
640.099913	0.129224
640.306443	0.129551
640.512955	0.129532
640.719449	0.129609
640.925924	0.129852
641.132381	0.130133
641.338820	0.130525
641.545241	0.130631
641.751644	0.130708
641.958028	0.130425
642.164394	0.130329
642.370742	0.130609
642.577071	0.130641
642.783383	0.130459
642.989676	0.130352
643.195951	0.130314
643.402207	0.130405
643.608446	0.130453
643.814666	0.130816
644.020868	0.130653
644.227052	0.130625
644.433218	0.130699
644.639365	0.130854
644.845494	0.130911
645.051605	0.130943
645.257698	0.130941
645.463772	0.131097
645.669828	0.131281
645.875866	0.131490
646.081886	0.131488
646.287888	0.131684
646.493871	0.131570
646.699836	0.131732
646.905783	0.131671
647.111712	0.131802
647.317622	0.131900
647.523514	0.131822
647.729388	0.131819
647.935244	0.131712
648.141082	0.131836
648.346901	0.132335
648.552702	0.132405
648.758485	0.132668
648.964250	0.132663
649.169996	0.132764
649.375724	0.132717
649.581434	0.132680
649.787126	0.132835
649.992800	0.133037
650.198455	0.132839
650.404092	0.132736
650.609711	0.132802
650.815311	0.132793
651.020894	0.132845
651.226458	0.133088
651.432004	0.133415
651.637532	0.133865
651.843041	0.133713
652.048532	0.134120
652.254006	0.134372
652.459460	0.134451
652.664897	0.134698
652.870315	0.134858
653.075716	0.134996
653.281097	0.135092
653.486461	0.134986
653.691807	0.135117
653.897134	0.134928
654.102443	0.135201
654.307734	0.135438
654.513006	0.135331
654.718261	0.135252
654.923497	0.135274
655.128715	0.135275
655.333915	0.135396
655.539096	0.135426
655.744259	0.135523
655.949404	0.135505
656.154531	0.135184
656.359640	0.135447
656.564730	0.135709
656.769802	0.135876
656.974856	0.135943
657.179892	0.135890
657.384909	0.135892
657.589908	0.135937
657.794889	0.135922
657.999852	0.136039
658.204797	0.135999
658.409723	0.135797
658.614631	0.135538
658.819521	0.135572
659.024393	0.135419
659.229246	0.135710
659.434081	0.135709
659.638898	0.135922
659.843697	0.136046
660.048478	0.136013
660.253240	0.136164
660.457984	0.136402
660.662710	0.136264
660.867417	0.136724
661.072107	0.136811
661.276778	0.137234
661.481431	0.137384
661.686066	0.137361
661.890682	0.137618
662.095281	0.137784
662.299861	0.137789
662.504422	0.138124
662.708966	0.138088
662.913491	0.138270
663.117999	0.138199
663.322488	0.138210
663.526958	0.138664
663.731411	0.138936
663.935845	0.139027
664.140261	0.139444
664.344659	0.139711
664.549038	0.139891
664.753400	0.139637
664.957743	0.139618
665.162068	0.139629
665.366375	0.139653
665.570663	0.139480
665.774933	0.139527
665.979185	0.139410
666.183419	0.139283
666.387635	0.139260
666.591832	0.139519
666.796011	0.139702
667.000172	0.139833
667.204315	0.139948
667.408439	0.140362
667.612545	0.140625
667.816634	0.140948
668.020703	0.141296
668.224755	0.141843
668.428788	0.141926
668.632803	0.142201
668.836800	0.142333
669.040779	0.142475
669.244739	0.142441
669.448681	0.142710
669.652605	0.142784
669.856511	0.142823
670.060399	0.142693
670.264268	0.142883
670.468119	0.142787
670.671952	0.142828
670.875767	0.142530
671.079563	0.142524
671.283341	0.142326
671.487101	0.142254
671.690843	0.142102
671.894567	0.142032
672.098272	0.141927
672.301959	0.141757
672.505628	0.141820
672.709278	0.142127
672.912911	0.142135
673.116525	0.142340
673.320121	0.142322
673.523699	0.142611
673.727258	0.142814
673.930799	0.142913
674.134322	0.143186
674.337827	0.143073
674.541314	0.143233
674.744782	0.143459
674.948232	0.143518
675.151664	0.143637
675.355078	0.143769
675.558474	0.144016
675.761851	0.144209
675.965210	0.144337
676.168551	0.144669
676.371873	0.144822
676.575178	0.144894
676.778464	0.144851
676.981732	0.144878
677.184981	0.144701
677.388213	0.144609
677.591426	0.144825
677.794621	0.144906
677.997798	0.144901
678.200956	0.144767
678.404097	0.144812
678.607219	0.145059
678.810323	0.145346
679.013408	0.145723
679.216476	0.145810
679.419525	0.145845
679.622556	0.145992
679.825569	0.145990
680.028563	0.146198
680.231540	0.146122
680.434498	0.146226
680.637438	0.146421
680.840359	0.146524
681.043263	0.146600
681.246148	0.146597
681.449015	0.146677
681.651864	0.146977
681.854694	0.147076
682.057506	0.147304
682.260301	0.147228
682.463076	0.147006
682.665834	0.146895
682.868573	0.146922
683.071295	0.146999
683.273998	0.146928
683.476682	0.147181
683.679349	0.147076
683.881997	0.147199
684.084627	0.147259
684.287239	0.147452
684.489833	0.147651
684.692408	0.147595
684.894965	0.147529
685.097504	0.147629
685.300025	0.147364
685.502527	0.147536
685.705012	0.147678
685.907478	0.147800
686.109925	0.147830
686.312355	0.147691
686.514766	0.147686
686.717159	0.147925
686.919534	0.148105
687.121891	0.148109
687.324230	0.148265
687.526550	0.148186
687.728852	0.148169
687.931136	0.148226
688.133401	0.148355
688.335649	0.148537
688.537878	0.148364
688.740089	0.148311
688.942281	0.148607
689.144456	0.148666
689.346612	0.148658
689.548750	0.148700
689.750870	0.148791
689.952971	0.148803
690.155055	0.148824
690.357120	0.148978
690.559167	0.149181
690.761195	0.149304
690.963206	0.149305
691.165198	0.149580
691.367172	0.149860
691.569128	0.150044
691.771065	0.150300
691.972984	0.150532
692.174885	0.150726
692.376768	0.150903
692.578633	0.150940
692.780479	0.151068
692.982308	0.151097
693.184118	0.150966
693.385909	0.150903
