sample name	sample
index	996
start time	 04-14-2021  04:26:39 PM
880	0.541066
Peak Time (s)	102.535
Peak Height 	0.5411
calc peak height	100,103
Baseline Time (s)	10.04
Baseline Value 	-0.002817
subtract baseline	10,4
Abs	0.385451
Peak Time (s)	102.535
Peak Height 	0.3855
calc peak height	100,103
Baseline Time (s)	8.536
Baseline Value 	-0.001711
subtract baseline	10,3
PK_550	0.213003
Peak Time (s)	102.535
Peak Height 	0.213
calc peak height	100,103
Baseline Time (s)	11.04
Baseline Value 	3.2476E-4
subtract baseline	10,2
PK_880	0.367633
Peak Time (s)	102.535
Peak Height 	0.3676
calc peak height	100,103
Baseline Time (s)	11.04
Baseline Value 	4.6085E-4
subtract baseline	10,1


Time (s)	A880-A510	A880-A775	A880-A975	A880	I510	I775	I975	I880	
0.041500	0.001530	-0.000281	0.004359	0.002388	6340.651324	42113.149396	3967.932844	22181.278475
0.536500	-0.004534	-0.000262	0.001893	0.006908	6260.112385	41710.190746	3952.013757	21982.637888
1.039500	-0.001739	0.000341	0.004397	0.004086	6302.606766	42016.387587	3964.126105	22106.407822
1.537000	-0.000164	-0.000692	-0.004349	0.000991	6338.367122	42202.006413	3951.280468	22243.131914
2.037500	0.000975	-0.000044	0.005515	0.001230	6345.304019	42238.911054	3973.263278	22232.533516
2.535000	-0.003127	-0.001097	-0.000104	0.005009	6285.056835	41805.055514	3951.791733	22065.843044
3.038000	0.002216	-0.000150	0.003538	-0.001264	6374.227826	42455.094522	3974.458189	22343.318544
3.535500	-0.001349	-0.000361	0.004240	0.000587	6332.352829	42268.342741	3971.804204	22261.014337
4.036000	-0.000221	0.000258	0.005006	0.001011	6337.765673	42285.959225	3972.594454	22242.210877
4.536500	-0.000930	0.000077	-0.001248	0.004866	6302.835626	41922.815918	3949.531153	22072.130764
5.039000	0.001750	0.000269	0.002864	0.000892	6353.892839	42297.724953	3967.936597	22247.505818
5.536500	0.001723	0.000252	0.006858	0.000442	6357.170743	42336.889736	3978.198586	22267.478272
6.037000	-0.000946	-0.000737	0.001772	-0.000167	6341.259295	42302.409868	3967.859892	22294.485022
6.537500	-0.000626	0.000580	-0.001475	0.000232	6340.650534	42385.641625	3959.520407	22276.792829
7.040000	0.000131	-0.000059	-0.004566	0.000029	6348.049054	42346.065309	3952.961478	22285.793435
7.535500	0.000280	0.000057	0.008342	0.000503	6345.542958	42313.636530	3981.505471	22264.730106
8.038000	0.000746	-0.000150	-0.000069	0.000611	6348.308498	42285.239505	3961.862065	22259.978452
8.535500	-0.000706	0.000217	0.000000	0.000465	6338.238215	42331.639424	3962.352829	22266.439408
9.035500	0.000456	-0.000255	0.000237	0.000122	6349.844952	42319.924948	3963.679219	22281.671848
9.539000	0.001838	-0.000753	-0.000689	-0.000454	6364.994967	42326.954600	3962.877178	22307.243121
10.039500	-0.000375	0.000125	-0.001016	0.000000	6344.371731	42365.424988	3961.094055	22287.085218
10.537000	0.001572	0.000184	0.003770	0.000734	6353.746095	42304.376948	3970.384051	22254.525825
11.039500	0.000000	0.000000	0.003703	-0.000039	6347.566531	42357.601347	3972.010287	22288.815425
11.535000	-0.001149	-0.000676	-0.002132	-0.000815	6344.684585	42366.638473	3960.407415	22323.309361
12.037500	0.001712	0.000351	0.008285	-0.000006	6360.546279	42386.422191	3982.558076	22287.335007
12.535000	-0.004297	-0.000155	-0.003082	0.003055	6290.998646	42064.442387	3949.478478	22151.837718
13.038000	0.001390	0.000199	0.001922	0.000313	6355.595404	42343.820126	3967.104208	22273.205265
13.536000	0.001418	0.000447	0.002767	0.000367	6355.389371	42361.365400	3968.919865	22270.796616
14.038500	0.000397	0.000873	0.004875	0.002551	6330.688208	42202.444715	3968.746006	22174.102347
14.536500	-0.000183	-0.000034	0.005861	0.003765	6316.931067	42011.591470	3968.219712	22120.547912
15.042000	-0.000633	-0.000808	0.003595	0.000395	6339.340419	42245.277109	3970.760757	22269.530404
15.537000	-0.000623	0.000103	0.007489	0.000103	6341.666668	42354.069327	3980.450904	22282.519190
16.036500	0.000079	0.000031	0.005143	-0.000090	6348.573475	42365.011789	3975.455951	22291.093432
16.537000	0.001438	0.000306	-0.000437	0.000496	6354.546216	42336.908212	3961.284370	22265.062557
17.040500	0.002545	0.001087	0.006896	-0.002169	6383.844785	42649.995818	3984.363371	22383.667558
17.539500	0.002991	-0.000396	0.009604	0.000656	6365.339097	42258.984209	3984.090928	22257.975591
18.035500	-0.001531	-0.000156	0.002072	0.000846	6328.968794	42263.460913	3966.225015	22249.548625
18.536000	0.000079	-0.000436	0.002266	-0.000050	6348.260621	42319.067733	3968.724592	22289.290638
19.036000	-0.000527	-0.000511	0.003092	0.000401	6340.118157	42271.658054	3969.590720	22269.297158
19.536500	-0.001468	-0.000530	-0.001802	0.000204	6334.393743	42287.685666	3958.839997	22278.046019
20.036500	0.000617	0.000097	0.005886	0.000568	6347.641088	42311.395486	3975.651137	22261.849527
20.537000	0.000008	0.000498	0.007918	0.001139	6338.544893	42295.998109	3979.038945	22236.531351
21.035000	-0.001517	-0.000767	0.001494	0.000051	6335.187046	42280.115702	3966.720961	22284.827275
21.535000	0.000905	0.000104	0.012465	0.000379	6351.326662	42329.182991	3991.442430	22270.250296
22.035000	-0.000357	0.000365	0.002295	0.000900	6337.583948	42305.711979	3966.611412	22247.153784
22.535500	0.000097	0.000240	0.007209	0.000727	6342.405176	42309.998106	3978.349981	22254.823532
23.036000	-0.003836	0.000849	-0.001974	0.000801	6311.669314	42358.458928	3957.089632	22251.547301
23.539000	0.001036	0.000013	0.004592	0.000727	6349.650728	42289.484433	3972.292714	22254.800551
24.036500	-0.001005	-0.000107	-0.002261	0.000744	6333.794221	42277.121375	3956.567626	22254.065742
24.537000	-0.001105	-0.000318	0.001459	0.000460	6335.207945	42283.715361	3965.703214	22266.667208
25.040000	-0.000960	-0.000550	-0.000897	0.000601	6335.236355	42250.015272	3959.994938	22260.402379
25.537500	-0.000564	-0.000257	0.001301	0.000703	6337.500102	42267.196914	3964.784119	22255.873287
26.035000	-0.000664	0.000590	0.003201	0.001240	6332.605454	42295.243819	3967.909399	22232.071209
26.535000	0.001785	0.000443	0.005955	0.001414	6350.125889	42266.216487	3973.855018	22224.357874
27.035500	0.003524	0.001180	0.001970	-0.000585	6379.133541	42514.232813	3969.277275	22313.101499
27.536000	0.003878	0.000599	0.005887	-0.000437	6380.734326	42447.976814	3977.982054	22306.496336
28.036000	0.000318	0.000437	0.002086	0.000210	6348.099253	42374.634014	3967.713834	22277.748732
28.535500	-0.000990	0.000011	0.003976	0.001183	6330.541613	42248.122478	3969.825206	22234.623401
29.037500	-0.000542	0.000310	0.004351	0.000131	6342.079475	42370.364659	3973.113690	22281.283444
29.536500	0.000724	0.001385	0.009435	0.000360	6350.070057	42446.968774	3984.386729	22271.080698
30.039000	-0.000429	0.000215	0.007628	0.000012	6343.861786	42372.441530	3980.986304	22286.555648
30.537500	-0.000656	0.000823	0.005443	0.003997	6311.546682	42067.729429	3966.727950	22110.335329
31.034500	-0.000861	0.000254	0.007146	0.001706	6327.515247	42222.877913	3975.934390	22211.457347
31.535500	-0.000053	-0.000136	0.005407	-0.000429	6350.165613	42380.591576	3976.852211	22306.138589
32.036000	0.002551	0.001016	0.005492	0.000528	6362.919318	42398.359416	3974.832950	22263.662006
32.535500	-0.002159	0.000195	0.000523	0.003073	6307.126108	42094.353503	3957.600314	22151.047322
33.039000	0.002124	-0.000206	0.006491	-0.000249	6365.629124	42357.915705	3978.948108	22298.129172
33.536000	-0.000921	0.000079	0.005297	0.001404	6329.366433	42234.243717	3972.358763	22224.804934
34.036500	0.001603	0.000333	0.000002	0.001510	6347.978301	42247.614632	3959.971872	22220.104805
34.538500	-0.000265	0.001048	0.002139	0.002106	6329.011236	42258.379113	3963.490332	22193.739706
35.034500	-0.000784	0.000343	0.003536	0.001058	6333.077008	42289.347873	3969.097787	22240.129928
35.534000	0.001223	0.000525	0.004949	0.001091	6348.280236	42302.853463	3972.277238	22238.668009
36.035000	-0.000519	-0.000248	0.001573	0.000756	6337.439775	42263.247429	3965.285246	22253.538188
36.535000	-0.000361	0.000498	0.006993	0.002136	6328.049748	42206.006344	3974.584934	22192.413058
37.035500	0.000590	-0.000231	0.008764	0.001123	6343.152577	42231.696665	3981.044762	22237.260927
37.536000	0.002025	0.000796	0.006666	0.001854	6348.586272	42258.392297	3974.481255	22204.910538
38.036000	0.001798	0.000139	0.005427	0.001115	6352.546607	42265.850072	3973.326159	22237.628932
38.536500	-0.000080	0.000626	0.000670	0.001258	6336.955670	42296.924831	3962.072658	22231.284626
39.037000	0.000654	0.000953	0.007947	0.001989	6336.980276	42260.406545	3977.134103	22198.920946
39.537000	0.001760	0.000542	0.006825	0.001837	6346.677426	42237.023919	3974.890495	22205.667695
40.037500	0.000018	0.000062	0.001236	0.001564	6335.361655	42218.370831	3962.666585	22217.750933
40.537500	0.002498	0.000605	0.000793	0.002154	6349.919016	42214.052019	3960.306662	22191.611381
41.035000	0.000857	-0.000220	0.005712	0.001959	6338.766243	42157.242700	3972.034180	22200.235046
41.535500	0.001133	-0.000043	0.004050	0.001466	6344.692688	42217.631299	3969.342256	22222.050446
42.035500	0.000538	0.000547	0.004065	0.002108	6335.176027	42213.048429	3967.901739	22193.681019
42.538500	0.001703	0.000245	0.007478	0.001508	6348.768787	42239.854365	3977.160854	22220.193180
43.036000	0.001774	0.000020	0.004217	0.001213	6351.596679	42246.207841	3970.308310	22233.268630
43.536500	0.004086	0.000887	0.011916	-0.002463	6398.192951	42658.591382	3996.847467	22396.798320
44.036500	0.004658	0.000670	0.007668	0.000348	6380.689364	42383.199365	3980.297117	22271.610841
44.537500	0.001451	0.001258	0.008821	0.000846	6351.942045	42391.410715	3981.823048	22249.549556
45.035000	-0.000064	0.000799	0.005682	0.001827	6332.709508	42261.106965	3972.272126	22206.109669
45.535000	0.002396	0.001448	0.008177	0.000953	6358.417269	42398.944827	3980.074422	22244.786171
46.035000	0.002619	0.000885	0.006513	0.000500	6363.660099	42389.006688	3977.263861	22264.897355
46.538000	0.001573	0.000066	0.007422	0.001192	6350.207956	42252.300188	3977.766727	22234.220348
47.041500	-0.000954	0.000449	0.004112	0.002358	6321.807533	42181.580979	3967.435849	22182.628373
47.536000	0.000011	-0.000467	0.006246	0.001546	6335.437201	42172.192856	3974.221293	22218.520217
48.036500	0.002705	0.001112	0.005626	0.000650	6363.162012	42395.877166	3974.859098	22258.209409
48.536500	0.002595	0.000396	0.002221	0.001555	6355.304043	42249.319283	3964.941143	22218.132057
49.037500	-0.002007	0.000628	0.005569	0.001870	6317.478216	42241.786929	3971.910671	22204.175186
49.537500	0.001832	0.000627	0.007815	-0.002750	6382.818967	42661.026684	3987.873103	22409.637936
50.035000	0.001421	0.000896	0.006618	0.004180	6326.034031	42057.759868	3969.004695	22102.259672
50.535000	0.016102	-0.006125	0.009178	0.028508	6252.869896	39339.786686	3920.177458	21061.264802
51.034500	0.018221	-0.002078	-0.000480	0.364710	4504.808449	19928.552761	3398.617691	11324.548530
51.536000	0.003113	-0.013203	-0.019957	-0.043445	6726.555742	45190.102018	4018.608788	24316.978440
52.036000	-0.004933	-0.028706	-0.019140	-0.168522	7880.497946	57289.984152	4371.149700	31433.922150
52.536500	0.017595	-0.032535	0.011186	-0.207740	8626.832278	61896.643442	4614.443716	34121.716157
53.036500	0.022655	-0.007531	0.015128	-0.088374	7323.663703	50400.029406	4230.699042	26641.096638
53.537000	0.013020	-0.006904	0.012977	-0.036450	6751.659880	45122.593477	4083.134225	23976.280379
54.037000	0.014534	-0.006860	0.010526	-0.056057	6938.850866	47071.010465	4127.977937	24945.312883
54.537000	0.022694	-0.005301	0.016706	-0.071365	7157.805805	48815.212137	4186.700354	25732.867789
55.035500	0.024461	-0.004380	0.018752	-0.058605	7053.764599	47583.850233	4157.057915	25074.475070
55.535000	0.025917	-0.002163	0.021994	-0.033897	6842.196224	45335.117062	4099.820204	23853.278377
56.036000	0.028141	-0.000692	0.022136	0.010450	6486.621431	41358.028407	3990.502524	21828.378832
56.539000	0.033560	-0.000986	0.028774	-0.018005	6769.823267	43925.702341	4076.368163	23103.767250
57.035500	0.037349	0.003451	0.037511	0.051228	6241.841337	38257.342491	3932.537065	20140.365748
57.538500	0.048388	0.007560	0.049887	0.050829	6328.485234	38624.941097	3961.265883	20156.138557
58.036500	0.059136	0.010223	0.053858	0.094027	6088.517276	35452.781132	3875.673270	18531.136449
58.537000	0.070116	0.016110	0.068834	0.123904	5956.815391	33710.308226	3845.133908	17498.176262
59.037500	0.084031	0.025206	0.088246	0.158585	5818.555225	31955.035167	3814.908750	16384.935841
59.534500	0.104558	0.036555	0.117381	0.191601	5738.527960	30547.309295	3807.393614	15404.615672
60.035000	0.124389	0.047989	0.128319	0.219898	5685.569116	29499.237043	3774.591106	14621.710870
60.535500	0.143569	0.057457	0.144058	0.251718	5608.405317	28171.346993	3745.350936	13800.198067
61.035500	0.160313	0.068095	0.165174	0.277356	5555.432688	27317.711899	3737.321745	13180.681613
61.537000	0.174148	0.076614	0.184721	0.301167	5497.295591	26477.369314	3729.827782	12637.179654
62.036500	0.190316	0.087389	0.192040	0.315327	5508.891655	26295.314460	3717.955497	12327.820279
62.536500	0.204545	0.096145	0.209357	0.330180	5505.288099	25970.948299	3722.209725	12013.981029
63.037000	0.217023	0.104721	0.223131	0.356792	5424.916507	25037.696746	3700.306322	11477.822836
63.537000	0.226191	0.110700	0.230365	0.383138	5330.700370	24029.347718	3668.874306	10978.426086
64.037000	0.240196	0.118337	0.247089	0.399081	5320.302707	23631.566869	3670.133011	10690.617589
64.535000	0.251914	0.127538	0.262947	0.403543	5359.471158	23857.593883	3688.741544	10611.931840
65.035000	0.263290	0.135182	0.277195	0.419507	5334.631553	23462.349046	3685.908140	10336.977484
65.535500	0.278467	0.141310	0.283900	0.435637	5329.499497	22997.093787	3670.542854	10069.221063
66.038500	0.290508	0.149004	0.301074	0.461311	5257.367703	22187.273162	3656.969177	9663.048661
66.536000	0.301413	0.154253	0.313471	0.471444	5261.394343	21973.030534	3660.559470	9509.230228
67.036500	0.297232	0.158615	0.313875	0.473766	5227.721890	22062.265154	3657.517039	9474.493842
67.536500	0.301471	0.163725	0.316935	0.466886	5285.606264	22595.045818	3673.428845	9577.981999
68.036000	0.307049	0.166648	0.312752	0.467405	5312.437277	22703.641160	3665.856009	9570.108456
68.537000	0.305752	0.166446	0.323708	0.468743	5298.426373	22634.026140	3681.434832	9549.887505
69.053000	0.310485	0.168718	0.323404	0.470627	5313.583750	22651.560555	3677.859722	9521.505140
69.537500	0.313151	0.171570	0.323114	0.475929	5299.556740	22541.157638	3668.806243	9442.290393
70.035500	0.316979	0.173707	0.322539	0.481707	5289.227903	22378.226219	3658.660791	9357.053175
70.536000	0.317874	0.175269	0.332296	0.486828	5267.020978	22220.329686	3666.049922	9282.460257
71.036000	0.320453	0.175698	0.329493	0.489508	5266.488997	22121.066180	3657.319597	9243.767425
71.536000	0.323757	0.177726	0.336897	0.494096	5259.789853	22008.895257	3661.789910	9178.089923
72.036500	0.324006	0.178792	0.343324	0.496492	5248.618503	21950.842515	3668.239066	9144.058086
72.537000	0.328047	0.179878	0.341861	0.499900	5251.911379	21849.945037	3660.455326	9095.989121
73.037000	0.327806	0.181164	0.341616	0.503453	5232.281451	21751.991843	3654.444571	9046.269634
73.537500	0.327884	0.182008	0.346610	0.505116	5224.134689	21716.721741	3659.713396	9023.134834
74.034500	0.335841	0.183862	0.342421	0.508111	5249.745263	21667.649086	3648.400833	8981.692302
74.534500	0.336972	0.186182	0.350770	0.510325	5244.127325	21672.211942	3658.048463	8951.240208
75.035500	0.335149	0.185253	0.353708	0.510359	5234.532944	21630.899518	3662.662356	8950.766919
75.538500	0.336379	0.185528	0.353360	0.511272	5236.171477	21603.623895	3660.657141	8938.265230
76.036000	0.339381	0.187629	0.358346	0.513713	5239.062118	21589.076537	3664.714443	8904.941188
76.536000	0.337919	0.187808	0.352944	0.513792	5231.115510	21593.331444	3656.003501	8903.867008
77.036500	0.345032	0.190495	0.353573	0.516802	5252.337280	21579.516916	3652.253482	8863.039565
77.537000	0.344742	0.191596	0.365450	0.518305	5243.038511	21562.339888	3668.741398	8842.759896
78.037000	0.343804	0.191057	0.363394	0.518915	5235.045359	21513.416667	3664.468527	8834.561784
78.537500	0.343272	0.192805	0.364440	0.519621	5228.672460	21557.833118	3665.011897	8825.071346
79.035000	0.348711	0.194423	0.362593	0.521420	5247.461259	21550.068127	3659.203025	8800.957150
79.535000	0.347144	0.193117	0.367679	0.519796	5247.760279	21563.664300	3669.931731	8822.722201
80.035500	0.349659	0.195810	0.363236	0.522466	5246.957391	21564.668293	3658.564841	8786.994657
80.535500	0.349818	0.198534	0.366922	0.524484	5237.336133	21594.751071	3661.211390	8760.126156
81.036000	0.354286	0.197172	0.371670	0.523937	5263.376660	21559.960123	3669.688069	8767.398900
81.536000	0.351640	0.198548	0.372107	0.522785	5255.589542	21668.183721	3672.253403	8782.738006
82.036500	0.354237	0.199140	0.367942	0.523882	5263.409566	21646.489614	3663.797759	8768.131333
82.537000	0.355385	0.199169	0.372232	0.522991	5274.079371	21685.947808	3672.121770	8779.984907
83.037000	0.354909	0.199372	0.365214	0.523058	5271.233098	21691.841612	3660.764503	8779.098491
83.534500	0.354782	0.201754	0.371736	0.524819	5261.365242	21718.527101	3668.375726	8755.688302
84.035000	0.356110	0.202098	0.372510	0.525095	5266.861685	21721.485960	3669.176717	8752.026859
84.535500	0.355368	0.202557	0.374231	0.525128	5262.808265	21739.803871	3671.899901	8751.590750
85.036000	0.358218	0.203925	0.372783	0.525812	5274.148592	21769.312976	3668.462587	8742.526882
85.536000	0.356539	0.202387	0.369307	0.524423	5272.624885	21762.893600	3665.116626	8760.947568
86.036500	0.358173	0.204630	0.375388	0.525804	5273.952885	21800.108296	3672.677895	8742.636619
86.536500	0.359435	0.206402	0.372944	0.526948	5274.572862	21827.249555	3666.898096	8727.510274
87.037000	0.357210	0.206115	0.375571	0.526706	5264.188935	21825.309649	3671.514623	8730.701949
87.533500	0.360718	0.206878	0.372854	0.526645	5282.910884	21861.011590	3667.239652	8731.510545
88.037500	0.356344	0.206793	0.376866	0.529043	5247.517090	21753.662033	3669.834283	8699.914066
88.534500	0.357514	0.204817	0.370932	0.525741	5270.830271	21810.933715	3665.607769	8743.469671
89.035500	0.358933	0.207987	0.378879	0.527820	5267.368072	21858.151279	3675.066288	8716.000974
89.538500	0.359479	0.206992	0.380184	0.526934	5274.872179	21853.388507	3678.630124	8727.687390
90.035500	0.356192	0.206462	0.373154	0.528838	5247.790220	21748.225758	3664.207377	8702.605201
90.536000	0.359097	0.206730	0.366529	0.525670	5279.505753	21896.893799	3658.704893	8744.402593
91.036500	0.360055	0.208712	0.379608	0.527519	5274.828749	21902.695629	3676.740465	8719.976399
91.536500	0.361181	0.208495	0.373748	0.527840	5279.055098	21879.305239	3666.756100	8715.742852
92.034000	0.356869	0.208159	0.372736	0.531072	5239.730812	21725.082562	3659.981397	8673.310307
92.537500	0.359180	0.207787	0.374649	0.526984	5273.044461	21885.753930	3669.579502	8727.033586
93.034500	0.357852	0.209023	0.377509	0.528099	5260.265212	21891.002375	3672.394866	8712.325783
93.535500	0.361057	0.209699	0.375942	0.528560	5274.626569	21900.374183	3669.124956	8706.268178
94.035000	0.357971	0.209209	0.380436	0.528001	5261.398395	21903.322459	3677.302081	8713.613534
94.535500	0.358164	0.208604	0.378114	0.528321	5260.733999	21863.158077	3673.014493	8709.401677
95.036000	0.360153	0.211155	0.380159	0.530072	5261.977907	21897.904622	3673.491056	8686.406929
95.536000	0.361232	0.211208	0.376828	0.531535	5259.979977	21836.772024	3665.770284	8667.266718
96.036500	0.360169	0.210157	0.372498	0.534320	5239.996383	21671.313199	3654.466587	8630.986774
96.536000	0.361594	0.210284	0.380718	0.531605	5261.498694	21793.742845	3671.915153	8666.352929
97.037500	0.362118	0.209965	0.378837	0.531433	5265.133032	21787.391054	3669.158161	8668.588853
97.534500	0.359418	0.209960	0.381009	0.531582	5250.290288	21780.709542	3672.421840	8666.643716
98.034500	0.361125	0.210642	0.379232	0.533201	5250.751022	21740.316021	3666.953094	8645.535149
