sample name	sample
index	465
start time	 03-11-2021  12:05:25 PM


Wavelength (nm)	Absorbance
494.344910	NaN
494.563924	NaN
494.782919	NaN
495.001897	-0.131113
495.220856	-0.189279
495.439797	-0.235744
495.658719	-0.216353
495.877624	-0.224266
496.096510	-0.179334
496.315378	-0.107451
496.534227	0.063443
496.753059	0.131168
496.971872	0.116667
497.190667	0.082769
497.409444	0.088141
497.628203	0.090206
497.846943	0.090917
498.065665	0.091060
498.284369	0.090655
498.503055	0.089861
498.721723	0.091161
498.940372	0.091016
499.159003	0.091530
499.377616	0.091456
499.596210	0.090844
499.814787	0.090623
500.033345	0.090452
500.251885	0.090138
500.470406	0.091124
500.688910	0.090904
500.907395	0.091529
501.125862	0.091881
501.344311	0.092093
501.562742	0.092933
501.781154	0.093454
501.999548	0.093326
502.217924	0.094307
502.436282	0.094317
502.654621	0.093846
502.872942	0.093511
503.091245	0.092839
503.309530	0.092686
503.527797	0.092205
503.746045	0.091700
503.964275	0.092687
504.182487	0.092285
504.400681	0.092151
504.618856	0.092984
504.837013	0.092680
505.055152	0.093467
505.273273	0.093054
505.491376	0.092927
505.709460	0.092425
505.927526	0.092576
506.145574	0.092136
506.363604	0.091580
506.581615	0.090522
506.799608	0.091516
507.017583	0.091339
507.235540	0.092923
507.453478	0.093544
507.671399	0.094162
507.889301	0.093019
508.107185	0.092398
508.325050	0.093257
508.542898	0.092944
508.760727	0.092279
508.978538	0.092273
509.196330	0.091845
509.414105	0.091450
509.631861	0.090801
509.849599	0.091122
510.067319	0.092555
510.285021	0.091855
510.502704	0.093508
510.720369	0.094006
510.938016	0.094549
511.155645	0.093561
511.373255	0.093053
511.590848	0.093991
511.808422	0.093862
512.025977	0.093480
512.243515	0.094099
512.461034	0.093473
512.678536	0.093636
512.896018	0.093338
513.113483	0.094262
513.330930	0.094388
513.548358	0.095291
513.765768	0.096186
513.983160	0.096387
514.200533	0.095874
514.417889	0.095824
514.635226	0.095662
514.852545	0.095902
515.069845	0.095398
515.287128	0.095574
515.504392	0.094729
515.721638	0.094055
515.938866	0.093855
516.156075	0.093850
516.373267	0.094481
516.590440	0.094460
516.807594	0.094649
517.024731	0.095687
517.241850	0.096304
517.458950	0.096448
517.676032	0.096746
517.893095	0.097253
518.110141	0.097667
518.327168	0.097210
518.544177	0.096797
518.761168	0.097093
518.978141	0.096608
519.195095	0.096372
519.412031	0.096278
519.628949	0.096204
519.845849	0.095966
520.062731	0.096260
520.279594	0.096104
520.496439	0.097037
520.713266	0.096985
520.930074	0.097120
521.146865	0.097560
521.363637	0.097324
521.580391	0.097122
521.797127	0.097615
522.013844	0.096988
522.230543	0.097566
522.447224	0.097560
522.663887	0.097619
522.880532	0.097729
523.097158	0.097573
523.313766	0.098148
523.530356	0.099106
523.746928	0.099218
523.963481	0.099713
524.180017	0.099924
524.396534	0.099962
524.613032	0.100217
524.829513	0.100166
525.045975	0.100667
525.262420	0.100655
525.478845	0.100354
525.695253	0.099937
525.911643	0.100289
526.128014	0.099889
526.344367	0.100323
526.560702	0.099639
526.777018	0.099833
526.993316	0.100013
527.209597	0.100312
527.425858	0.100945
527.642102	0.101633
527.858328	0.101478
528.074535	0.102453
528.290724	0.102158
528.506894	0.102872
528.723047	0.103571
528.939181	0.102730
529.155297	0.101935
529.371395	0.101716
529.587475	0.101586
529.803536	0.102280
530.019579	0.101787
530.235604	0.102029
530.451611	0.102121
530.667600	0.101708
530.883570	0.102119
531.099522	0.103088
531.315456	0.103479
531.531372	0.103644
531.747269	0.103855
531.963148	0.104370
532.179009	0.104519
532.394852	0.104215
532.610676	0.104818
532.826482	0.105451
533.042271	0.105517
533.258040	0.105292
533.473792	0.105331
533.689525	0.105257
533.905240	0.104888
534.120937	0.104850
534.336616	0.105383
534.552277	0.105106
534.767919	0.104574
534.983543	0.104440
535.199149	0.104412
535.414736	0.104847
535.630306	0.104617
535.845857	0.105382
536.061390	0.105675
536.276904	0.105488
536.492401	0.105660
536.707879	0.106002
536.923339	0.106666
537.138781	0.106806
537.354204	0.106649
537.569610	0.106901
537.784997	0.106437
538.000366	0.106574
538.215716	0.107049
538.431049	0.107515
538.646363	0.107573
538.861659	0.107330
539.076937	0.107745
539.292196	0.107772
539.507438	0.108076
539.722661	0.108389
539.937866	0.108473
540.153052	0.108547
540.368221	0.108372
540.583371	0.108493
540.798503	0.108820
541.013617	0.109049
541.228712	0.109407
541.443789	0.109097
541.658848	0.109012
541.873889	0.109227
542.088912	0.109280
542.303916	0.109290
542.518902	0.109577
542.733870	0.109257
542.948820	0.109305
543.163752	0.109322
543.378665	0.109748
543.593560	0.110197
543.808437	0.110264
544.023295	0.110418
544.238136	0.110662
544.452958	0.110932
544.667762	0.111401
544.882548	0.111872
545.097315	0.111621
545.312064	0.111572
545.526795	0.111346
545.741508	0.111530
545.956203	0.111649
546.170879	0.111765
546.385537	0.111993
546.600177	0.112460
546.814799	0.111848
547.029402	0.112675
547.243988	0.112755
547.458555	0.112839
547.673103	0.112993
547.887634	0.113557
548.102146	0.114072
548.316640	0.113934
548.531116	0.113726
548.745574	0.113922
548.960013	0.113653
549.174435	0.113902
549.388838	0.114024
549.603222	0.113999
549.817589	0.114042
550.031937	0.113900
550.246267	0.114144
550.460579	0.114464
550.674873	0.114700
550.889148	0.114760
551.103405	0.114810
551.317644	0.114985
551.531865	0.115192
551.746068	0.115166
551.960252	0.115080
552.174418	0.115233
552.388566	0.114966
552.602696	0.114755
552.816807	0.114739
553.030900	0.115050
553.244975	0.115388
553.459032	0.115397
553.673070	0.115361
553.887091	0.115021
554.101093	0.115135
554.315077	0.115434
554.529042	0.115655
554.742990	0.115978
554.956919	0.115904
555.170830	0.116121
555.384722	0.116207
555.598597	0.116003
555.812453	0.116482
556.026291	0.116483
556.240111	0.116382
556.453913	0.116781
556.667696	0.116659
556.881461	0.116797
557.095208	0.116548
557.308937	0.116502
557.522647	0.116564
557.736339	0.116556
557.950013	0.116594
558.163669	0.116922
558.377307	0.116665
558.590926	0.117131
558.804527	0.117233
559.018110	0.117404
559.231675	0.117256
559.445221	0.117387
559.658749	0.117509
559.872259	0.117506
560.085751	0.117683
560.299225	0.118230
560.512680	0.118264
560.726117	0.118152
560.939536	0.118462
561.152937	0.118548
561.366319	0.118467
561.579683	0.118805
561.793029	0.118916
562.006357	0.118634
562.219667	0.118390
562.432958	0.118254
562.646231	0.118627
562.859486	0.118708
563.072723	0.119264
563.285941	0.119587
563.499141	0.119703
563.712323	0.119745
563.925487	0.119996
564.138632	0.120259
564.351760	0.120478
564.564869	0.120422
564.777960	0.120108
564.991032	0.119973
565.204087	0.120272
565.417123	0.120421
565.630141	0.120623
565.843140	0.120585
566.056122	0.120470
566.269085	0.120522
566.482030	0.120268
566.694957	0.120457
566.907866	0.120404
567.120756	0.120334
567.333628	0.120120
567.546482	0.120159
567.759318	0.120504
567.972135	0.120661
568.184935	0.120489
568.397716	0.120970
568.610478	0.121196
568.823223	0.121613
569.035949	0.121511
569.248657	0.121235
569.461347	0.121142
569.674019	0.121056
569.886672	0.121313
570.099308	0.121750
570.311925	0.121553
570.524523	0.121420
570.737104	0.121244
570.949666	0.121286
571.162210	0.121684
571.374736	0.122095
571.587244	0.122228
571.799733	0.121843
572.012205	0.121371
572.224658	0.121459
572.437092	0.121478
572.649509	0.121971
572.861907	0.122036
573.074287	0.122029
573.286649	0.121831
573.498993	0.121744
573.711318	0.121972
573.923625	0.122353
574.135914	0.122685
574.348185	0.123033
574.560438	0.122881
574.772672	0.123276
574.984888	0.123150
575.197086	0.123288
575.409266	0.123380
575.621427	0.123702
575.833570	0.123468
576.045695	0.123227
576.257802	0.123091
576.469890	0.123054
576.681961	0.123235
576.894013	0.123652
577.106046	0.123544
577.318062	0.123603
577.530059	0.123072
577.742039	0.123750
577.954000	0.123794
578.165942	0.124020
578.377867	0.124167
578.589773	0.124049
578.801661	0.124011
579.013531	0.124308
579.225382	0.124408
579.437216	0.124756
579.649031	0.124607
579.860828	0.124768
580.072606	0.125014
580.284367	0.124720
580.496109	0.124832
580.707833	0.124678
580.919539	0.124837
581.131227	0.124731
581.342896	0.124967
581.554547	0.124908
581.766180	0.124827
581.977795	0.124685
582.189391	0.124941
582.400969	0.124722
582.612529	0.125012
582.824071	0.124948
583.035595	0.125279
583.247100	0.125313
583.458587	0.125242
583.670056	0.125788
583.881506	0.126088
584.092939	0.126266
584.304353	0.126657
584.515749	0.127001
584.727127	0.127198
584.938486	0.127353
585.149828	0.127919
585.361151	0.128666
585.572456	0.128761
585.783742	0.128715
585.995011	0.128720
586.206261	0.128752
586.417493	0.128682
586.628706	0.128580
586.839902	0.128687
587.051079	0.128486
587.262238	0.128288
587.473379	0.128471
587.684502	0.128853
587.895606	0.129033
588.106692	0.129153
588.317760	0.129245
588.528810	0.129650
588.739841	0.129470
588.950855	0.129142
589.161850	0.129079
589.372827	0.128767
589.583785	0.128013
589.794726	0.128279
590.005648	0.128343
590.216552	0.128484
590.427437	0.128410
590.638305	0.128586
590.849154	0.129078
591.059985	0.129403
591.270798	0.129592
591.481592	0.129875
591.692369	0.129958
591.903127	0.129808
592.113867	0.129664
592.324588	0.129756
592.535292	0.129816
592.745977	0.129740
592.956644	0.129563
593.167293	0.129668
593.377923	0.130154
593.588536	0.130039
593.799130	0.130077
594.009706	0.130348
594.220263	0.130081
594.430803	0.130106
594.641324	0.130250
594.851827	0.130473
595.062312	0.130425
595.272778	0.130395
595.483227	0.130349
595.693657	0.130407
595.904069	0.130388
596.114462	0.130490
596.324838	0.130925
596.535195	0.131193
596.745534	0.131053
596.955855	0.131236
597.166157	0.131335
597.376441	0.131746
597.586707	0.132271
597.796955	0.132773
598.007185	0.132925
598.217396	0.132812
598.427589	0.132797
598.637764	0.132582
598.847921	0.132391
599.058060	0.132192
599.268180	0.132144
599.478282	0.131900
599.688366	0.131543
599.898431	0.132058
600.108479	0.131872
600.318508	0.131851
600.528519	0.132452
600.738511	0.132623
600.948486	0.132998
601.158442	0.132983
601.368380	0.132925
601.578300	0.132840
601.788202	0.132618
601.998085	0.132867
602.207950	0.133023
602.417797	0.133014
602.627626	0.133090
602.837436	0.133347
603.047228	0.133554
603.257002	0.134012
603.466758	0.134137
603.676496	0.134319
603.886215	0.134400
604.095916	0.134404
604.305599	0.134244
604.515264	0.134307
604.724910	0.134393
604.934538	0.134157
605.144148	0.134262
605.353740	0.134553
605.563314	0.134533
605.772869	0.134515
605.982406	0.134604
606.191925	0.134858
606.401425	0.134948
606.610908	0.134817
606.820372	0.134862
607.029818	0.134571
607.239246	0.134526
607.448655	0.134414
607.658047	0.134411
607.867420	0.134456
608.076775	0.134180
608.286111	0.134409
608.495430	0.134452
608.704730	0.134612
608.914012	0.134679
609.123275	0.134801
609.332521	0.134969
609.541748	0.135326
609.750957	0.135509
609.960148	0.136126
610.169321	0.136249
610.378475	0.136288
610.587611	0.136438
610.796729	0.136635
611.005829	0.136667
611.214910	0.137050
611.423974	0.137110
611.633019	0.137168
611.842045	0.137163
612.051054	0.136863
612.260044	0.136555
612.469017	0.136638
612.677970	0.136742
612.886906	0.136754
613.095824	0.136476
613.304723	0.136453
613.513604	0.136566
613.722467	0.136643
613.931311	0.137099
614.140138	0.137643
614.348946	0.137562
614.557736	0.137522
614.766507	0.137637
614.975261	0.137692
615.183996	0.137763
615.392713	0.137758
615.601412	0.137772
615.810092	0.137543
616.018754	0.137631
616.227399	0.137881
616.436024	0.138153
616.644632	0.138229
616.853222	0.138295
617.061793	0.138282
617.270346	0.138017
617.478880	0.138099
617.687397	0.138398
617.895895	0.138235
618.104375	0.138332
618.312837	0.138144
618.521281	0.138146
618.729706	0.138449
618.938113	0.138649
619.146502	0.138960
619.354873	0.138770
619.563226	0.138801
619.771560	0.138949
619.979876	0.138976
620.188174	0.139228
620.396453	0.139296
620.604715	0.139104
620.812958	0.139235
621.021183	0.139372
621.229390	0.139846
621.437578	0.139971
621.645748	0.140093
621.853900	0.140162
622.062034	0.140026
622.270150	0.139958
622.478247	0.140265
622.686326	0.140260
622.894387	0.140371
623.102430	0.140274
623.310454	0.140375
623.518461	0.140460
623.726449	0.140506
623.934418	0.140782
624.142370	0.141112
624.350303	0.140922
624.558218	0.140781
624.766115	0.140572
624.973994	0.140441
625.181855	0.140408
625.389697	0.140297
625.597521	0.140349
625.805327	0.140585
626.013114	0.140574
626.220883	0.141103
626.428634	0.141250
626.636367	0.141204
626.844082	0.141394
627.051778	0.141384
627.259457	0.141389
627.467117	0.141443
627.674758	0.141342
627.882382	0.141611
628.089987	0.141348
628.297574	0.141480
628.505143	0.141804
628.712694	0.142071
628.920226	0.142426
629.127740	0.142835
629.335236	0.142843
629.542714	0.142929
629.750174	0.142625
629.957615	0.142767
630.165038	0.142873
630.372443	0.143093
630.579829	0.142979
630.787198	0.142725
630.994548	0.142680
631.201880	0.142824
631.409194	0.142782
631.616489	0.142976
631.823766	0.143062
632.031025	0.143051
632.238266	0.143225
632.445489	0.143348
632.652693	0.143435
632.859879	0.143345
633.067047	0.143503
633.274197	0.143560
633.481329	0.143494
633.688442	0.143474
633.895537	0.143556
634.102614	0.143198
634.309672	0.143046
634.516713	0.143256
634.723735	0.143377
634.930739	0.143264
635.137724	0.143281
635.344692	0.143655
635.551641	0.143862
635.758572	0.143888
635.965485	0.144041
636.172379	0.144099
636.379256	0.143989
636.586114	0.144095
636.792954	0.144066
636.999775	0.143997
637.206579	0.143995
637.413364	0.144028
637.620131	0.144131
637.826880	0.144131
638.033610	0.144376
638.240323	0.144692
638.447017	0.144671
638.653692	0.144848
638.860350	0.145096
639.066990	0.144932
639.273611	0.144779
639.480214	0.144974
639.686798	0.145295
639.893365	0.145220
640.099913	0.145090
640.306443	0.145095
640.512955	0.145369
640.719449	0.145544
640.925924	0.145890
641.132381	0.146242
641.338820	0.146164
641.545241	0.146030
641.751644	0.146231
641.958028	0.146374
642.164394	0.146600
642.370742	0.146458
642.577071	0.146585
642.783383	0.146507
642.989676	0.146426
643.195951	0.146623
643.402207	0.146901
643.608446	0.147058
643.814666	0.147285
644.020868	0.147357
644.227052	0.147479
644.433218	0.147513
644.639365	0.147797
644.845494	0.147851
645.051605	0.147706
645.257698	0.147660
645.463772	0.147557
645.669828	0.147451
645.875866	0.147459
646.081886	0.147419
646.287888	0.147508
646.493871	0.147163
646.699836	0.147189
646.905783	0.147408
647.111712	0.147591
647.317622	0.147592
647.523514	0.147774
647.729388	0.147823
647.935244	0.148019
648.141082	0.148067
648.346901	0.148601
648.552702	0.148711
648.758485	0.148894
648.964250	0.148850
649.169996	0.149027
649.375724	0.149272
649.581434	0.149422
649.787126	0.149688
649.992800	0.149856
650.198455	0.149751
650.404092	0.149848
650.609711	0.149961
650.815311	0.149852
651.020894	0.150141
651.226458	0.149917
651.432004	0.149862
651.637532	0.149642
651.843041	0.149588
652.048532	0.149573
652.254006	0.149592
652.459460	0.149670
652.664897	0.149970
652.870315	0.149784
653.075716	0.149754
653.281097	0.150110
653.486461	0.150434
653.691807	0.150680
653.897134	0.150892
654.102443	0.151157
654.307734	0.151200
654.513006	0.151335
654.718261	0.151550
654.923497	0.151834
655.128715	0.151652
655.333915	0.151659
655.539096	0.151539
655.744259	0.151580
655.949404	0.151607
656.154531	0.151555
656.359640	0.151606
656.564730	0.151906
656.769802	0.151903
656.974856	0.152192
657.179892	0.152545
657.384909	0.152619
657.589908	0.152510
657.794889	0.152747
657.999852	0.152766
658.204797	0.152770
658.409723	0.152525
658.614631	0.152690
658.819521	0.152776
659.024393	0.152522
659.229246	0.152613
659.434081	0.152902
659.638898	0.152868
659.843697	0.153052
660.048478	0.153260
660.253240	0.153323
660.457984	0.153461
660.662710	0.153582
660.867417	0.153934
661.072107	0.154108
661.276778	0.154267
661.481431	0.154516
661.686066	0.154644
661.890682	0.154704
662.095281	0.154907
662.299861	0.154794
662.504422	0.154738
662.708966	0.154574
662.913491	0.154632
663.117999	0.154663
663.322488	0.154621
663.526958	0.154794
663.731411	0.154795
663.935845	0.154886
664.140261	0.155105
664.344659	0.155129
664.549038	0.155053
664.753400	0.155202
664.957743	0.155319
665.162068	0.155332
665.366375	0.155483
665.570663	0.155448
665.774933	0.155541
665.979185	0.155607
666.183419	0.155809
666.387635	0.156111
666.591832	0.156193
666.796011	0.156289
667.000172	0.156359
667.204315	0.156156
667.408439	0.156176
667.612545	0.156151
667.816634	0.156238
668.020703	0.156491
668.224755	0.156501
668.428788	0.156424
668.632803	0.156403
668.836800	0.156458
669.040779	0.156727
669.244739	0.157043
669.448681	0.156955
669.652605	0.156966
669.856511	0.156823
670.060399	0.156919
670.264268	0.157093
670.468119	0.157350
670.671952	0.157494
670.875767	0.157522
671.079563	0.157616
671.283341	0.157779
671.487101	0.157822
671.690843	0.157802
671.894567	0.157832
672.098272	0.157811
672.301959	0.157889
672.505628	0.157771
672.709278	0.158009
672.912911	0.157992
673.116525	0.158257
673.320121	0.158267
673.523699	0.158374
673.727258	0.158567
673.930799	0.158865
674.134322	0.158731
674.337827	0.158916
674.541314	0.158885
674.744782	0.159082
674.948232	0.159059
675.151664	0.159293
675.355078	0.159524
675.558474	0.159840
675.761851	0.159779
675.965210	0.159948
676.168551	0.159987
676.371873	0.159915
676.575178	0.159832
676.778464	0.160094
676.981732	0.160163
677.184981	0.160132
677.388213	0.159894
677.591426	0.160230
677.794621	0.160361
677.997798	0.160523
678.200956	0.160788
678.404097	0.161088
678.607219	0.161100
678.810323	0.161317
679.013408	0.161539
679.216476	0.161823
679.419525	0.161757
679.622556	0.161825
679.825569	0.161942
680.028563	0.162022
680.231540	0.162066
680.434498	0.162069
680.637438	0.162012
680.840359	0.161885
681.043263	0.161994
681.246148	0.161851
681.449015	0.161979
681.651864	0.161778
681.854694	0.161740
682.057506	0.161831
682.260301	0.162064
682.463076	0.162233
682.665834	0.162415
682.868573	0.162472
683.071295	0.162708
683.273998	0.162730
683.476682	0.163135
683.679349	0.163272
683.881997	0.163343
684.084627	0.163225
684.287239	0.163146
684.489833	0.163274
684.692408	0.163290
684.894965	0.163371
685.097504	0.163560
685.300025	0.163712
685.502527	0.163904
685.705012	0.163967
685.907478	0.164186
686.109925	0.164418
686.312355	0.164702
686.514766	0.164638
686.717159	0.165008
686.919534	0.165145
687.121891	0.165174
687.324230	0.165173
687.526550	0.165243
687.728852	0.165244
687.931136	0.165372
688.133401	0.165188
688.335649	0.165383
688.537878	0.165044
688.740089	0.165034
688.942281	0.164889
689.144456	0.164768
689.346612	0.164827
689.548750	0.164891
689.750870	0.165063
689.952971	0.165242
690.155055	0.165214
690.357120	0.165267
690.559167	0.165468
690.761195	0.165509
690.963206	0.165740
691.165198	0.165850
691.367172	0.165966
691.569128	0.165790
691.771065	0.165689
691.972984	0.165745
692.174885	0.166052
692.376768	0.165892
692.578633	0.166125
692.780479	0.166140
692.982308	0.166127
693.184118	0.166284
693.385909	0.166321
693.587683	0.166436
