sample name	sample
index	1521
start time	 05-18-2021  03:30:04 PM


Wavelength (nm)	Absorbance
494.344910	-0.122919
494.563924	-0.122919
494.782919	-0.122919
495.001897	1.032566
495.220856	0.017026
495.439797	0.034399
495.658719	0.024870
495.877624	0.004172
496.096510	-0.105944
496.315378	-0.050162
496.534227	-0.057057
496.753059	-0.046066
496.971872	-0.114169
497.190667	0.131517
497.409444	0.154419
497.628203	0.164103
497.846943	0.169809
498.065665	0.174087
498.284369	0.174410
498.503055	0.174042
498.721723	0.174009
498.940372	0.174062
499.159003	0.175945
499.377616	0.176238
499.596210	0.176510
499.814787	0.175749
500.033345	0.174505
500.251885	0.174170
500.470406	0.173901
500.688910	0.174929
500.907395	0.176682
501.125862	0.175670
501.344311	0.176321
501.562742	0.174961
501.781154	0.176685
501.999548	0.176897
502.217924	0.176907
502.436282	0.177673
502.654621	0.177483
502.872942	0.178037
503.091245	0.178876
503.309530	0.179362
503.527797	0.180898
503.746045	0.179680
503.964275	0.179940
504.182487	0.180814
504.400681	0.180287
504.618856	0.180159
504.837013	0.179285
505.055152	0.178747
505.273273	0.178958
505.491376	0.178280
505.709460	0.177679
505.927526	0.177090
506.145574	0.177576
506.363604	0.177455
506.581615	0.177691
506.799608	0.178520
507.017583	0.178154
507.235540	0.178655
507.453478	0.178980
507.671399	0.180485
507.889301	0.181665
508.107185	0.181055
508.325050	0.181186
508.542898	0.181629
508.760727	0.182468
508.978538	0.182518
509.196330	0.181867
509.414105	0.182199
509.631861	0.182302
509.849599	0.183079
510.067319	0.183394
510.285021	0.183711
510.502704	0.183129
510.720369	0.182461
510.938016	0.183349
511.155645	0.183649
511.373255	0.184179
511.590848	0.184001
511.808422	0.182885
512.025977	0.182876
512.243515	0.184219
512.461034	0.186052
512.678536	0.186826
512.896018	0.187058
513.113483	0.187443
513.330930	0.187578
513.548358	0.187524
513.765768	0.188333
513.983160	0.188777
514.200533	0.188991
514.417889	0.188619
514.635226	0.189054
514.852545	0.189579
515.069845	0.189716
515.287128	0.189838
515.504392	0.190524
515.721638	0.191416
515.938866	0.191906
516.156075	0.191905
516.373267	0.192491
516.590440	0.191959
516.807594	0.192611
517.024731	0.192940
517.241850	0.193294
517.458950	0.193770
517.676032	0.193187
517.893095	0.192983
518.110141	0.193256
518.327168	0.192599
518.544177	0.193011
518.761168	0.192713
518.978141	0.192905
519.195095	0.192991
519.412031	0.193233
519.628949	0.194264
519.845849	0.194038
520.062731	0.194743
520.279594	0.195034
520.496439	0.195702
520.713266	0.195799
520.930074	0.195579
521.146865	0.195655
521.363637	0.195662
521.580391	0.195210
521.797127	0.195471
522.013844	0.195983
522.230543	0.196585
522.447224	0.196805
522.663887	0.197645
522.880532	0.198879
523.097158	0.200060
523.313766	0.200755
523.530356	0.202099
523.746928	0.202896
523.963481	0.202635
524.180017	0.202770
524.396534	0.203347
524.613032	0.202742
524.829513	0.202755
525.045975	0.203210
525.262420	0.202836
525.478845	0.202372
525.695253	0.203157
525.911643	0.203076
526.128014	0.204021
526.344367	0.204628
526.560702	0.205746
526.777018	0.206184
526.993316	0.206428
527.209597	0.206849
527.425858	0.207320
527.642102	0.207365
527.858328	0.208436
528.074535	0.208526
528.290724	0.208045
528.506894	0.208159
528.723047	0.208812
528.939181	0.208388
529.155297	0.209004
529.371395	0.208849
529.587475	0.209194
529.803536	0.208863
530.019579	0.209179
530.235604	0.210068
530.451611	0.210703
530.667600	0.210555
530.883570	0.211362
531.099522	0.211787
531.315456	0.212725
531.531372	0.213574
531.747269	0.213915
531.963148	0.213792
532.179009	0.213149
532.394852	0.213419
532.610676	0.213249
532.826482	0.213365
533.042271	0.213405
533.258040	0.213851
533.473792	0.213722
533.689525	0.215220
533.905240	0.216176
534.120937	0.216971
534.336616	0.216666
534.552277	0.217401
534.767919	0.218148
534.983543	0.218934
535.199149	0.218912
535.414736	0.219274
535.630306	0.218988
535.845857	0.218715
536.061390	0.219257
536.276904	0.220110
536.492401	0.220484
536.707879	0.220737
536.923339	0.221020
537.138781	0.221912
537.354204	0.222290
537.569610	0.222322
537.784997	0.222837
538.000366	0.223087
538.215716	0.223888
538.431049	0.224190
538.646363	0.224294
538.861659	0.224707
539.076937	0.224977
539.292196	0.224977
539.507438	0.225482
539.722661	0.225929
539.937866	0.225894
540.153052	0.225559
540.368221	0.226008
540.583371	0.226123
540.798503	0.226010
541.013617	0.226255
541.228712	0.226923
541.443789	0.226643
541.658848	0.227133
541.873889	0.227980
542.088912	0.228333
542.303916	0.228280
542.518902	0.228560
542.733870	0.229176
542.948820	0.229775
543.163752	0.230072
543.378665	0.231321
543.593560	0.230912
543.808437	0.231230
544.023295	0.231753
544.238136	0.232394
544.452958	0.232790
544.667762	0.232610
544.882548	0.232619
545.097315	0.232715
545.312064	0.232192
545.526795	0.232805
545.741508	0.232583
545.956203	0.232737
546.170879	0.233425
546.385537	0.233783
546.600177	0.234440
546.814799	0.234810
547.029402	0.235234
547.243988	0.235729
547.458555	0.236518
547.673103	0.237053
547.887634	0.237460
548.102146	0.237484
548.316640	0.237711
548.531116	0.237702
548.745574	0.238172
548.960013	0.238367
549.174435	0.238556
549.388838	0.238918
549.603222	0.239269
549.817589	0.239462
550.031937	0.239284
550.246267	0.239560
550.460579	0.239648
550.674873	0.239636
550.889148	0.239680
551.103405	0.240036
551.317644	0.239917
551.531865	0.240328
551.746068	0.240826
551.960252	0.241426
552.174418	0.241767
552.388566	0.242727
552.602696	0.242424
552.816807	0.242928
553.030900	0.243090
553.244975	0.243334
553.459032	0.243351
553.673070	0.243616
553.887091	0.244091
554.101093	0.244124
554.315077	0.244309
554.529042	0.244660
554.742990	0.244782
554.956919	0.245022
555.170830	0.244694
555.384722	0.244737
555.598597	0.244490
555.812453	0.244484
556.026291	0.244507
556.240111	0.244701
556.453913	0.245726
556.667696	0.245760
556.881461	0.245955
557.095208	0.246754
557.308937	0.247194
557.522647	0.247411
557.736339	0.247743
557.950013	0.247987
558.163669	0.248000
558.377307	0.248073
558.590926	0.248637
558.804527	0.248924
559.018110	0.248546
559.231675	0.248569
559.445221	0.249106
559.658749	0.249248
559.872259	0.249813
560.085751	0.250250
560.299225	0.250160
560.512680	0.250117
560.726117	0.250638
560.939536	0.251634
561.152937	0.251695
561.366319	0.251562
561.579683	0.251512
561.793029	0.251435
562.006357	0.251397
562.219667	0.251753
562.432958	0.251562
562.646231	0.251404
562.859486	0.251042
563.072723	0.251154
563.285941	0.251194
563.499141	0.251422
563.712323	0.251929
563.925487	0.252118
564.138632	0.251713
564.351760	0.252311
564.564869	0.252573
564.777960	0.253381
564.991032	0.253815
565.204087	0.254093
565.417123	0.254030
565.630141	0.253828
565.843140	0.253914
566.056122	0.254397
566.269085	0.254877
566.482030	0.254706
566.694957	0.254235
566.907866	0.254000
567.120756	0.253974
567.333628	0.254595
567.546482	0.254917
567.759318	0.254912
567.972135	0.255016
568.184935	0.254547
568.397716	0.255045
568.610478	0.255305
568.823223	0.255589
569.035949	0.255795
569.248657	0.255917
569.461347	0.256147
569.674019	0.256652
569.886672	0.256814
570.099308	0.257214
570.311925	0.257006
570.524523	0.257362
570.737104	0.257606
570.949666	0.258221
571.162210	0.258015
571.374736	0.257820
571.587244	0.257785
571.799733	0.257974
572.012205	0.258426
572.224658	0.258740
572.437092	0.258839
572.649509	0.258991
572.861907	0.258825
573.074287	0.259215
573.286649	0.259750
573.498993	0.259919
573.711318	0.260034
573.923625	0.259518
574.135914	0.260048
574.348185	0.259857
574.560438	0.260223
574.772672	0.260769
574.984888	0.261160
575.197086	0.261168
575.409266	0.261519
575.621427	0.262036
575.833570	0.262710
576.045695	0.262862
576.257802	0.263873
576.469890	0.264307
576.681961	0.264565
576.894013	0.264590
577.106046	0.265068
577.318062	0.265424
577.530059	0.265338
577.742039	0.265686
577.954000	0.265929
578.165942	0.265410
578.377867	0.265324
578.589773	0.265289
578.801661	0.265929
579.013531	0.266135
579.225382	0.266065
579.437216	0.266269
579.649031	0.266488
579.860828	0.266530
580.072606	0.267206
580.284367	0.267363
580.496109	0.268045
580.707833	0.267581
580.919539	0.267899
581.131227	0.268414
581.342896	0.268441
581.554547	0.268352
581.766180	0.268701
581.977795	0.268912
582.189391	0.268887
582.400969	0.268587
582.612529	0.268983
582.824071	0.268775
583.035595	0.268760
583.247100	0.269069
583.458587	0.269407
583.670056	0.269305
583.881506	0.269662
584.092939	0.270014
584.304353	0.270619
584.515749	0.270513
584.727127	0.270896
584.938486	0.270780
585.149828	0.271134
585.361151	0.270981
585.572456	0.270829
585.783742	0.270487
585.995011	0.270593
586.206261	0.270333
586.417493	0.270937
586.628706	0.271225
586.839902	0.271370
587.051079	0.271490
587.262238	0.272052
587.473379	0.272089
587.684502	0.272292
587.895606	0.272988
588.106692	0.273387
588.317760	0.273750
588.528810	0.273701
588.739841	0.274131
588.950855	0.274075
589.161850	0.274273
589.372827	0.274896
589.583785	0.275387
589.794726	0.275362
590.005648	0.275353
590.216552	0.275671
590.427437	0.275792
590.638305	0.276145
590.849154	0.276627
591.059985	0.276333
591.270798	0.276678
591.481592	0.276643
591.692369	0.277069
591.903127	0.277573
592.113867	0.277242
592.324588	0.277873
592.535292	0.277923
592.745977	0.278237
592.956644	0.278778
593.167293	0.279093
593.377923	0.279431
593.588536	0.279240
593.799130	0.279260
594.009706	0.279418
594.220263	0.279122
594.430803	0.279625
594.641324	0.279528
594.851827	0.279642
595.062312	0.279678
595.272778	0.279763
595.483227	0.280093
595.693657	0.280086
595.904069	0.280501
596.114462	0.281067
596.324838	0.280744
596.535195	0.281216
596.745534	0.281766
596.955855	0.281994
597.166157	0.282563
597.376441	0.282837
597.586707	0.282892
597.796955	0.282823
598.007185	0.282724
598.217396	0.283251
598.427589	0.283872
598.637764	0.284168
598.847921	0.284335
599.058060	0.284478
599.268180	0.284849
599.478282	0.285339
599.688366	0.285640
599.898431	0.285574
600.108479	0.285576
600.318508	0.285371
600.528519	0.285314
600.738511	0.285670
600.948486	0.285772
601.158442	0.285834
601.368380	0.286483
601.578300	0.287002
601.788202	0.288102
601.998085	0.288442
602.207950	0.288433
602.417797	0.288658
602.627626	0.289030
602.837436	0.289185
603.047228	0.289218
603.257002	0.288903
603.466758	0.289039
603.676496	0.288637
603.886215	0.289090
604.095916	0.289520
604.305599	0.289960
604.515264	0.289643
604.724910	0.289717
604.934538	0.290103
605.144148	0.290276
605.353740	0.290476
605.563314	0.291105
605.772869	0.290987
605.982406	0.291323
606.191925	0.291720
606.401425	0.292301
606.610908	0.292299
606.820372	0.292465
607.029818	0.292594
607.239246	0.292786
607.448655	0.292830
607.658047	0.293308
607.867420	0.292918
608.076775	0.292600
608.286111	0.292402
608.495430	0.292741
608.704730	0.292475
608.914012	0.292717
609.123275	0.292686
609.332521	0.292441
609.541748	0.292368
609.750957	0.293027
609.960148	0.293530
610.169321	0.294006
610.378475	0.293942
610.587611	0.294269
610.796729	0.294558
611.005829	0.294635
611.214910	0.295010
611.423974	0.295163
611.633019	0.295184
611.842045	0.294972
612.051054	0.295063
612.260044	0.295555
612.469017	0.295665
612.677970	0.295726
612.886906	0.296284
613.095824	0.296729
613.304723	0.296648
613.513604	0.296710
613.722467	0.297388
613.931311	0.297764
614.140138	0.297825
614.348946	0.298250
614.557736	0.298653
614.766507	0.298601
614.975261	0.298643
615.183996	0.299089
615.392713	0.299303
615.601412	0.299045
615.810092	0.299117
616.018754	0.299336
616.227399	0.299352
616.436024	0.299344
616.644632	0.299765
616.853222	0.299857
617.061793	0.299850
617.270346	0.300208
617.478880	0.300346
617.687397	0.300183
617.895895	0.300554
618.104375	0.300840
618.312837	0.300879
618.521281	0.300821
618.729706	0.301197
618.938113	0.301790
619.146502	0.301909
619.354873	0.302232
619.563226	0.302852
619.771560	0.302819
619.979876	0.303217
620.188174	0.303650
620.396453	0.304014
620.604715	0.304119
620.812958	0.304069
621.021183	0.304317
621.229390	0.304393
621.437578	0.304474
621.645748	0.304812
621.853900	0.304987
622.062034	0.304880
622.270150	0.305181
622.478247	0.305225
622.686326	0.305527
622.894387	0.305446
623.102430	0.305816
623.310454	0.306150
623.518461	0.306320
623.726449	0.306521
623.934418	0.306806
624.142370	0.306920
624.350303	0.307050
624.558218	0.307269
624.766115	0.307569
624.973994	0.307700
625.181855	0.307966
625.389697	0.308132
625.597521	0.307948
625.805327	0.308384
626.013114	0.308196
626.220883	0.308492
626.428634	0.308419
626.636367	0.308549
626.844082	0.308355
627.051778	0.308390
627.259457	0.308291
627.467117	0.308505
627.674758	0.308619
627.882382	0.308962
628.089987	0.309097
628.297574	0.309482
628.505143	0.310131
628.712694	0.310748
628.920226	0.310825
629.127740	0.311229
629.335236	0.311862
629.542714	0.311871
629.750174	0.312344
629.957615	0.312637
630.165038	0.312757
630.372443	0.312695
630.579829	0.313030
630.787198	0.312988
630.994548	0.313084
631.201880	0.313078
631.409194	0.313296
631.616489	0.313110
631.823766	0.313215
632.031025	0.313784
632.238266	0.313920
632.445489	0.313926
632.652693	0.314424
632.859879	0.314626
633.067047	0.315235
633.274197	0.315100
633.481329	0.315515
633.688442	0.315815
633.895537	0.315484
634.102614	0.315759
634.309672	0.315731
634.516713	0.315522
634.723735	0.315591
634.930739	0.315313
635.137724	0.316023
635.344692	0.316168
635.551641	0.316487
635.758572	0.316784
635.965485	0.316800
636.172379	0.317044
636.379256	0.317709
636.586114	0.318400
636.792954	0.318588
636.999775	0.318869
637.206579	0.318728
637.413364	0.318899
637.620131	0.318889
637.826880	0.319173
638.033610	0.319382
638.240323	0.319500
638.447017	0.319588
638.653692	0.319898
638.860350	0.319753
639.066990	0.319997
639.273611	0.319958
639.480214	0.320337
639.686798	0.320306
639.893365	0.320477
640.099913	0.320436
640.306443	0.320333
640.512955	0.320262
640.719449	0.320758
640.925924	0.321115
641.132381	0.321350
641.338820	0.321562
641.545241	0.321734
641.751644	0.321772
641.958028	0.321728
642.164394	0.322155
642.370742	0.322476
642.577071	0.322314
642.783383	0.322438
642.989676	0.322471
643.195951	0.322499
643.402207	0.322649
643.608446	0.323091
643.814666	0.323874
644.020868	0.323904
644.227052	0.324007
644.433218	0.324148
644.639365	0.324388
644.845494	0.324906
645.051605	0.325225
645.257698	0.325597
645.463772	0.326012
645.669828	0.325790
645.875866	0.325767
646.081886	0.325849
646.287888	0.326341
646.493871	0.326467
646.699836	0.326470
646.905783	0.326797
647.111712	0.326812
647.317622	0.326681
647.523514	0.327235
647.729388	0.327604
647.935244	0.327785
648.141082	0.327893
648.346901	0.328366
648.552702	0.328767
648.758485	0.328816
648.964250	0.329366
649.169996	0.329531
649.375724	0.329724
649.581434	0.329836
649.787126	0.330099
649.992800	0.330111
650.198455	0.329928
650.404092	0.329889
650.609711	0.330415
650.815311	0.330402
651.020894	0.330616
651.226458	0.330613
651.432004	0.330650
651.637532	0.330618
651.843041	0.330939
652.048532	0.331348
652.254006	0.331358
652.459460	0.331162
652.664897	0.331223
652.870315	0.331435
653.075716	0.331735
653.281097	0.332210
653.486461	0.332919
653.691807	0.333144
653.897134	0.333415
654.102443	0.333693
654.307734	0.333992
654.513006	0.334573
654.718261	0.334765
654.923497	0.334926
655.128715	0.335048
655.333915	0.335319
655.539096	0.335508
655.744259	0.335562
655.949404	0.336026
656.154531	0.336331
656.359640	0.336517
656.564730	0.336915
656.769802	0.337048
656.974856	0.337418
657.179892	0.337420
657.384909	0.337717
657.589908	0.337945
657.794889	0.338000
657.999852	0.338322
658.204797	0.338226
658.409723	0.338377
658.614631	0.338530
658.819521	0.338778
659.024393	0.339162
659.229246	0.339490
659.434081	0.339951
659.638898	0.340198
659.843697	0.340157
660.048478	0.340573
660.253240	0.340783
660.457984	0.341050
660.662710	0.341152
660.867417	0.341034
661.072107	0.341273
661.276778	0.341414
661.481431	0.341583
661.686066	0.341803
661.890682	0.341992
662.095281	0.342323
662.299861	0.342726
662.504422	0.343047
662.708966	0.343348
662.913491	0.343712
663.117999	0.344100
663.322488	0.344613
663.526958	0.344983
663.731411	0.345195
663.935845	0.345269
664.140261	0.345503
664.344659	0.345863
664.549038	0.346303
664.753400	0.346292
664.957743	0.346336
665.162068	0.346469
665.366375	0.346806
665.570663	0.347157
665.774933	0.347781
665.979185	0.347808
666.183419	0.347786
666.387635	0.348117
666.591832	0.348288
666.796011	0.348727
667.000172	0.349099
667.204315	0.349571
667.408439	0.349744
667.612545	0.349899
667.816634	0.350252
668.020703	0.350701
668.224755	0.350879
668.428788	0.351408
668.632803	0.351421
668.836800	0.351766
669.040779	0.351937
669.244739	0.352131
669.448681	0.352233
669.652605	0.352771
669.856511	0.353047
670.060399	0.353366
670.264268	0.353567
670.468119	0.354129
670.671952	0.354505
670.875767	0.354667
671.079563	0.355284
671.283341	0.355804
671.487101	0.355819
671.690843	0.356256
671.894567	0.356431
672.098272	0.356572
672.301959	0.356771
672.505628	0.356675
672.709278	0.356951
672.912911	0.356818
673.116525	0.357153
673.320121	0.357441
673.523699	0.357525
673.727258	0.357913
673.930799	0.358090
674.134322	0.358289
674.337827	0.358589
674.541314	0.358954
674.744782	0.359616
674.948232	0.359476
675.151664	0.359847
675.355078	0.360291
675.558474	0.360739
675.761851	0.361020
675.965210	0.361067
676.168551	0.361273
676.371873	0.361259
676.575178	0.361466
676.778464	0.361904
676.981732	0.361972
677.184981	0.361940
677.388213	0.361778
677.591426	0.362046
677.794621	0.362525
677.997798	0.362872
678.200956	0.363136
678.404097	0.363162
678.607219	0.363317
678.810323	0.363640
679.013408	0.364157
679.216476	0.364477
679.419525	0.364741
679.622556	0.364748
679.825569	0.365099
680.028563	0.365306
680.231540	0.365369
680.434498	0.365521
680.637438	0.365641
680.840359	0.365555
681.043263	0.365676
681.246148	0.365977
681.449015	0.366292
681.651864	0.366176
681.854694	0.366402
682.057506	0.366989
682.260301	0.367223
682.463076	0.367602
682.665834	0.368102
682.868573	0.368588
683.071295	0.368779
683.273998	0.368973
683.476682	0.369207
683.679349	0.369510
683.881997	0.369331
684.084627	0.369639
684.287239	0.369680
684.489833	0.369764
684.692408	0.369603
684.894965	0.369727
685.097504	0.369992
685.300025	0.370403
685.502527	0.370637
685.705012	0.371042
685.907478	0.371330
686.109925	0.371570
686.312355	0.371573
686.514766	0.371960
686.717159	0.372188
686.919534	0.372495
687.121891	0.372500
687.324230	0.372556
687.526550	0.372852
687.728852	0.372925
687.931136	0.373130
688.133401	0.373439
688.335649	0.373874
688.537878	0.374033
688.740089	0.374158
688.942281	0.374516
689.144456	0.374824
689.346612	0.374840
689.548750	0.375051
689.750870	0.375522
689.952971	0.375746
690.155055	0.375814
690.357120	0.376099
690.559167	0.376289
690.761195	0.376551
690.963206	0.376690
691.165198	0.376902
691.367172	0.377141
691.569128	0.376990
691.771065	0.377132
691.972984	0.377204
692.174885	0.377449
692.376768	0.377647
692.578633	0.377699
692.780479	0.377743
692.982308	0.377846
693.184118	0.377987
693.385909	0.378066
