sample name	sample
index	844
start time	 04-05-2021  11:07:13 AM
880	0.420624
Peak Time (s)	92.538
Peak Height 	0.4206
calc peak height	90,93
Baseline Time (s)	11.036
Baseline Value 	-0.003402
subtract baseline	10,4
Abs	0.305454
Peak Time (s)	91.035
Peak Height 	0.3055
calc peak height	90,93
Baseline Time (s)	11.536
Baseline Value 	0.002465
subtract baseline	10,3
PK_550	0.161912
Peak Time (s)	91.536
Peak Height 	0.1619
calc peak height	90,93
Baseline Time (s)	11.036
Baseline Value 	2.1922E-4
subtract baseline	10,2
PK_880	0.282747
Peak Time (s)	91.536
Peak Height 	0.2827
calc peak height	90,93
Baseline Time (s)	11.036
Baseline Value 	4.0823E-4
subtract baseline	10,1


Time (s)	A880-A510	A880-A775	A880-A975	A880	I510	I775	I975	I880	
0.035000	-0.001884	-0.000371	-0.000992	0.001727	6603.639618	40366.574129	3850.177181	21828.161174
0.537500	-0.002760	-0.000846	-0.005143	0.006710	6552.286104	39897.450666	3826.930795	21610.579992
1.035500	-0.002891	-0.000993	-0.004567	0.003221	6581.643371	40184.016079	3837.217640	21762.676484
1.540500	-0.000411	-0.000633	-0.005586	0.000669	6626.047241	40435.533481	3841.122137	21874.718430
2.036500	-0.000649	-0.000476	0.000308	0.000052	6629.405237	40502.605148	3857.855280	21901.864399
2.539500	-0.003076	-0.000411	0.001078	0.006471	6551.624475	39955.089221	3843.323812	21620.984097
3.037000	0.000535	-0.000166	-0.007162	-0.001330	6652.270727	40649.812675	3842.201336	21962.889056
3.534500	-0.000806	-0.000479	-0.003096	0.000026	6628.250166	40504.678264	3849.144493	21903.031193
4.037500	-0.001229	-0.000288	-0.002848	0.000257	6622.442993	40501.154210	3849.186340	21892.839904
4.535000	0.000377	-0.000056	-0.002035	0.004841	6596.131411	40125.335500	3839.538108	21691.930879
5.034500	-0.001275	-0.000107	-0.001383	0.000868	6616.622727	40463.877734	3851.382163	21865.932030
5.535000	0.000857	0.000384	0.000342	0.000765	6636.466594	40515.468930	3856.100405	21870.479078
6.035500	0.000110	-0.000472	-0.002464	0.000491	6632.254425	40464.912122	3849.572445	21882.527153
6.535500	0.000421	-0.000360	-0.000746	-0.000151	6640.737559	40530.383234	3855.657650	21910.851945
7.036500	-0.001367	-0.000522	-0.002470	-0.000202	6625.293416	40520.718364	3851.339851	21913.080797
7.539500	-0.000578	-0.000323	-0.003476	-0.000251	6632.738479	40542.261591	3848.878971	21915.253764
8.036500	-0.000218	-0.000554	-0.000368	-0.000714	6640.059577	40562.444976	3858.091195	21935.702935
8.537000	-0.000282	-0.000527	0.003145	-0.000575	6638.246533	40552.666286	3866.862626	21929.542513
9.035000	0.000503	0.000229	-0.003707	0.000230	6638.070837	40548.413906	3847.049939	21894.029655
9.534500	-0.000229	0.000410	0.000966	0.000078	6632.909630	40577.328481	3859.494444	21900.717296
10.035500	0.000266	-0.000879	-0.002957	-0.000424	6641.783833	40508.996765	3850.656378	21922.865306
10.536000	-0.000452	-0.000469	0.003555	-0.000110	6632.600284	40517.341087	3866.719717	21909.012513
11.036000	0.000000	0.000000	-0.003331	0.000000	6635.643202	40548.528348	3848.607286	21904.175821
11.536000	0.000140	0.000291	0.000000	0.000300	6634.220930	40547.768729	3856.419273	21890.971418
12.036000	-0.002432	-0.001115	-0.001218	-0.000274	6616.489620	40475.449991	3854.751706	21916.246152
12.539500	-0.000276	-0.000363	-0.003590	0.001918	6616.175531	40350.861718	3843.029973	21819.817405
13.037500	0.001203	-0.000007	0.000284	-0.000547	6651.248121	40595.525706	3859.348540	21928.327947
13.542000	-0.000126	0.000474	-0.005438	0.000338	6631.516312	40560.304366	3842.343488	21889.267829
14.038000	-0.002618	-0.000045	0.000780	0.003462	6581.922381	40244.937702	3850.273802	21752.143273
14.540500	-0.001718	-0.000564	-0.001457	0.004722	6578.768441	40091.865338	3841.315894	21697.120298
15.045500	0.001512	0.000455	0.000930	0.000273	6646.680111	40564.330152	3858.895267	21892.122454
15.536000	0.002149	0.001286	0.000216	0.000771	6647.924019	40593.285725	3855.758557	21870.216925
16.036000	0.000603	-0.000309	-0.001335	0.000117	6639.963477	40511.482055	3853.442444	21899.001861
16.536500	-0.003326	-0.000341	0.000271	0.006285	6551.066160	39976.967753	3841.736117	21629.055509
17.039500	0.001899	0.000122	-0.000791	-0.001911	6669.693086	40725.680646	3860.097012	21988.629526
17.537000	0.000495	0.000169	-0.000009	0.000906	6631.995524	40484.550544	3854.830442	21864.292215
18.037000	-0.002607	-0.000677	-0.003164	0.001196	6601.946638	40386.035725	3845.965110	21851.502144
18.535000	-0.001482	-0.000185	-0.002547	0.003137	6594.764872	40260.895458	3842.579557	21766.356493
19.035000	-0.001226	-0.000124	-0.002745	0.002047	6606.635154	40360.328485	3844.859297	21814.139658
19.536000	-0.000599	0.000200	-0.001015	0.002382	6609.201973	40359.315135	3848.434476	21799.417175
20.035000	-0.001535	-0.000959	0.002186	0.001385	6609.747887	40345.352584	3859.268910	21843.192912
20.535500	-0.002026	-0.000953	-0.005871	0.002276	6597.555264	40268.933333	3836.306361	21804.087976
21.039000	0.000424	0.000754	0.002082	0.002532	6616.929850	40394.242864	3856.029261	21792.852409
21.536500	0.000285	0.000406	-0.003306	0.002314	6617.626361	40383.050553	3842.741918	21802.399518
22.036500	0.000042	-0.000102	0.003863	0.001679	6621.107730	40394.068839	3862.863161	21830.304446
22.537500	-0.000839	0.000219	-0.002487	0.003359	6598.475546	40276.599795	3842.165497	21756.653111
23.034500	-0.000483	0.000263	-0.001924	0.002359	6610.439407	40366.857487	3846.165254	21800.468763
23.534500	-0.000271	0.000615	-0.000380	0.002273	6613.073224	40404.699836	3850.347357	21804.204237
24.038500	0.001407	-0.000800	0.004743	0.001472	6635.068187	40351.548881	3865.693863	21839.395443
24.535500	-0.000238	-0.000401	-0.005332	0.003097	6606.084349	40245.757563	3835.590112	21768.122283
25.036000	-0.001253	0.000101	-0.000304	0.002066	6606.230351	40378.110974	3851.077651	21813.312563
25.536500	0.000034	-0.000235	0.002932	0.001411	6623.418810	40405.770846	3861.139478	21842.084714
26.036500	0.000827	-0.000026	0.005135	0.001692	6627.954753	40399.526758	3866.139321	21829.717090
26.539500	-0.002772	-0.000933	-0.000014	0.002494	6589.071190	40251.848463	3850.723925	21794.548024
27.040500	0.000377	-0.000538	0.003442	0.001078	6629.409437	40408.321652	3863.328467	21856.688646
27.537000	0.002280	0.000929	0.000007	-0.001283	6667.480526	40741.315933	3860.539165	21960.835145
28.035000	0.001210	-0.000457	-0.004075	-0.000447	6650.415736	40547.661263	3847.844923	21923.899808
28.534500	0.002644	-0.000078	-0.002908	0.002308	6638.637848	40341.745820	3843.775587	21802.681766
29.035500	0.000774	0.000051	0.001481	-0.000337	6645.539320	40582.325136	3861.910483	21919.051921
29.535500	0.002358	-0.000123	-0.000728	-0.000194	6658.414273	40554.650468	3855.811903	21912.720851
30.036500	0.001251	-0.000188	0.000766	-0.000417	6650.515196	40568.492279	3860.262454	21922.587991
30.536000	-0.001089	-0.000653	-0.000746	0.000289	6623.401319	40466.663941	3854.516842	21891.419648
31.039000	-0.001776	-0.000290	0.000683	0.002719	6595.852352	40287.888786	3851.937840	21784.657872
31.543500	0.000390	-0.000698	-0.000949	-0.000508	6643.649644	40532.018744	3856.054806	21926.604836
32.034000	0.000939	-0.000040	-0.002583	-0.000559	6648.996034	40593.665708	3851.970598	21928.859594
32.537000	0.000048	0.000476	-0.002460	0.000996	6627.222668	40503.393202	3848.284528	21860.319195
33.038000	-0.001281	-0.001227	-0.001847	-0.001660	6639.018689	40586.211724	3856.711615	21977.526769
33.535000	0.002133	0.000411	0.004516	-0.000052	6655.135331	40588.802593	3869.079260	21906.482493
34.035500	0.000323	-0.000348	-0.002602	0.001366	6626.375264	40399.825039	3846.972098	21844.036672
34.535500	-0.002190	-0.000240	-0.000841	0.001694	6601.240344	40380.797901	3850.653521	21829.639812
35.035500	0.000237	-0.000276	-0.001092	0.001913	6620.757226	40358.786103	3849.443513	21820.025897
35.536000	-0.001425	-0.000596	-0.003759	0.001554	6609.229987	40362.127253	3843.529602	21835.801289
36.036500	0.001365	0.000050	-0.000857	0.002385	6626.576504	40346.146297	3848.833888	21799.301152
36.537000	0.000943	0.000764	0.001351	0.004148	6607.231119	40255.585838	3849.980032	21722.169218
37.037000	-0.000519	0.000284	0.002922	0.002772	6606.463608	40332.822769	3857.582029	21782.326805
37.535000	0.000340	-0.000178	0.001321	0.002783	6613.964602	40292.016031	3853.418552	21781.871144
38.035000	-0.000787	-0.000538	-0.000088	0.001722	6613.379704	40352.600024	3852.518237	21828.381810
38.535500	-0.000844	-0.000002	-0.003452	0.003813	6594.426424	40218.386248	3838.549814	21736.807328
39.036000	0.001391	0.001131	-0.000228	0.003393	6617.875281	40352.498381	3847.862498	21755.172091
39.536000	-0.001097	0.000113	0.002018	0.002414	6604.526303	40349.035099	3856.170810	21798.034940
40.035500	-0.001456	-0.000086	0.003629	0.002606	6599.675677	40315.308221	3859.845020	21789.632575
40.539500	-0.001602	0.000121	-0.003985	0.003416	6591.246595	40263.233604	3838.200977	21754.149198
41.036500	-0.001677	0.000106	-0.000296	0.002309	6600.336911	40357.554033	3850.471554	21802.645098
41.537000	-0.000890	-0.000071	-0.000015	0.002030	6609.749171	40366.345960	3851.914774	21814.874047
42.034500	0.000705	0.000841	0.002220	0.002945	6615.762377	40366.124492	3855.318504	21774.768536
42.535000	-0.001052	0.000247	-0.006815	0.003494	6595.405749	40267.380258	3830.827992	21750.737185
43.035000	-0.000001	-0.000407	-0.000604	0.002129	6616.732611	40328.708214	3850.141721	21810.518069
43.535500	-0.000766	-0.000401	-0.004582	0.001905	6611.954270	40348.622230	3840.529862	21820.368422
44.035500	0.001791	0.000112	-0.001284	-0.002366	6672.809920	40764.531840	3859.997086	22008.763844
44.536000	-0.002700	0.000559	-0.001445	0.004956	6568.116127	40168.288983	3840.749097	21686.903384
45.036000	0.004052	0.000449	0.003841	0.000352	6668.708327	40556.923336	3866.260437	21888.662547
45.537000	0.002381	0.000446	-0.002204	0.000124	6655.777640	40576.539419	3851.183963	21898.700694
46.037000	0.000274	0.000040	0.002266	-0.000627	6643.661453	40606.523338	3864.705190	21931.827318
46.536500	-0.000194	-0.001216	-0.004574	0.003330	6604.411971	40155.424523	3836.922596	21757.905339
47.035000	0.001009	0.000363	-0.001793	0.000335	6641.642673	40550.940047	3851.700497	21889.395553
47.535000	-0.001125	0.000096	-0.001108	0.003144	6597.844995	40284.545366	3846.245350	21766.073191
48.035500	0.001888	-0.000114	-0.001224	0.002551	6629.749268	40317.666801	3847.467528	21792.047571
48.538000	-0.000160	-0.000087	0.002214	0.004596	6593.559454	40143.710779	3851.045341	21702.607005
49.036000	0.001050	0.000329	0.003281	0.000150	6643.664467	40564.106872	3865.328035	21897.578023
49.536000	0.003212	0.000225	0.000607	0.000188	6662.645514	40551.743941	3858.279858	21895.902563
50.039000	0.003815	0.000568	-0.003592	-0.001601	6684.133052	40737.452746	3852.051589	21974.874051
50.537000	-0.001866	-0.000354	-0.001250	0.005607	6569.724718	40033.992864	3839.587925	21658.555732
51.037000	0.001573	-0.000284	0.005677	0.008726	6572.514912	39773.472743	3849.331641	21523.271686
51.537500	-0.017638	-0.002088	0.023175	0.136127	5483.461669	30259.245408	3599.783966	16751.822883
52.035000	-0.046117	-0.012397	0.020364	0.129998	5347.420832	29996.205061	3606.429445	16950.738464
52.535500	-0.043918	-0.012455	-0.006426	-0.040099	6601.818077	43029.441947	3947.813924	23756.381963
53.035500	-0.034964	-0.038432	-0.025863	-0.236198	8913.229309	62319.959942	4557.518244	35741.809949
53.535500	-0.012372	-0.053461	-0.017850	-0.265496	9692.699222	64307.963170	4721.182618	38043.856813
54.036000	-0.004165	-0.060589	-0.011607	-0.275923	9996.139995	64777.012420	4798.973605	38901.365661
54.536500	-0.003484	-0.023599	-0.004973	-0.207114	8947.217927	60398.584804	4523.424204	33605.153356
55.036500	-0.001953	-0.016279	0.000917	-0.185253	8664.770953	58501.985297	4458.780887	32090.701160
55.536500	0.012266	-0.006794	0.006744	-0.164836	8581.272695	57117.431900	4401.776818	30743.580704
56.037500	0.022643	0.000056	0.015195	-0.145190	8458.581281	55540.399965	4359.315802	29505.699880
56.534500	0.041010	0.011131	0.023901	-0.114164	8295.200920	53172.388141	4277.852773	27661.324084
57.035000	0.054714	0.017704	0.040237	-0.096826	8249.175810	51939.211026	4274.293516	26686.657054
57.535000	0.066283	0.026330	0.053064	-0.058546	7922.417756	48695.994331	4186.568651	24667.600166
58.036000	0.078322	0.035499	0.071830	-0.016553	7579.117752	45355.093023	4110.880687	22648.106353
58.536000	0.090265	0.042952	0.084774	0.018569	7329.251058	42728.445888	4042.292009	21102.699270
59.036000	0.101535	0.051217	0.103079	0.053493	7087.648718	40351.226338	3993.142754	19685.095989
59.539000	0.115159	0.057815	0.117073	0.082807	6934.498129	38437.677167	3949.472850	18580.129880
60.037000	0.124672	0.067991	0.131106	0.112520	6745.289895	36870.011034	3906.340066	17533.664604
60.536500	0.137998	0.074237	0.141679	0.142594	6594.965224	35051.091961	3854.827584	16544.947699
61.037500	0.144722	0.080088	0.151672	0.165144	6458.138743	33834.614185	3822.861528	15847.248021
61.538000	0.152976	0.085836	0.166122	0.202081	6222.518581	31684.011619	3767.878011	14779.853425
62.035000	0.158565	0.089114	0.174665	0.208825	6213.350546	31454.457493	3772.171831	14594.570354
62.539000	0.171086	0.094729	0.169798	0.204138	6352.462809	32142.242573	3771.740282	14723.022997
63.036000	0.169671	0.094574	0.181150	0.205589	6328.908714	32033.956846	3795.689542	14683.112712
63.536000	0.176059	0.098890	0.180657	0.208677	6356.051148	32116.758448	3786.964690	14598.617825
64.044000	0.178678	0.100654	0.178362	0.212668	6344.742196	31966.782493	3771.822994	14490.276969
64.536500	0.183259	0.104592	0.184797	0.223674	6292.269085	31496.028940	3760.949727	14196.646694
65.037000	0.190950	0.106037	0.194066	0.221109	6376.404268	31762.148741	3789.339933	14264.417388
65.537500	0.196332	0.108225	0.199121	0.225448	6385.077378	31619.111745	3791.082104	14150.009961
66.037000	0.200361	0.109968	0.200057	0.230291	6378.300120	31414.063275	3781.604960	14023.635976
66.535000	0.201518	0.112610	0.200342	0.235198	6347.294191	31265.270519	3770.509153	13897.048633
67.035000	0.205141	0.113917	0.207253	0.239565	6341.176289	31065.397690	3776.602931	13785.584146
67.535000	0.208502	0.115585	0.210889	0.244158	6331.062132	30875.636147	3774.304101	13669.539943
68.035500	0.211891	0.118314	0.210622	0.250980	6303.028171	30612.318154	3757.449307	13499.444791
68.536000	0.215568	0.118280	0.208432	0.253295	6314.130893	30462.317607	3746.880861	13442.340959
69.036500	0.218026	0.120404	0.214744	0.258405	6292.563362	30272.790367	3749.689839	13317.334927
69.536500	0.221920	0.122551	0.221839	0.263616	6281.899042	30079.649990	3754.109061	13191.367783
70.037000	0.223837	0.125112	0.220092	0.271369	6235.039078	29755.459594	3732.017907	13006.708767
70.537500	0.221434	0.126123	0.221162	0.279852	6149.296539	29295.663553	3715.111799	12808.418801
71.037500	0.228671	0.128573	0.224406	0.278586	6216.084760	29523.350998	3725.363495	12837.783961
71.535500	0.230798	0.130655	0.230341	0.283282	6195.766177	29362.993859	3728.197638	12729.344380
72.035500	0.231964	0.131402	0.233470	0.290607	6147.549457	28963.714849	3718.631465	12562.536923
72.535500	0.233849	0.132777	0.234241	0.298768	6099.116822	28558.093991	3702.004770	12379.984993
73.035500	0.237222	0.133999	0.238824	0.297508	6134.798173	28705.677253	3715.126001	12407.933234
73.539500	0.239123	0.135434	0.236454	0.302202	6113.240771	28512.024232	3699.285201	12304.181266
74.036500	0.236679	0.136163	0.243383	0.308679	6045.293724	28173.964394	3700.290021	12162.833421
74.536500	0.238527	0.138255	0.239045	0.316440	6001.022269	27844.881201	3673.719603	11996.210627
75.037000	0.243986	0.139439	0.246159	0.316520	6041.270196	27908.700892	3689.077539	11994.521839
75.534500	0.246480	0.140341	0.252720	0.319736	6035.837787	27775.241498	3696.468925	11926.357242
76.034500	0.246497	0.140134	0.248188	0.326475	5985.701894	27378.986405	3671.791713	11785.160430
76.535000	0.244878	0.141155	0.249302	0.333407	5923.031274	27046.741196	3659.300317	11642.174962
77.035500	0.250881	0.141762	0.256087	0.329974	5992.257605	27273.347945	3681.347369	11712.699115
77.535500	0.249514	0.143350	0.257379	0.333139	5958.821818	27184.594878	3677.267516	11647.653367
78.035500	0.250192	0.143245	0.258893	0.340350	5911.237724	26777.334756	3664.964043	11501.244002
78.536500	0.250707	0.145387	0.263804	0.346896	5867.930672	26535.382853	3661.461661	11370.406087
79.036500	0.255065	0.145505	0.263477	0.343562	5923.265322	26724.794810	3667.911488	11436.791896
79.537000	0.255933	0.147389	0.264683	0.347692	5899.674121	26601.378274	3661.640167	11354.625670
80.036500	0.253564	0.146963	0.266381	0.354953	5831.074092	26183.821948	3649.821589	11212.059493
80.537500	0.258838	0.149790	0.265759	0.355399	5865.280403	26312.352839	3647.571526	11203.380722
81.035500	0.259418	0.150085	0.273003	0.358081	5850.344327	26183.541154	3657.228381	11151.383921
81.535500	0.261084	0.150133	0.271528	0.360854	5842.506812	26037.258096	3648.234342	11097.947672
82.035500	0.262422	0.153059	0.271692	0.371798	5775.322533	25612.215247	3625.799154	10890.352504
82.536000	0.260145	0.150557	0.274606	0.373625	5747.070188	25385.927544	3628.036823	10856.201428
83.038500	0.268613	0.153459	0.279495	0.372944	5810.418592	25573.053009	3639.586195	10868.912357
83.536500	0.270048	0.154208	0.274778	0.375753	5800.817591	25465.260865	3624.015429	10816.602445
84.036500	0.268305	0.153990	0.281067	0.378921	5766.758072	25289.274902	3630.440089	10758.017927
84.537000	0.266209	0.154429	0.275420	0.388337	5688.398145	24829.153665	3599.852495	10586.385083
85.037000	0.270822	0.154655	0.285078	0.385781	5736.953461	24970.745454	3624.572759	10632.606887
85.535000	0.270365	0.154499	0.285241	0.387705	5720.740423	24864.861978	3620.966095	10597.799058
86.035000	0.270003	0.153926	0.282763	0.395814	5663.769267	24428.126260	3599.585096	10452.725935
86.536000	0.269872	0.155824	0.290141	0.400068	5634.716306	24311.130107	3605.841681	10377.706112
87.036000	0.274537	0.158171	0.288932	0.397270	5684.342847	24567.455489	3609.038726	10426.966211
87.536000	0.274547	0.157838	0.293674	0.398688	5674.909489	24479.862642	3615.769103	10401.961658
88.036500	0.279854	0.158559	0.292511	0.401623	5690.811945	24369.639536	3607.480553	10350.464794
88.537000	0.276916	0.158082	0.302931	0.402348	5666.289197	24309.991421	3627.215778	10337.789541
89.037000	0.277714	0.158679	0.298991	0.404105	5659.908737	24252.635345	3615.564139	10307.179645
89.537000	0.279298	0.159718	0.299481	0.406705	5653.159987	24175.694918	3611.289168	10262.110803
90.034500	0.276112	0.160510	0.291095	0.414303	5582.480110	23843.316224	3579.558510	10131.924311
90.535000	0.275044	0.158175	0.297454	0.414107	5576.842902	23739.934353	3592.430296	10135.257786
91.035500	0.281643	0.161153	0.305454	0.411081	5639.710364	24031.428708	3614.523102	10186.852923
91.536000	0.282747	0.161912	0.303068	0.412907	5634.949910	23979.367439	3606.018243	10155.683014
92.036000	0.280441	0.160834	0.304035	0.418582	5582.810949	23652.589249	3596.608267	10059.616649
92.538500	0.279631	0.161058	0.303197	0.420624	5564.406646	23565.479474	3590.899991	10025.357249
93.036000	0.285054	0.161176	0.306702	0.415045	5636.061698	23839.607762	3609.028364	10119.332681
93.536500	0.286067	0.163473	0.303183	0.417213	5628.454427	23845.904255	3597.635550	10082.672758
94.034000	0.280278	0.163085	0.304886	0.423661	5549.075253	23517.236367	3588.240894	9974.685891
94.534500	0.283800	0.163286	0.308481	0.424989	5563.146336	23463.548780	3592.718506	9952.658150
95.037500	0.285574	0.164145	0.309788	0.420148	5605.989047	23736.497530	3604.969993	10033.313996
95.534500	0.288264	0.165040	0.313854	0.420917	5618.561719	23742.598410	3611.615920	10020.453897
96.035000	0.284078	0.164073	0.303911	0.426903	5552.645755	23409.998597	3579.979404	9921.002167
96.535500	0.289982	0.165141	0.308729	0.421420	5626.538071	23723.226189	3600.305389	10012.042962
