sample name	sample
index	961
start time	 04-12-2021  04:12:00 PM


Wavelength (nm)	Absorbance
494.344910	-0.088941
494.563924	-0.088941
494.782919	-0.088941
495.001897	-0.118672
495.220856	-0.031286
495.439797	-0.023418
495.658719	-0.010155
495.877624	0.004157
496.096510	0.008278
496.315378	-0.027061
496.534227	-0.056416
496.753059	-0.049316
496.971872	-0.036490
497.190667	0.130434
497.409444	0.158870
497.628203	0.168915
497.846943	0.173180
498.065665	0.174947
498.284369	0.178875
498.503055	0.181073
498.721723	0.182632
498.940372	0.183643
499.159003	0.183927
499.377616	0.184566
499.596210	0.184195
499.814787	0.184689
500.033345	0.184508
500.251885	0.184051
500.470406	0.183649
500.688910	0.183343
500.907395	0.183048
501.125862	0.184011
501.344311	0.184249
501.562742	0.185548
501.781154	0.186953
501.999548	0.188284
502.217924	0.188825
502.436282	0.188846
502.654621	0.189117
502.872942	0.189106
503.091245	0.189381
503.309530	0.189411
503.527797	0.188447
503.746045	0.186945
503.964275	0.186923
504.182487	0.186837
504.400681	0.187537
504.618856	0.187952
504.837013	0.188205
505.055152	0.187959
505.273273	0.187773
505.491376	0.188030
505.709460	0.188512
505.927526	0.188982
506.145574	0.188361
506.363604	0.188982
506.581615	0.188261
506.799608	0.187984
507.017583	0.188844
507.235540	0.189560
507.453478	0.190055
507.671399	0.190747
507.889301	0.190466
508.107185	0.190917
508.325050	0.190902
508.542898	0.192022
508.760727	0.193182
508.978538	0.192825
509.196330	0.193761
509.414105	0.193693
509.631861	0.193402
509.849599	0.193787
510.067319	0.194814
510.285021	0.194508
510.502704	0.194239
510.720369	0.194693
510.938016	0.194501
511.155645	0.194685
511.373255	0.195017
511.590848	0.195304
511.808422	0.195716
512.025977	0.195529
512.243515	0.196202
512.461034	0.197027
512.678536	0.197694
512.896018	0.198461
513.113483	0.198081
513.330930	0.199104
513.548358	0.200070
513.765768	0.200481
513.983160	0.200574
514.200533	0.200604
514.417889	0.201088
514.635226	0.201088
514.852545	0.201176
515.069845	0.201805
515.287128	0.202059
515.504392	0.201687
515.721638	0.201231
515.938866	0.201937
516.156075	0.202823
516.373267	0.202609
516.590440	0.203040
516.807594	0.203582
517.024731	0.203671
517.241850	0.203767
517.458950	0.204367
517.676032	0.205329
517.893095	0.205693
518.110141	0.205125
518.327168	0.205397
518.544177	0.204951
518.761168	0.204902
518.978141	0.205300
519.195095	0.206242
519.412031	0.206088
519.628949	0.206530
519.845849	0.207218
520.062731	0.208481
520.279594	0.208944
520.496439	0.209803
520.713266	0.211206
520.930074	0.211343
521.146865	0.210704
521.363637	0.211337
521.580391	0.211055
521.797127	0.210341
522.013844	0.210010
522.230543	0.210551
522.447224	0.210875
522.663887	0.210599
522.880532	0.211038
523.097158	0.212212
523.313766	0.211704
523.530356	0.212892
523.746928	0.213921
523.963481	0.214372
524.180017	0.214843
524.396534	0.214664
524.613032	0.214571
524.829513	0.214640
525.045975	0.214062
525.262420	0.215121
525.478845	0.214665
525.695253	0.215276
525.911643	0.215563
526.128014	0.215376
526.344367	0.215816
526.560702	0.215975
526.777018	0.216593
526.993316	0.217330
527.209597	0.217662
527.425858	0.218683
527.642102	0.218781
527.858328	0.219417
528.074535	0.220578
528.290724	0.221678
528.506894	0.222078
528.723047	0.222500
528.939181	0.222473
529.155297	0.222808
529.371395	0.223165
529.587475	0.223584
529.803536	0.223696
530.019579	0.223802
530.235604	0.223654
530.451611	0.224162
530.667600	0.224766
530.883570	0.225569
531.099522	0.226137
531.315456	0.226641
531.531372	0.226683
531.747269	0.227483
531.963148	0.228022
532.179009	0.228527
532.394852	0.229142
532.610676	0.229105
532.826482	0.229406
533.042271	0.229847
533.258040	0.229508
533.473792	0.230183
533.689525	0.230835
533.905240	0.230203
534.120937	0.230670
534.336616	0.231290
534.552277	0.231786
534.767919	0.232516
534.983543	0.232877
535.199149	0.233610
535.414736	0.234231
535.630306	0.234335
535.845857	0.235004
536.061390	0.234653
536.276904	0.234829
536.492401	0.235710
536.707879	0.235953
536.923339	0.235942
537.138781	0.236036
537.354204	0.235691
537.569610	0.235737
537.784997	0.236326
538.000366	0.237297
538.215716	0.237770
538.431049	0.237374
538.646363	0.237690
538.861659	0.238361
539.076937	0.238563
539.292196	0.239777
539.507438	0.240200
539.722661	0.240530
539.937866	0.240348
540.153052	0.240773
540.368221	0.241159
540.583371	0.241401
540.798503	0.241973
541.013617	0.242501
541.228712	0.241842
541.443789	0.242131
541.658848	0.242523
541.873889	0.243492
542.088912	0.243640
542.303916	0.244004
542.518902	0.244077
542.733870	0.243866
542.948820	0.244007
543.163752	0.244946
543.378665	0.245561
543.593560	0.245238
543.808437	0.245524
544.023295	0.245616
544.238136	0.246026
544.452958	0.246216
544.667762	0.246417
544.882548	0.247061
545.097315	0.247839
545.312064	0.248348
545.526795	0.249238
545.741508	0.249448
545.956203	0.249568
546.170879	0.250106
546.385537	0.250658
546.600177	0.251505
546.814799	0.252046
547.029402	0.251795
547.243988	0.251690
547.458555	0.251991
547.673103	0.252430
547.887634	0.253046
548.102146	0.253117
548.316640	0.253507
548.531116	0.253726
548.745574	0.254182
548.960013	0.254399
549.174435	0.255023
549.388838	0.255174
549.603222	0.255506
549.817589	0.256093
550.031937	0.256412
550.246267	0.256625
550.460579	0.256469
550.674873	0.256163
550.889148	0.256575
551.103405	0.256835
551.317644	0.257263
551.531865	0.257155
551.746068	0.257772
551.960252	0.258120
552.174418	0.257827
552.388566	0.258336
552.602696	0.258601
552.816807	0.258854
553.030900	0.258834
553.244975	0.258896
553.459032	0.259343
553.673070	0.258957
553.887091	0.259033
554.101093	0.259994
554.315077	0.259802
554.529042	0.260673
554.742990	0.260947
554.956919	0.261327
555.170830	0.261518
555.384722	0.261862
555.598597	0.261634
555.812453	0.261995
556.026291	0.262071
556.240111	0.262951
556.453913	0.263048
556.667696	0.263093
556.881461	0.263110
557.095208	0.263504
557.308937	0.263365
557.522647	0.264220
557.736339	0.264252
557.950013	0.264455
558.163669	0.264611
558.377307	0.264469
558.590926	0.264615
558.804527	0.264535
559.018110	0.264290
559.231675	0.264570
559.445221	0.264974
559.658749	0.265819
559.872259	0.266256
560.085751	0.266562
560.299225	0.267052
560.512680	0.267374
560.726117	0.268024
560.939536	0.268568
561.152937	0.268632
561.366319	0.268378
561.579683	0.267676
561.793029	0.267604
562.006357	0.267717
562.219667	0.267565
562.432958	0.268195
562.646231	0.268519
562.859486	0.269104
563.072723	0.269327
563.285941	0.269723
563.499141	0.269849
563.712323	0.270143
563.925487	0.270180
564.138632	0.270668
564.351760	0.270518
564.564869	0.269813
564.777960	0.269453
564.991032	0.269772
565.204087	0.269525
565.417123	0.269950
565.630141	0.269796
565.843140	0.269809
566.056122	0.269347
566.269085	0.269534
566.482030	0.270779
566.694957	0.271238
566.907866	0.271698
567.120756	0.272255
567.333628	0.272551
567.546482	0.273079
567.759318	0.273652
567.972135	0.274277
568.184935	0.274707
568.397716	0.274160
568.610478	0.274039
568.823223	0.274266
569.035949	0.274298
569.248657	0.274706
569.461347	0.274504
569.674019	0.274177
569.886672	0.274352
570.099308	0.274248
570.311925	0.275163
570.524523	0.275847
570.737104	0.275414
570.949666	0.275911
571.162210	0.275734
571.374736	0.276044
571.587244	0.276328
571.799733	0.276682
572.012205	0.276795
572.224658	0.276323
572.437092	0.276258
572.649509	0.277113
572.861907	0.277042
573.074287	0.277426
573.286649	0.277744
573.498993	0.277886
573.711318	0.278281
573.923625	0.278260
574.135914	0.278193
574.348185	0.278302
574.560438	0.278342
574.772672	0.278567
574.984888	0.278649
575.197086	0.278942
575.409266	0.279222
575.621427	0.278791
575.833570	0.278927
576.045695	0.279715
576.257802	0.279984
576.469890	0.279614
576.681961	0.279912
576.894013	0.280254
577.106046	0.280750
577.318062	0.281052
577.530059	0.281344
577.742039	0.281582
577.954000	0.281529
578.165942	0.281780
578.377867	0.282251
578.589773	0.282762
578.801661	0.283048
579.013531	0.282891
579.225382	0.283287
579.437216	0.283734
579.649031	0.284195
579.860828	0.284313
580.072606	0.284442
580.284367	0.284599
580.496109	0.283965
580.707833	0.283790
580.919539	0.284028
581.131227	0.284197
581.342896	0.284352
581.554547	0.284603
581.766180	0.284999
581.977795	0.285258
582.189391	0.284981
582.400969	0.285532
582.612529	0.285474
582.824071	0.285676
583.035595	0.285724
583.247100	0.285816
583.458587	0.285938
583.670056	0.285566
583.881506	0.285865
584.092939	0.286261
584.304353	0.286572
584.515749	0.287190
584.727127	0.287400
584.938486	0.287506
585.149828	0.287856
585.361151	0.288015
585.572456	0.288817
585.783742	0.288944
585.995011	0.289540
586.206261	0.290020
586.417493	0.289794
586.628706	0.289755
586.839902	0.289980
587.051079	0.289982
587.262238	0.290342
587.473379	0.290321
587.684502	0.290476
587.895606	0.290550
588.106692	0.290273
588.317760	0.290639
588.528810	0.290972
588.739841	0.291237
588.950855	0.291510
589.161850	0.291783
589.372827	0.292414
589.583785	0.292554
589.794726	0.292834
590.005648	0.293133
590.216552	0.293331
590.427437	0.292982
590.638305	0.293114
590.849154	0.293270
591.059985	0.293229
591.270798	0.292643
591.481592	0.292402
591.692369	0.292745
591.903127	0.292780
592.113867	0.293357
592.324588	0.293877
592.535292	0.294083
592.745977	0.294221
592.956644	0.294087
593.167293	0.294803
593.377923	0.295837
593.588536	0.295818
593.799130	0.295960
594.009706	0.295687
594.220263	0.295919
594.430803	0.295994
594.641324	0.296397
594.851827	0.296829
595.062312	0.296774
595.272778	0.296362
595.483227	0.296346
595.693657	0.296597
595.904069	0.297120
596.114462	0.297243
596.324838	0.297413
596.535195	0.297442
596.745534	0.297111
596.955855	0.297472
597.166157	0.297572
597.376441	0.297912
597.586707	0.298329
597.796955	0.298454
598.007185	0.298902
598.217396	0.298796
598.427589	0.298993
598.637764	0.299545
598.847921	0.299755
599.058060	0.299693
599.268180	0.299499
599.478282	0.299225
599.688366	0.299038
599.898431	0.298904
600.108479	0.299656
600.318508	0.299855
600.528519	0.300297
600.738511	0.300016
600.948486	0.300534
601.158442	0.301066
601.368380	0.301827
601.578300	0.301888
601.788202	0.302186
601.998085	0.302244
602.207950	0.301866
602.417797	0.302117
602.627626	0.302470
602.837436	0.302626
603.047228	0.302548
603.257002	0.302506
603.466758	0.303247
603.676496	0.303488
603.886215	0.303650
604.095916	0.304083
604.305599	0.303812
604.515264	0.304173
604.724910	0.304533
604.934538	0.304822
605.144148	0.304464
605.353740	0.304735
605.563314	0.304953
605.772869	0.304789
605.982406	0.305034
606.191925	0.305534
606.401425	0.305353
606.610908	0.305430
606.820372	0.305742
607.029818	0.306335
607.239246	0.306179
607.448655	0.306111
607.658047	0.306242
607.867420	0.306501
608.076775	0.306449
608.286111	0.307327
608.495430	0.306797
608.704730	0.307002
608.914012	0.307286
609.123275	0.307534
609.332521	0.307987
609.541748	0.308331
609.750957	0.308786
609.960148	0.309112
610.169321	0.308884
610.378475	0.309695
610.587611	0.309974
610.796729	0.310119
611.005829	0.310058
611.214910	0.310237
611.423974	0.310320
611.633019	0.310128
611.842045	0.310340
612.051054	0.310510
612.260044	0.310742
612.469017	0.310511
612.677970	0.310758
612.886906	0.311165
613.095824	0.311416
613.304723	0.311827
613.513604	0.311755
613.722467	0.311768
613.931311	0.312131
614.140138	0.312234
614.348946	0.312857
614.557736	0.312603
614.766507	0.312713
614.975261	0.312523
615.183996	0.312710
615.392713	0.313106
615.601412	0.313133
615.810092	0.312982
616.018754	0.313382
616.227399	0.312967
616.436024	0.313491
616.644632	0.313839
616.853222	0.313845
617.061793	0.314342
617.270346	0.314510
617.478880	0.314729
617.687397	0.314753
617.895895	0.314603
618.104375	0.314786
618.312837	0.314625
618.521281	0.314405
618.729706	0.314560
618.938113	0.314373
619.146502	0.314560
619.354873	0.314806
619.563226	0.315063
619.771560	0.315220
619.979876	0.315663
620.188174	0.315931
620.396453	0.316310
620.604715	0.316407
620.812958	0.316453
621.021183	0.316608
621.229390	0.316774
621.437578	0.317183
621.645748	0.317147
621.853900	0.317389
622.062034	0.317253
622.270150	0.317599
622.478247	0.317928
622.686326	0.318027
622.894387	0.318323
623.102430	0.318514
623.310454	0.318592
623.518461	0.319053
623.726449	0.318773
623.934418	0.319251
624.142370	0.318953
624.350303	0.319303
624.558218	0.319407
624.766115	0.319470
624.973994	0.319346
625.181855	0.319556
625.389697	0.319958
625.597521	0.320393
625.805327	0.320538
626.013114	0.320900
626.220883	0.320852
626.428634	0.320818
626.636367	0.320824
626.844082	0.321010
627.051778	0.321229
627.259457	0.320948
627.467117	0.320970
627.674758	0.321041
627.882382	0.321465
628.089987	0.321534
628.297574	0.321893
628.505143	0.321675
628.712694	0.322087
628.920226	0.322321
629.127740	0.322815
629.335236	0.323163
629.542714	0.323244
629.750174	0.323178
629.957615	0.323553
630.165038	0.323719
630.372443	0.324256
630.579829	0.324367
630.787198	0.323752
630.994548	0.323836
631.201880	0.323554
631.409194	0.323874
631.616489	0.324182
631.823766	0.324078
632.031025	0.324332
632.238266	0.324878
632.445489	0.325009
632.652693	0.325649
632.859879	0.325742
633.067047	0.326199
633.274197	0.326245
633.481329	0.326184
633.688442	0.326876
633.895537	0.327019
634.102614	0.327060
634.309672	0.327148
634.516713	0.327275
634.723735	0.327148
634.930739	0.327426
635.137724	0.327773
635.344692	0.328205
635.551641	0.328099
635.758572	0.328374
635.965485	0.328367
636.172379	0.328551
636.379256	0.328765
636.586114	0.329179
636.792954	0.329500
636.999775	0.329758
637.206579	0.329596
637.413364	0.330091
637.620131	0.330422
637.826880	0.330682
638.033610	0.330787
638.240323	0.330869
638.447017	0.331147
638.653692	0.331149
638.860350	0.331368
639.066990	0.331761
639.273611	0.331778
639.480214	0.331879
639.686798	0.332009
639.893365	0.332113
640.099913	0.332575
640.306443	0.332515
640.512955	0.332675
640.719449	0.332867
640.925924	0.332916
641.132381	0.333303
641.338820	0.333318
641.545241	0.333964
641.751644	0.334594
641.958028	0.334731
642.164394	0.335051
642.370742	0.335502
642.577071	0.335492
642.783383	0.335989
642.989676	0.335917
643.195951	0.336118
643.402207	0.335819
643.608446	0.335776
643.814666	0.335889
644.020868	0.336056
644.227052	0.336021
644.433218	0.336214
644.639365	0.336320
644.845494	0.336250
645.051605	0.336397
645.257698	0.336563
645.463772	0.336811
645.669828	0.337168
645.875866	0.337365
646.081886	0.337560
646.287888	0.337656
646.493871	0.337631
646.699836	0.338029
646.905783	0.338293
647.111712	0.338596
647.317622	0.338837
647.523514	0.339127
647.729388	0.339504
647.935244	0.339833
648.141082	0.340043
648.346901	0.340564
648.552702	0.340688
648.758485	0.340881
648.964250	0.341023
649.169996	0.341172
649.375724	0.340920
649.581434	0.340930
649.787126	0.341128
649.992800	0.341508
650.198455	0.341554
650.404092	0.341884
650.609711	0.342089
650.815311	0.342354
651.020894	0.342867
651.226458	0.343366
651.432004	0.343875
651.637532	0.344103
651.843041	0.344196
652.048532	0.344176
652.254006	0.344540
652.459460	0.344792
652.664897	0.345194
652.870315	0.345327
653.075716	0.345359
653.281097	0.345306
653.486461	0.345452
653.691807	0.345811
653.897134	0.346287
654.102443	0.346303
654.307734	0.346522
654.513006	0.346338
654.718261	0.346351
654.923497	0.346739
655.128715	0.347033
655.333915	0.347511
655.539096	0.347772
655.744259	0.347893
655.949404	0.348119
656.154531	0.348267
656.359640	0.348481
656.564730	0.348695
656.769802	0.349050
656.974856	0.349239
657.179892	0.349151
657.384909	0.349187
657.589908	0.349564
657.794889	0.349787
657.999852	0.349898
658.204797	0.350427
658.409723	0.350706
658.614631	0.350871
658.819521	0.351263
659.024393	0.351528
659.229246	0.351863
659.434081	0.352022
659.638898	0.352132
659.843697	0.352646
660.048478	0.352699
660.253240	0.352871
660.457984	0.352878
660.662710	0.352916
660.867417	0.353356
661.072107	0.353737
661.276778	0.353907
661.481431	0.354454
661.686066	0.354441
661.890682	0.354494
662.095281	0.354762
662.299861	0.354925
662.504422	0.355284
662.708966	0.355197
662.913491	0.355442
663.117999	0.355822
663.322488	0.356052
663.526958	0.356195
663.731411	0.356498
663.935845	0.356583
664.140261	0.356978
664.344659	0.357244
664.549038	0.357644
664.753400	0.357795
664.957743	0.357939
665.162068	0.358258
665.366375	0.358638
665.570663	0.359311
665.774933	0.359509
665.979185	0.359946
666.183419	0.360165
666.387635	0.360468
666.591832	0.360645
666.796011	0.360752
667.000172	0.360803
667.204315	0.361086
667.408439	0.361437
667.612545	0.361878
667.816634	0.362040
668.020703	0.362311
668.224755	0.362419
668.428788	0.362483
668.632803	0.362922
668.836800	0.363094
669.040779	0.363137
669.244739	0.363160
669.448681	0.363531
669.652605	0.364017
669.856511	0.364126
670.060399	0.364455
670.264268	0.364878
670.468119	0.364929
670.671952	0.365291
670.875767	0.365639
671.079563	0.365707
671.283341	0.365661
671.487101	0.365587
671.690843	0.366000
671.894567	0.365937
672.098272	0.366103
672.301959	0.366693
672.505628	0.366823
672.709278	0.367158
672.912911	0.367484
673.116525	0.367957
673.320121	0.368014
673.523699	0.368152
673.727258	0.368792
673.930799	0.369210
674.134322	0.369288
674.337827	0.369676
674.541314	0.369737
674.744782	0.369876
674.948232	0.370258
675.151664	0.370683
675.355078	0.370859
675.558474	0.370949
675.761851	0.370975
675.965210	0.371231
676.168551	0.371366
676.371873	0.371893
676.575178	0.372172
676.778464	0.372049
676.981732	0.372109
677.184981	0.372490
677.388213	0.372723
677.591426	0.373131
677.794621	0.373255
677.997798	0.373315
678.200956	0.373267
678.404097	0.373470
678.607219	0.373801
678.810323	0.374295
679.013408	0.374346
679.216476	0.374569
679.419525	0.374544
679.622556	0.374606
679.825569	0.374897
680.028563	0.375287
680.231540	0.375439
680.434498	0.375685
680.637438	0.375751
680.840359	0.375842
681.043263	0.375907
681.246148	0.376543
681.449015	0.376861
681.651864	0.377060
681.854694	0.377301
682.057506	0.377511
682.260301	0.377489
682.463076	0.377728
682.665834	0.378157
682.868573	0.378972
683.071295	0.378742
683.273998	0.378859
683.476682	0.379115
683.679349	0.379352
683.881997	0.379580
684.084627	0.380023
684.287239	0.380364
684.489833	0.380643
684.692408	0.380397
684.894965	0.380946
685.097504	0.381542
685.300025	0.381773
685.502527	0.381904
685.705012	0.382223
685.907478	0.382599
686.109925	0.382698
686.312355	0.382745
686.514766	0.382974
686.717159	0.382979
686.919534	0.382868
687.121891	0.382935
687.324230	0.383092
687.526550	0.383247
687.728852	0.383507
687.931136	0.383790
688.133401	0.383975
688.335649	0.384048
688.537878	0.384324
688.740089	0.384393
688.942281	0.384425
689.144456	0.384715
689.346612	0.385108
689.548750	0.385014
689.750870	0.385364
689.952971	0.385230
690.155055	0.385407
690.357120	0.385438
690.559167	0.385978
690.761195	0.386533
690.963206	0.386725
691.165198	0.386728
691.367172	0.386986
691.569128	0.386919
691.771065	0.387629
691.972984	0.387874
692.174885	0.388066
692.376768	0.388195
692.578633	0.388428
692.780479	0.388557
692.982308	0.388689
693.184118	0.389159
693.385909	0.389311
