sample name	sample
index	1460
start time	 05-10-2021  01:53:17 PM


Wavelength (nm)	Absorbance
494.344910	0.014252
494.563924	0.014252
494.782919	0.014252
495.001897	-0.033955
495.220856	-0.000567
495.439797	-0.002412
495.658719	-0.006108
495.877624	-0.009437
496.096510	0.003946
496.315378	0.004937
496.534227	0.013227
496.753059	0.005291
496.971872	0.002589
497.190667	0.048512
497.409444	0.068613
497.628203	0.079412
497.846943	0.083625
498.065665	0.083353
498.284369	0.085309
498.503055	0.086890
498.721723	0.089084
498.940372	0.090610
499.159003	0.089929
499.377616	0.089908
499.596210	0.088302
499.814787	0.088707
500.033345	0.088867
500.251885	0.088280
500.470406	0.087570
500.688910	0.086808
500.907395	0.086500
501.125862	0.086934
501.344311	0.087062
501.562742	0.087666
501.781154	0.086896
501.999548	0.087162
502.217924	0.087468
502.436282	0.088092
502.654621	0.087829
502.872942	0.087402
503.091245	0.087581
503.309530	0.087773
503.527797	0.087533
503.746045	0.087443
503.964275	0.087545
504.182487	0.087384
504.400681	0.086240
504.618856	0.086254
504.837013	0.086846
505.055152	0.087023
505.273273	0.087259
505.491376	0.087878
505.709460	0.088702
505.927526	0.088713
506.145574	0.088941
506.363604	0.088808
506.581615	0.088844
506.799608	0.087861
507.017583	0.087482
507.235540	0.086976
507.453478	0.086464
507.671399	0.085184
507.889301	0.085356
508.107185	0.086393
508.325050	0.087885
508.542898	0.088505
508.760727	0.089424
508.978538	0.089740
509.196330	0.089556
509.414105	0.089996
509.631861	0.090708
509.849599	0.089671
510.067319	0.088989
510.285021	0.088657
510.502704	0.088526
510.720369	0.088647
510.938016	0.088325
511.155645	0.088448
511.373255	0.088988
511.590848	0.089310
511.808422	0.090215
512.025977	0.090391
512.243515	0.089744
512.461034	0.089870
512.678536	0.089599
512.896018	0.089800
513.113483	0.089516
513.330930	0.088681
513.548358	0.089619
513.765768	0.090225
513.983160	0.089664
514.200533	0.090319
514.417889	0.090776
514.635226	0.091229
514.852545	0.091858
515.069845	0.092556
515.287128	0.092767
515.504392	0.092297
515.721638	0.090990
515.938866	0.091516
516.156075	0.091384
516.373267	0.090947
516.590440	0.090124
516.807594	0.089616
517.024731	0.089434
517.241850	0.089850
517.458950	0.089369
517.676032	0.090576
517.893095	0.091182
518.110141	0.092543
518.327168	0.092449
518.544177	0.094090
518.761168	0.094492
518.978141	0.095536
519.195095	0.095924
519.412031	0.095732
519.628949	0.095162
519.845849	0.094962
520.062731	0.094162
520.279594	0.094434
520.496439	0.092856
520.713266	0.092693
520.930074	0.092092
521.146865	0.091719
521.363637	0.092873
521.580391	0.093908
521.797127	0.094007
522.013844	0.093919
522.230543	0.094669
522.447224	0.095173
522.663887	0.096120
522.880532	0.096127
523.097158	0.096817
523.313766	0.096505
523.530356	0.096675
523.746928	0.096911
523.963481	0.097452
524.180017	0.097357
524.396534	0.097884
524.613032	0.097551
524.829513	0.098290
525.045975	0.098393
525.262420	0.098572
525.478845	0.098332
525.695253	0.098088
525.911643	0.098115
526.128014	0.098072
526.344367	0.098523
526.560702	0.098721
526.777018	0.098752
526.993316	0.099060
527.209597	0.099201
527.425858	0.098827
527.642102	0.099728
527.858328	0.100001
528.074535	0.100047
528.290724	0.099968
528.506894	0.100677
528.723047	0.101092
528.939181	0.100865
529.155297	0.100628
529.371395	0.101465
529.587475	0.100436
529.803536	0.100546
530.019579	0.100972
530.235604	0.101472
530.451611	0.100804
530.667600	0.100615
530.883570	0.100179
531.099522	0.100931
531.315456	0.100868
531.531372	0.101611
531.747269	0.101455
531.963148	0.101694
532.179009	0.101732
532.394852	0.101955
532.610676	0.101654
532.826482	0.101899
533.042271	0.101568
533.258040	0.101642
533.473792	0.101381
533.689525	0.101450
533.905240	0.101237
534.120937	0.100833
534.336616	0.101023
534.552277	0.101535
534.767919	0.102294
534.983543	0.103263
535.199149	0.103985
535.414736	0.104967
535.630306	0.105176
535.845857	0.105578
536.061390	0.106123
536.276904	0.106270
536.492401	0.106447
536.707879	0.106481
536.923339	0.105870
537.138781	0.105549
537.354204	0.105452
537.569610	0.105380
537.784997	0.105595
538.000366	0.105795
538.215716	0.105713
538.431049	0.105663
538.646363	0.105966
538.861659	0.106666
539.076937	0.106849
539.292196	0.106705
539.507438	0.107082
539.722661	0.106795
539.937866	0.106513
540.153052	0.106827
540.368221	0.107464
540.583371	0.107323
540.798503	0.107134
541.013617	0.107443
541.228712	0.107706
541.443789	0.107496
541.658848	0.107953
541.873889	0.108289
542.088912	0.108669
542.303916	0.108618
542.518902	0.108791
542.733870	0.108949
542.948820	0.109033
543.163752	0.108875
543.378665	0.109341
543.593560	0.109231
543.808437	0.109665
544.023295	0.109279
544.238136	0.109094
544.452958	0.109427
544.667762	0.108952
544.882548	0.108775
545.097315	0.109198
545.312064	0.109307
545.526795	0.109398
545.741508	0.109288
545.956203	0.109849
546.170879	0.110108
546.385537	0.109928
546.600177	0.111016
546.814799	0.111104
547.029402	0.111600
547.243988	0.111809
547.458555	0.112256
547.673103	0.112371
547.887634	0.112430
548.102146	0.112362
548.316640	0.112768
548.531116	0.112370
548.745574	0.113153
548.960013	0.112720
549.174435	0.113219
549.388838	0.113388
549.603222	0.113208
549.817589	0.113129
550.031937	0.113535
550.246267	0.113431
550.460579	0.113727
550.674873	0.113133
550.889148	0.113210
551.103405	0.112925
551.317644	0.112742
551.531865	0.113184
551.746068	0.113267
551.960252	0.113246
552.174418	0.113664
552.388566	0.113324
552.602696	0.113833
552.816807	0.113921
553.030900	0.113711
553.244975	0.113720
553.459032	0.113704
553.673070	0.113845
553.887091	0.114132
554.101093	0.114117
554.315077	0.114419
554.529042	0.114163
554.742990	0.114057
554.956919	0.114595
555.170830	0.115009
555.384722	0.115270
555.598597	0.115374
555.812453	0.115517
556.026291	0.115370
556.240111	0.115864
556.453913	0.116243
556.667696	0.116450
556.881461	0.116397
557.095208	0.116001
557.308937	0.116165
557.522647	0.116265
557.736339	0.115907
557.950013	0.115935
558.163669	0.115858
558.377307	0.115429
558.590926	0.115520
558.804527	0.115650
559.018110	0.115555
559.231675	0.115365
559.445221	0.115169
559.658749	0.115295
559.872259	0.115095
560.085751	0.114677
560.299225	0.114755
560.512680	0.114918
560.726117	0.114679
560.939536	0.115074
561.152937	0.115614
561.366319	0.115873
561.579683	0.115914
561.793029	0.116296
562.006357	0.116497
562.219667	0.116535
562.432958	0.116244
562.646231	0.116839
562.859486	0.116899
563.072723	0.116416
563.285941	0.116296
563.499141	0.116185
563.712323	0.116657
563.925487	0.116838
564.138632	0.117234
564.351760	0.117580
564.564869	0.117292
564.777960	0.117143
564.991032	0.116922
565.204087	0.117158
565.417123	0.117236
565.630141	0.116737
565.843140	0.116838
566.056122	0.116876
566.269085	0.117241
566.482030	0.116954
566.694957	0.117424
566.907866	0.117602
567.120756	0.117607
567.333628	0.117930
567.546482	0.118236
567.759318	0.117940
567.972135	0.118139
568.184935	0.117800
568.397716	0.118279
568.610478	0.118200
568.823223	0.118700
569.035949	0.118762
569.248657	0.118652
569.461347	0.118568
569.674019	0.119099
569.886672	0.118942
570.099308	0.119052
570.311925	0.118813
570.524523	0.118812
570.737104	0.118778
570.949666	0.119032
571.162210	0.118988
571.374736	0.118769
571.587244	0.118855
571.799733	0.118755
572.012205	0.119004
572.224658	0.119484
572.437092	0.119416
572.649509	0.119193
572.861907	0.119107
573.074287	0.119397
573.286649	0.119864
573.498993	0.119515
573.711318	0.119884
573.923625	0.119964
574.135914	0.119799
574.348185	0.120115
574.560438	0.120372
574.772672	0.120777
574.984888	0.120595
575.197086	0.120631
575.409266	0.120770
575.621427	0.120791
575.833570	0.120975
576.045695	0.121139
576.257802	0.121016
576.469890	0.121532
576.681961	0.121455
576.894013	0.121876
577.106046	0.122253
577.318062	0.122539
577.530059	0.122558
577.742039	0.122410
577.954000	0.122518
578.165942	0.122734
578.377867	0.122389
578.589773	0.122153
578.801661	0.122011
579.013531	0.122080
579.225382	0.122163
579.437216	0.122845
579.649031	0.123044
579.860828	0.123095
580.072606	0.123395
580.284367	0.123466
580.496109	0.124116
580.707833	0.124433
580.919539	0.124196
581.131227	0.124568
581.342896	0.124176
581.554547	0.124391
581.766180	0.124478
581.977795	0.124488
582.189391	0.124729
582.400969	0.124568
582.612529	0.124676
582.824071	0.125015
583.035595	0.124903
583.247100	0.125126
583.458587	0.125245
583.670056	0.125268
583.881506	0.125174
584.092939	0.125383
584.304353	0.125403
584.515749	0.125486
584.727127	0.125247
584.938486	0.124942
585.149828	0.124986
585.361151	0.125062
585.572456	0.125136
585.783742	0.125489
585.995011	0.125339
586.206261	0.125708
586.417493	0.125925
586.628706	0.126278
586.839902	0.126743
587.051079	0.126785
587.262238	0.126575
587.473379	0.126689
587.684502	0.126385
587.895606	0.126357
588.106692	0.126136
588.317760	0.125865
588.528810	0.126234
588.739841	0.126525
588.950855	0.126728
589.161850	0.126844
589.372827	0.127184
589.583785	0.127731
589.794726	0.128146
590.005648	0.128631
590.216552	0.129166
590.427437	0.128830
590.638305	0.128969
590.849154	0.129092
591.059985	0.129152
591.270798	0.129051
591.481592	0.129134
591.692369	0.129315
591.903127	0.129424
592.113867	0.129355
592.324588	0.129396
592.535292	0.129555
592.745977	0.129487
592.956644	0.129994
593.167293	0.130085
593.377923	0.130273
593.588536	0.130244
593.799130	0.130070
594.009706	0.130287
594.220263	0.130447
594.430803	0.130091
594.641324	0.130035
594.851827	0.129966
595.062312	0.130149
595.272778	0.130010
595.483227	0.129867
595.693657	0.129674
595.904069	0.129698
596.114462	0.129842
596.324838	0.130055
596.535195	0.130201
596.745534	0.130280
596.955855	0.130365
597.166157	0.130786
597.376441	0.131132
597.586707	0.131531
597.796955	0.131505
598.007185	0.131427
598.217396	0.131480
598.427589	0.131607
598.637764	0.131831
598.847921	0.131756
599.058060	0.131440
599.268180	0.131263
599.478282	0.131210
599.688366	0.131242
599.898431	0.131239
600.108479	0.131412
600.318508	0.131432
600.528519	0.131276
600.738511	0.131440
600.948486	0.131408
601.158442	0.131368
601.368380	0.131642
601.578300	0.131636
601.788202	0.131848
601.998085	0.131663
602.207950	0.131709
602.417797	0.131827
602.627626	0.132038
602.837436	0.132341
603.047228	0.132606
603.257002	0.132364
603.466758	0.132886
603.676496	0.133170
603.886215	0.133674
604.095916	0.133992
604.305599	0.134220
604.515264	0.134093
604.724910	0.134030
604.934538	0.134233
605.144148	0.134365
605.353740	0.134241
605.563314	0.134184
605.772869	0.134198
605.982406	0.134442
606.191925	0.134501
606.401425	0.134805
606.610908	0.134914
606.820372	0.134919
607.029818	0.134977
607.239246	0.135094
607.448655	0.135423
607.658047	0.135216
607.867420	0.134702
608.076775	0.134553
608.286111	0.134278
608.495430	0.134134
608.704730	0.134223
608.914012	0.134338
609.123275	0.134413
609.332521	0.134233
609.541748	0.134546
609.750957	0.135023
609.960148	0.135048
610.169321	0.135412
610.378475	0.135783
610.587611	0.135957
610.796729	0.136120
611.005829	0.136225
611.214910	0.136264
611.423974	0.136315
611.633019	0.136547
611.842045	0.136765
612.051054	0.136632
612.260044	0.136469
612.469017	0.136360
612.677970	0.136434
612.886906	0.136349
613.095824	0.136354
613.304723	0.136445
613.513604	0.136145
613.722467	0.136208
613.931311	0.136475
614.140138	0.136604
614.348946	0.137133
614.557736	0.137213
614.766507	0.137414
614.975261	0.137699
615.183996	0.137875
615.392713	0.138472
615.601412	0.138532
615.810092	0.138469
616.018754	0.138699
616.227399	0.138365
616.436024	0.138559
616.644632	0.138609
616.853222	0.138469
617.061793	0.138645
617.270346	0.138415
617.478880	0.138751
617.687397	0.138926
617.895895	0.139200
618.104375	0.139475
618.312837	0.139578
618.521281	0.139511
618.729706	0.139887
618.938113	0.139674
619.146502	0.139559
619.354873	0.139432
619.563226	0.139626
619.771560	0.139607
619.979876	0.139464
620.188174	0.139374
620.396453	0.139410
620.604715	0.139283
620.812958	0.139242
621.021183	0.139497
621.229390	0.139644
621.437578	0.139629
621.645748	0.139542
621.853900	0.139709
622.062034	0.139749
622.270150	0.139727
622.478247	0.139739
622.686326	0.139888
622.894387	0.139913
623.102430	0.139633
623.310454	0.139723
623.518461	0.139810
623.726449	0.139765
623.934418	0.139873
624.142370	0.140225
624.350303	0.140575
624.558218	0.140733
624.766115	0.140616
624.973994	0.140929
625.181855	0.140745
625.389697	0.140743
625.597521	0.140978
625.805327	0.141075
626.013114	0.140924
626.220883	0.140811
626.428634	0.140817
626.636367	0.140926
626.844082	0.140886
627.051778	0.141195
627.259457	0.141413
627.467117	0.141403
627.674758	0.141292
627.882382	0.141297
628.089987	0.141256
628.297574	0.141493
628.505143	0.141864
628.712694	0.142003
628.920226	0.141929
629.127740	0.141803
629.335236	0.141910
629.542714	0.141944
629.750174	0.142072
629.957615	0.142151
630.165038	0.142159
630.372443	0.142068
630.579829	0.142042
630.787198	0.142063
630.994548	0.141920
631.201880	0.141472
631.409194	0.141650
631.616489	0.141745
631.823766	0.141940
632.031025	0.142123
632.238266	0.142078
632.445489	0.142327
632.652693	0.142433
632.859879	0.142919
633.067047	0.143610
633.274197	0.143983
633.481329	0.143945
633.688442	0.143958
633.895537	0.144049
634.102614	0.144207
634.309672	0.144193
634.516713	0.144309
634.723735	0.144162
634.930739	0.144013
635.137724	0.143941
635.344692	0.144042
635.551641	0.144298
635.758572	0.143969
635.965485	0.143957
636.172379	0.143963
636.379256	0.144310
636.586114	0.144364
636.792954	0.144498
636.999775	0.144561
637.206579	0.145035
637.413364	0.145073
637.620131	0.145353
637.826880	0.145678
638.033610	0.146107
638.240323	0.146161
638.447017	0.146374
638.653692	0.146582
638.860350	0.146820
639.066990	0.146895
639.273611	0.146782
639.480214	0.146900
639.686798	0.146987
639.893365	0.147014
640.099913	0.147034
640.306443	0.147270
640.512955	0.147530
640.719449	0.147410
640.925924	0.147575
641.132381	0.147856
641.338820	0.147918
641.545241	0.147842
641.751644	0.147811
641.958028	0.147786
642.164394	0.147814
642.370742	0.147740
642.577071	0.147998
642.783383	0.147885
642.989676	0.148011
643.195951	0.148171
643.402207	0.148119
643.608446	0.148197
643.814666	0.148373
644.020868	0.148488
644.227052	0.148676
644.433218	0.148633
644.639365	0.148759
644.845494	0.148922
645.051605	0.148924
645.257698	0.149519
645.463772	0.149675
645.669828	0.149994
645.875866	0.150048
646.081886	0.150017
646.287888	0.150212
646.493871	0.150329
646.699836	0.150402
646.905783	0.150758
647.111712	0.150657
647.317622	0.150966
647.523514	0.150875
647.729388	0.151011
647.935244	0.151065
648.141082	0.151332
648.346901	0.150964
648.552702	0.150946
648.758485	0.150938
648.964250	0.151129
649.169996	0.150934
649.375724	0.150936
649.581434	0.151148
649.787126	0.151468
649.992800	0.151259
650.198455	0.151620
650.404092	0.151755
650.609711	0.151394
650.815311	0.151287
651.020894	0.151452
651.226458	0.151347
651.432004	0.151306
651.637532	0.150978
651.843041	0.151039
652.048532	0.151238
652.254006	0.151140
652.459460	0.151522
652.664897	0.151530
652.870315	0.151602
653.075716	0.151832
653.281097	0.151867
653.486461	0.152110
653.691807	0.152421
653.897134	0.152452
654.102443	0.152486
654.307734	0.152632
654.513006	0.152805
654.718261	0.152864
654.923497	0.153124
655.128715	0.153193
655.333915	0.153300
655.539096	0.153399
655.744259	0.153452
655.949404	0.153871
656.154531	0.154067
656.359640	0.154286
656.564730	0.154283
656.769802	0.154457
656.974856	0.154793
657.179892	0.154671
657.384909	0.154639
657.589908	0.154805
657.794889	0.154595
657.999852	0.154632
658.204797	0.154648
658.409723	0.154750
658.614631	0.154524
658.819521	0.154409
659.024393	0.154857
659.229246	0.155081
659.434081	0.155248
659.638898	0.155582
659.843697	0.155648
660.048478	0.155593
660.253240	0.155853
660.457984	0.156026
660.662710	0.156175
660.867417	0.155922
661.072107	0.155773
661.276778	0.155836
661.481431	0.155944
661.686066	0.156222
661.890682	0.156482
662.095281	0.156539
662.299861	0.156751
662.504422	0.156732
662.708966	0.157114
662.913491	0.157404
663.117999	0.157498
663.322488	0.157469
663.526958	0.157324
663.731411	0.157444
663.935845	0.157544
664.140261	0.157428
664.344659	0.157433
664.549038	0.157459
664.753400	0.157292
664.957743	0.157116
665.162068	0.156894
665.366375	0.156793
665.570663	0.156890
665.774933	0.156647
665.979185	0.156765
666.183419	0.156785
666.387635	0.156755
666.591832	0.156939
666.796011	0.157318
667.000172	0.157588
667.204315	0.157564
667.408439	0.157286
667.612545	0.157511
667.816634	0.157536
668.020703	0.157777
668.224755	0.157892
668.428788	0.157916
668.632803	0.157757
668.836800	0.157714
669.040779	0.157999
669.244739	0.158101
669.448681	0.158154
669.652605	0.158332
669.856511	0.158376
670.060399	0.158595
670.264268	0.158528
670.468119	0.158794
670.671952	0.159301
670.875767	0.159533
671.079563	0.159945
671.283341	0.160293
671.487101	0.160519
671.690843	0.160741
671.894567	0.160898
672.098272	0.161371
672.301959	0.161625
672.505628	0.161616
672.709278	0.161882
672.912911	0.162093
673.116525	0.162151
673.320121	0.162026
673.523699	0.162221
673.727258	0.162111
673.930799	0.162168
674.134322	0.162155
674.337827	0.162310
674.541314	0.162386
674.744782	0.162196
674.948232	0.162213
675.151664	0.162434
675.355078	0.162462
675.558474	0.162655
675.761851	0.162756
675.965210	0.162842
676.168551	0.162939
676.371873	0.162855
676.575178	0.163100
676.778464	0.163225
676.981732	0.163412
677.184981	0.163240
677.388213	0.163185
677.591426	0.163258
677.794621	0.163470
677.997798	0.163479
678.200956	0.163457
678.404097	0.163487
678.607219	0.163516
678.810323	0.163666
679.013408	0.164047
679.216476	0.164403
679.419525	0.164494
679.622556	0.164741
679.825569	0.165008
680.028563	0.165321
680.231540	0.165316
680.434498	0.165692
680.637438	0.165673
680.840359	0.165816
681.043263	0.165988
681.246148	0.165890
681.449015	0.165877
681.651864	0.165820
681.854694	0.165872
682.057506	0.166122
682.260301	0.165850
682.463076	0.165939
682.665834	0.166075
682.868573	0.166036
683.071295	0.166237
683.273998	0.166296
683.476682	0.166450
683.679349	0.166608
683.881997	0.166707
684.084627	0.167014
684.287239	0.167096
684.489833	0.167056
684.692408	0.167239
684.894965	0.167193
685.097504	0.167428
685.300025	0.167440
685.502527	0.167299
685.705012	0.167380
685.907478	0.167252
686.109925	0.167480
686.312355	0.167348
686.514766	0.167349
686.717159	0.167370
686.919534	0.167159
687.121891	0.167156
687.324230	0.167357
687.526550	0.167311
687.728852	0.167534
687.931136	0.167297
688.133401	0.167344
688.335649	0.167061
688.537878	0.167155
688.740089	0.167154
688.942281	0.167207
689.144456	0.167261
689.346612	0.167390
689.548750	0.167480
689.750870	0.167780
689.952971	0.167966
690.155055	0.168368
690.357120	0.168515
690.559167	0.168502
690.761195	0.168612
690.963206	0.168727
691.165198	0.168785
691.367172	0.169065
691.569128	0.169144
691.771065	0.169409
691.972984	0.169580
692.174885	0.170043
692.376768	0.170322
692.578633	0.170418
692.780479	0.170426
692.982308	0.170441
693.184118	0.170444
693.385909	0.170551
