sample name	sample
index	847
start time	 04-08-2021  10:34:54 AM


Wavelength (nm)	Absorbance
494.344910	-0.046246
494.563924	-0.046246
494.782919	-0.046246
495.001897	0.321932
495.220856	0.045282
495.439797	0.043906
495.658719	0.044637
495.877624	0.039969
496.096510	-0.003123
496.315378	-0.020465
496.534227	-0.029852
496.753059	-0.050423
496.971872	-0.026329
497.190667	0.077336
497.409444	0.115438
497.628203	0.125806
497.846943	0.131878
498.065665	0.137662
498.284369	0.140487
498.503055	0.142862
498.721723	0.145391
498.940372	0.145418
499.159003	0.146234
499.377616	0.146238
499.596210	0.147821
499.814787	0.148584
500.033345	0.149864
500.251885	0.150422
500.470406	0.150175
500.688910	0.149460
500.907395	0.148856
501.125862	0.148862
501.344311	0.149210
501.562742	0.149120
501.781154	0.149209
501.999548	0.148194
502.217924	0.148154
502.436282	0.149086
502.654621	0.150188
502.872942	0.151315
503.091245	0.152009
503.309530	0.151943
503.527797	0.150470
503.746045	0.149950
503.964275	0.149146
504.182487	0.149227
504.400681	0.149083
504.618856	0.148738
504.837013	0.148390
505.055152	0.146651
505.273273	0.146743
505.491376	0.148442
505.709460	0.149221
505.927526	0.149686
506.145574	0.149370
506.363604	0.150610
506.581615	0.149926
506.799608	0.150775
507.017583	0.151782
507.235540	0.151931
507.453478	0.151024
507.671399	0.151203
507.889301	0.152153
508.107185	0.152810
508.325050	0.152245
508.542898	0.152865
508.760727	0.152818
508.978538	0.153165
509.196330	0.153535
509.414105	0.153948
509.631861	0.154082
509.849599	0.153701
510.067319	0.153911
510.285021	0.153660
510.502704	0.154402
510.720369	0.153432
510.938016	0.153659
511.155645	0.154394
511.373255	0.155065
511.590848	0.155288
511.808422	0.155209
512.025977	0.155073
512.243515	0.155532
512.461034	0.155796
512.678536	0.156839
512.896018	0.157025
513.113483	0.157311
513.330930	0.157939
513.548358	0.158785
513.765768	0.159478
513.983160	0.160051
514.200533	0.160277
514.417889	0.160251
514.635226	0.160698
514.852545	0.160891
515.069845	0.160501
515.287128	0.159768
515.504392	0.159689
515.721638	0.159931
515.938866	0.160289
516.156075	0.160301
516.373267	0.160414
516.590440	0.160926
516.807594	0.160816
517.024731	0.161211
517.241850	0.161546
517.458950	0.161137
517.676032	0.161689
517.893095	0.161033
518.110141	0.162201
518.327168	0.162257
518.544177	0.161964
518.761168	0.162723
518.978141	0.162806
519.195095	0.163065
519.412031	0.162969
519.628949	0.162741
519.845849	0.163875
520.062731	0.162999
520.279594	0.162919
520.496439	0.162623
520.713266	0.162819
520.930074	0.162939
521.146865	0.163160
521.363637	0.164306
521.580391	0.164520
521.797127	0.164574
522.013844	0.165163
522.230543	0.165376
522.447224	0.166237
522.663887	0.166098
522.880532	0.166376
523.097158	0.166980
523.313766	0.166588
523.530356	0.167171
523.746928	0.167335
523.963481	0.167413
524.180017	0.168179
524.396534	0.168419
524.613032	0.168796
524.829513	0.168829
525.045975	0.168890
525.262420	0.169540
525.478845	0.169685
525.695253	0.169751
525.911643	0.169843
526.128014	0.169754
526.344367	0.169744
526.560702	0.169709
526.777018	0.170542
526.993316	0.170659
527.209597	0.170669
527.425858	0.171041
527.642102	0.172064
527.858328	0.172755
528.074535	0.172513
528.290724	0.172250
528.506894	0.172936
528.723047	0.173053
528.939181	0.173826
529.155297	0.174420
529.371395	0.174057
529.587475	0.173633
529.803536	0.173813
530.019579	0.175294
530.235604	0.175984
530.451611	0.176012
530.667600	0.176458
530.883570	0.176405
531.099522	0.176623
531.315456	0.177006
531.531372	0.177572
531.747269	0.178018
531.963148	0.178025
532.179009	0.178662
532.394852	0.178834
532.610676	0.179475
532.826482	0.180193
533.042271	0.180132
533.258040	0.180811
533.473792	0.181322
533.689525	0.181367
533.905240	0.181647
534.120937	0.181510
534.336616	0.181879
534.552277	0.181662
534.767919	0.181887
534.983543	0.182103
535.199149	0.182333
535.414736	0.182065
535.630306	0.182180
535.845857	0.182109
536.061390	0.182458
536.276904	0.182855
536.492401	0.182840
536.707879	0.182451
536.923339	0.182960
537.138781	0.183378
537.354204	0.183737
537.569610	0.184197
537.784997	0.184574
538.000366	0.184537
538.215716	0.184621
538.431049	0.185243
538.646363	0.186101
538.861659	0.186757
539.076937	0.186314
539.292196	0.187150
539.507438	0.187097
539.722661	0.187182
539.937866	0.187917
540.153052	0.188521
540.368221	0.189012
540.583371	0.188826
540.798503	0.188683
541.013617	0.189286
541.228712	0.189605
541.443789	0.190023
541.658848	0.190292
541.873889	0.190037
542.088912	0.189835
542.303916	0.190128
542.518902	0.190978
542.733870	0.191563
542.948820	0.191862
543.163752	0.191908
543.378665	0.192331
543.593560	0.192823
543.808437	0.193905
544.023295	0.194732
544.238136	0.194682
544.452958	0.194215
544.667762	0.194495
544.882548	0.194793
545.097315	0.194444
545.312064	0.195132
545.526795	0.195706
545.741508	0.195666
545.956203	0.195759
546.170879	0.195833
546.385537	0.196589
546.600177	0.196502
546.814799	0.196478
547.029402	0.196960
547.243988	0.197075
547.458555	0.197214
547.673103	0.196978
547.887634	0.197363
548.102146	0.197883
548.316640	0.198201
548.531116	0.198673
548.745574	0.199323
548.960013	0.199761
549.174435	0.200131
549.388838	0.199671
549.603222	0.201032
549.817589	0.201230
550.031937	0.201269
550.246267	0.201393
550.460579	0.201235
550.674873	0.201560
550.889148	0.201561
551.103405	0.201203
551.317644	0.202295
551.531865	0.201458
551.746068	0.201899
551.960252	0.202475
552.174418	0.202482
552.388566	0.203575
552.602696	0.203858
552.816807	0.204170
553.030900	0.204708
553.244975	0.204714
553.459032	0.205378
553.673070	0.205315
553.887091	0.205468
554.101093	0.205429
554.315077	0.204698
554.529042	0.204434
554.742990	0.204449
554.956919	0.204636
555.170830	0.204378
555.384722	0.204700
555.598597	0.204927
555.812453	0.204682
556.026291	0.205231
556.240111	0.205650
556.453913	0.205795
556.667696	0.206235
556.881461	0.206615
557.095208	0.207425
557.308937	0.207417
557.522647	0.207727
557.736339	0.208341
557.950013	0.208805
558.163669	0.209047
558.377307	0.209605
558.590926	0.210245
558.804527	0.210109
559.018110	0.209774
559.231675	0.209878
559.445221	0.209699
559.658749	0.209476
559.872259	0.209265
560.085751	0.209589
560.299225	0.209521
560.512680	0.208957
560.726117	0.208928
560.939536	0.208882
561.152937	0.208701
561.366319	0.209163
561.579683	0.209426
561.793029	0.209620
562.006357	0.209616
562.219667	0.209904
562.432958	0.210138
562.646231	0.210950
562.859486	0.211552
563.072723	0.212071
563.285941	0.212256
563.499141	0.212381
563.712323	0.212842
563.925487	0.213028
564.138632	0.213025
564.351760	0.213213
564.564869	0.213145
564.777960	0.213209
564.991032	0.213680
565.204087	0.213591
565.417123	0.213972
565.630141	0.214038
565.843140	0.214276
566.056122	0.214805
566.269085	0.214809
566.482030	0.214653
566.694957	0.215109
566.907866	0.214998
567.120756	0.215581
567.333628	0.215519
567.546482	0.215376
567.759318	0.215514
567.972135	0.215360
568.184935	0.215917
568.397716	0.216203
568.610478	0.216214
568.823223	0.216099
569.035949	0.215734
569.248657	0.215876
569.461347	0.216240
569.674019	0.216417
569.886672	0.216461
570.099308	0.216243
570.311925	0.216157
570.524523	0.216218
570.737104	0.216677
570.949666	0.217121
571.162210	0.217161
571.374736	0.217016
571.587244	0.217358
571.799733	0.217778
572.012205	0.218192
572.224658	0.218685
572.437092	0.219140
572.649509	0.219011
572.861907	0.219015
573.074287	0.219795
573.286649	0.220090
573.498993	0.219898
573.711318	0.220178
573.923625	0.220248
574.135914	0.220294
574.348185	0.219919
574.560438	0.220371
574.772672	0.220318
574.984888	0.220081
575.197086	0.220157
575.409266	0.220667
575.621427	0.220692
575.833570	0.220872
576.045695	0.220977
576.257802	0.221371
576.469890	0.221569
576.681961	0.221713
576.894013	0.221590
577.106046	0.222267
577.318062	0.221774
577.530059	0.222008
577.742039	0.221941
577.954000	0.221996
578.165942	0.222256
578.377867	0.222313
578.589773	0.222292
578.801661	0.222346
579.013531	0.222415
579.225382	0.222878
579.437216	0.223056
579.649031	0.223275
579.860828	0.223419
580.072606	0.223230
580.284367	0.223154
580.496109	0.223437
580.707833	0.223579
580.919539	0.223451
581.131227	0.223416
581.342896	0.223238
581.554547	0.223668
581.766180	0.224022
581.977795	0.224405
582.189391	0.224646
582.400969	0.225018
582.612529	0.225614
582.824071	0.225782
583.035595	0.225999
583.247100	0.226224
583.458587	0.226612
583.670056	0.226524
583.881506	0.226397
584.092939	0.226480
584.304353	0.226789
584.515749	0.226854
584.727127	0.227010
584.938486	0.227571
585.149828	0.227692
585.361151	0.227409
585.572456	0.227448
585.783742	0.227926
585.995011	0.228418
586.206261	0.228440
586.417493	0.229028
586.628706	0.229189
586.839902	0.229294
587.051079	0.229508
587.262238	0.230118
587.473379	0.230535
587.684502	0.230189
587.895606	0.230146
588.106692	0.230646
588.317760	0.230242
588.528810	0.230276
588.739841	0.230036
588.950855	0.230225
589.161850	0.230068
589.372827	0.230095
589.583785	0.230413
589.794726	0.230744
590.005648	0.230901
590.216552	0.231313
590.427437	0.231966
590.638305	0.232432
590.849154	0.232368
591.059985	0.232179
591.270798	0.232275
591.481592	0.232738
591.692369	0.232463
591.903127	0.231820
592.113867	0.231881
592.324588	0.231672
592.535292	0.232036
592.745977	0.232188
592.956644	0.232819
593.167293	0.233101
593.377923	0.233154
593.588536	0.233820
593.799130	0.234359
594.009706	0.234257
594.220263	0.234070
594.430803	0.233718
594.641324	0.233768
594.851827	0.233650
595.062312	0.234058
595.272778	0.234264
595.483227	0.234241
595.693657	0.234393
595.904069	0.235012
596.114462	0.235320
596.324838	0.235602
596.535195	0.236124
596.745534	0.236363
596.955855	0.236652
597.166157	0.236541
597.376441	0.236611
597.586707	0.236845
597.796955	0.237155
598.007185	0.237512
598.217396	0.237668
598.427589	0.237763
598.637764	0.237892
598.847921	0.237390
599.058060	0.237708
599.268180	0.237735
599.478282	0.237723
599.688366	0.237329
599.898431	0.237627
600.108479	0.237583
600.318508	0.237731
600.528519	0.238081
600.738511	0.238592
600.948486	0.238736
601.158442	0.239077
601.368380	0.239255
601.578300	0.239455
601.788202	0.239171
601.998085	0.239509
602.207950	0.239413
602.417797	0.239632
602.627626	0.239871
602.837436	0.240070
603.047228	0.240465
603.257002	0.240657
603.466758	0.240773
603.676496	0.241153
603.886215	0.241065
604.095916	0.241211
604.305599	0.241313
604.515264	0.240902
604.724910	0.240657
604.934538	0.240412
605.144148	0.240393
605.353740	0.240576
605.563314	0.240335
605.772869	0.240503
605.982406	0.240746
606.191925	0.240872
606.401425	0.241286
606.610908	0.241747
606.820372	0.241797
607.029818	0.242008
607.239246	0.242027
607.448655	0.242358
607.658047	0.242872
607.867420	0.242987
608.076775	0.243102
608.286111	0.243025
608.495430	0.242972
608.704730	0.243489
608.914012	0.243942
609.123275	0.244155
609.332521	0.244236
609.541748	0.244293
609.750957	0.244182
609.960148	0.244254
610.169321	0.244503
610.378475	0.244753
610.587611	0.244331
610.796729	0.244203
611.005829	0.244624
611.214910	0.244490
611.423974	0.244440
611.633019	0.245076
611.842045	0.244773
612.051054	0.244957
612.260044	0.244725
612.469017	0.245178
612.677970	0.245106
612.886906	0.244737
613.095824	0.245052
613.304723	0.245138
613.513604	0.244989
613.722467	0.245291
613.931311	0.245547
614.140138	0.246100
614.348946	0.246286
614.557736	0.246556
614.766507	0.247135
614.975261	0.247107
615.183996	0.247436
615.392713	0.247657
615.601412	0.247874
615.810092	0.247981
616.018754	0.247703
616.227399	0.247778
616.436024	0.248064
616.644632	0.247882
616.853222	0.248101
617.061793	0.248110
617.270346	0.247894
617.478880	0.247862
617.687397	0.248014
617.895895	0.248586
618.104375	0.248710
618.312837	0.248914
618.521281	0.249110
618.729706	0.249498
618.938113	0.249807
619.146502	0.250389
619.354873	0.250419
619.563226	0.250346
619.771560	0.250283
619.979876	0.250446
620.188174	0.250330
620.396453	0.250377
620.604715	0.250475
620.812958	0.250357
621.021183	0.250037
621.229390	0.250568
621.437578	0.250778
621.645748	0.250892
621.853900	0.251070
622.062034	0.251244
622.270150	0.251762
622.478247	0.251838
622.686326	0.251954
622.894387	0.252312
623.102430	0.252175
623.310454	0.252278
623.518461	0.252314
623.726449	0.252270
623.934418	0.252398
624.142370	0.252218
624.350303	0.252466
624.558218	0.252981
624.766115	0.253487
624.973994	0.253483
625.181855	0.253837
625.389697	0.254071
625.597521	0.254373
625.805327	0.254297
626.013114	0.254480
626.220883	0.254571
626.428634	0.254606
626.636367	0.254304
626.844082	0.254787
627.051778	0.254986
627.259457	0.255073
627.467117	0.255196
627.674758	0.255526
627.882382	0.255684
628.089987	0.255729
628.297574	0.255622
628.505143	0.255817
628.712694	0.255446
628.920226	0.255439
629.127740	0.255633
629.335236	0.255404
629.542714	0.255281
629.750174	0.255438
629.957615	0.255495
630.165038	0.255655
630.372443	0.255968
630.579829	0.256355
630.787198	0.256420
630.994548	0.256405
631.201880	0.256762
631.409194	0.257167
631.616489	0.257259
631.823766	0.257683
632.031025	0.257700
632.238266	0.257452
632.445489	0.257789
632.652693	0.257902
632.859879	0.258237
633.067047	0.258545
633.274197	0.258709
633.481329	0.258698
633.688442	0.258774
633.895537	0.259116
634.102614	0.259369
634.309672	0.259399
634.516713	0.259612
634.723735	0.260054
634.930739	0.260426
635.137724	0.260673
635.344692	0.260801
635.551641	0.260840
635.758572	0.260782
635.965485	0.261096
636.172379	0.261531
636.379256	0.261395
636.586114	0.261196
636.792954	0.261073
636.999775	0.260988
637.206579	0.261232
637.413364	0.261520
637.620131	0.261764
637.826880	0.262020
638.033610	0.262027
638.240323	0.262345
638.447017	0.262706
638.653692	0.262615
638.860350	0.262669
639.066990	0.262562
639.273611	0.262630
639.480214	0.262672
639.686798	0.262353
639.893365	0.262371
640.099913	0.262839
640.306443	0.262794
640.512955	0.263362
640.719449	0.263659
640.925924	0.264065
641.132381	0.264131
641.338820	0.264473
641.545241	0.264904
641.751644	0.265103
641.958028	0.265192
642.164394	0.265417
642.370742	0.265363
642.577071	0.265507
642.783383	0.265952
642.989676	0.266277
643.195951	0.266750
643.402207	0.267005
643.608446	0.267110
643.814666	0.267165
644.020868	0.267477
644.227052	0.267797
644.433218	0.267922
644.639365	0.267748
644.845494	0.267952
645.051605	0.267791
645.257698	0.267803
645.463772	0.267961
645.669828	0.268229
645.875866	0.268086
646.081886	0.268083
646.287888	0.268275
646.493871	0.268437
646.699836	0.268558
646.905783	0.268764
647.111712	0.268875
647.317622	0.269097
647.523514	0.269024
647.729388	0.269192
647.935244	0.269440
648.141082	0.269817
648.346901	0.269836
648.552702	0.269936
648.758485	0.270024
648.964250	0.270401
649.169996	0.270682
649.375724	0.270716
649.581434	0.271038
649.787126	0.270974
649.992800	0.271179
650.198455	0.271619
650.404092	0.271624
650.609711	0.271857
650.815311	0.271943
651.020894	0.271812
651.226458	0.272244
651.432004	0.272434
651.637532	0.272723
651.843041	0.272908
652.048532	0.273105
652.254006	0.273434
652.459460	0.273224
652.664897	0.273458
652.870315	0.273889
653.075716	0.273856
653.281097	0.274101
653.486461	0.274312
653.691807	0.274263
653.897134	0.274567
654.102443	0.274712
654.307734	0.275024
654.513006	0.274993
654.718261	0.275206
654.923497	0.275494
655.128715	0.275620
655.333915	0.275621
655.539096	0.275799
655.744259	0.275803
655.949404	0.275861
656.154531	0.276005
656.359640	0.276335
656.564730	0.276236
656.769802	0.276634
656.974856	0.276496
657.179892	0.276814
657.384909	0.277119
657.589908	0.277383
657.794889	0.277480
657.999852	0.277936
658.204797	0.277959
658.409723	0.278445
658.614631	0.278459
658.819521	0.278795
659.024393	0.278959
659.229246	0.279211
659.434081	0.279008
659.638898	0.279333
659.843697	0.279356
660.048478	0.279760
660.253240	0.279917
660.457984	0.279854
660.662710	0.280182
660.867417	0.280320
661.072107	0.280239
661.276778	0.280336
661.481431	0.280485
661.686066	0.280668
661.890682	0.280800
662.095281	0.280905
662.299861	0.281151
662.504422	0.281136
662.708966	0.281401
662.913491	0.281560
663.117999	0.282218
663.322488	0.282439
663.526958	0.282457
663.731411	0.282807
663.935845	0.282838
664.140261	0.283292
664.344659	0.283689
664.549038	0.283998
664.753400	0.284481
664.957743	0.284864
665.162068	0.285171
665.366375	0.285742
665.570663	0.285587
665.774933	0.286038
665.979185	0.286148
666.183419	0.286561
666.387635	0.286647
666.591832	0.286546
666.796011	0.286659
667.000172	0.286912
667.204315	0.287071
667.408439	0.287351
667.612545	0.287415
667.816634	0.287641
668.020703	0.287507
668.224755	0.287558
668.428788	0.287988
668.632803	0.287907
668.836800	0.287900
669.040779	0.287848
669.244739	0.288233
669.448681	0.288483
669.652605	0.288808
669.856511	0.288972
670.060399	0.289319
670.264268	0.289679
670.468119	0.289922
670.671952	0.290202
670.875767	0.290576
671.079563	0.290705
671.283341	0.290844
671.487101	0.290922
671.690843	0.291262
671.894567	0.291485
672.098272	0.291446
672.301959	0.291597
672.505628	0.291532
672.709278	0.291746
672.912911	0.291752
673.116525	0.291851
673.320121	0.291997
673.523699	0.292304
673.727258	0.292506
673.930799	0.292801
674.134322	0.293020
674.337827	0.293335
674.541314	0.293487
674.744782	0.293868
674.948232	0.294278
675.151664	0.294588
675.355078	0.294423
675.558474	0.294512
675.761851	0.294459
675.965210	0.294622
676.168551	0.295015
676.371873	0.295231
676.575178	0.295528
676.778464	0.295742
676.981732	0.295852
677.184981	0.296236
677.388213	0.296657
677.591426	0.296970
677.794621	0.297342
677.997798	0.297498
678.200956	0.297932
678.404097	0.298130
678.607219	0.298291
678.810323	0.298461
679.013408	0.298546
679.216476	0.298700
679.419525	0.298819
679.622556	0.298955
679.825569	0.299116
680.028563	0.299181
680.231540	0.299292
680.434498	0.299482
680.637438	0.299695
680.840359	0.300067
681.043263	0.300145
681.246148	0.300491
681.449015	0.300623
681.651864	0.300774
681.854694	0.300765
682.057506	0.300883
682.260301	0.300877
682.463076	0.301040
682.665834	0.300937
682.868573	0.301392
683.071295	0.301579
683.273998	0.301678
683.476682	0.301837
683.679349	0.301988
683.881997	0.302359
684.084627	0.302721
684.287239	0.302675
684.489833	0.302961
684.692408	0.302833
684.894965	0.302967
685.097504	0.303304
685.300025	0.303687
685.502527	0.303968
685.705012	0.304191
685.907478	0.304200
686.109925	0.304642
686.312355	0.305006
686.514766	0.305286
686.717159	0.305426
686.919534	0.305734
687.121891	0.305766
687.324230	0.306246
687.526550	0.306395
687.728852	0.306809
687.931136	0.307065
688.133401	0.307419
688.335649	0.307607
688.537878	0.307583
688.740089	0.307639
688.942281	0.307795
689.144456	0.307898
689.346612	0.308144
689.548750	0.308164
689.750870	0.308346
689.952971	0.308162
690.155055	0.308374
690.357120	0.308730
690.559167	0.309004
690.761195	0.309313
690.963206	0.309120
691.165198	0.308862
691.367172	0.308869
691.569128	0.308892
691.771065	0.309155
691.972984	0.309120
692.174885	0.309402
692.376768	0.309408
692.578633	0.309319
692.780479	0.309996
692.982308	0.310377
693.184118	0.310646
693.385909	0.310869
