sample name	sample
index	208
start time	 02-22-2021  09:45:48 AM


Wavelength (nm)	Absorbance
494.344910	0.146572
494.563924	0.146572
494.782919	0.146572
495.001897	0.079434
495.220856	0.045886
495.439797	0.035595
495.658719	0.017262
495.877624	-0.009493
496.096510	-0.018794
496.315378	-0.032186
496.534227	-0.039363
496.753059	-0.047623
496.971872	-0.039805
497.190667	0.036325
497.409444	0.054918
497.628203	0.061330
497.846943	0.063452
498.065665	0.066247
498.284369	0.066768
498.503055	0.068311
498.721723	0.068385
498.940372	0.067964
499.159003	0.067496
499.377616	0.066989
499.596210	0.067362
499.814787	0.066110
500.033345	0.065319
500.251885	0.064930
500.470406	0.063530
500.688910	0.063968
500.907395	0.064000
501.125862	0.064950
501.344311	0.063944
501.562742	0.063179
501.781154	0.064313
501.999548	0.064178
502.217924	0.064814
502.436282	0.064259
502.654621	0.063490
502.872942	0.063635
503.091245	0.063071
503.309530	0.063549
503.527797	0.062603
503.746045	0.061908
503.964275	0.062480
504.182487	0.062167
504.400681	0.063225
504.618856	0.063793
504.837013	0.064535
505.055152	0.064420
505.273273	0.064907
505.491376	0.066630
505.709460	0.067258
505.927526	0.067200
506.145574	0.067763
506.363604	0.067208
506.581615	0.067625
506.799608	0.067411
507.017583	0.067457
507.235540	0.067103
507.453478	0.067011
507.671399	0.067071
507.889301	0.066538
508.107185	0.066859
508.325050	0.067118
508.542898	0.066884
508.760727	0.067238
508.978538	0.067851
509.196330	0.068312
509.414105	0.067657
509.631861	0.068152
509.849599	0.068322
510.067319	0.068211
510.285021	0.067903
510.502704	0.067989
510.720369	0.067217
510.938016	0.067073
511.155645	0.067639
511.373255	0.067921
511.590848	0.067375
511.808422	0.067312
512.025977	0.066839
512.243515	0.067490
512.461034	0.066965
512.678536	0.067134
512.896018	0.066608
513.113483	0.065700
513.330930	0.065312
513.548358	0.065646
513.765768	0.066106
513.983160	0.065832
514.200533	0.065501
514.417889	0.065557
514.635226	0.066146
514.852545	0.066541
515.069845	0.066993
515.287128	0.067802
515.504392	0.067557
515.721638	0.067816
515.938866	0.068385
516.156075	0.068333
516.373267	0.069632
516.590440	0.069654
516.807594	0.069717
517.024731	0.069400
517.241850	0.069214
517.458950	0.069975
517.676032	0.069263
517.893095	0.069911
518.110141	0.070734
518.327168	0.070304
518.544177	0.070377
518.761168	0.070599
518.978141	0.071315
519.195095	0.071798
519.412031	0.071562
519.628949	0.072078
519.845849	0.071458
520.062731	0.070838
520.279594	0.070888
520.496439	0.071010
520.713266	0.071605
520.930074	0.071455
521.146865	0.070901
521.363637	0.071094
521.580391	0.070745
521.797127	0.071449
522.013844	0.071944
522.230543	0.072384
522.447224	0.072545
522.663887	0.072564
522.880532	0.072618
523.097158	0.073529
523.313766	0.073620
523.530356	0.074634
523.746928	0.074502
523.963481	0.074834
524.180017	0.075474
524.396534	0.074901
524.613032	0.074774
524.829513	0.075528
525.045975	0.075099
525.262420	0.075127
525.478845	0.074484
525.695253	0.074210
525.911643	0.073889
526.128014	0.073398
526.344367	0.074177
526.560702	0.074051
526.777018	0.074304
526.993316	0.074397
527.209597	0.074815
527.425858	0.075974
527.642102	0.076743
527.858328	0.076928
528.074535	0.077347
528.290724	0.077271
528.506894	0.077433
528.723047	0.076940
528.939181	0.077019
529.155297	0.077340
529.371395	0.076674
529.587475	0.076317
529.803536	0.076626
530.019579	0.076385
530.235604	0.076661
530.451611	0.077154
530.667600	0.077537
530.883570	0.077818
531.099522	0.077529
531.315456	0.077971
531.531372	0.078370
531.747269	0.078175
531.963148	0.078615
532.179009	0.078987
532.394852	0.078851
532.610676	0.079215
532.826482	0.079344
533.042271	0.079930
533.258040	0.080005
533.473792	0.079921
533.689525	0.080730
533.905240	0.080651
534.120937	0.080509
534.336616	0.080556
534.552277	0.080905
534.767919	0.081240
534.983543	0.081109
535.199149	0.081377
535.414736	0.081808
535.630306	0.081926
535.845857	0.081970
536.061390	0.082066
536.276904	0.082651
536.492401	0.082722
536.707879	0.082643
536.923339	0.082571
537.138781	0.082463
537.354204	0.082588
537.569610	0.082487
537.784997	0.082350
538.000366	0.082610
538.215716	0.082690
538.431049	0.082681
538.646363	0.082737
538.861659	0.082862
539.076937	0.082691
539.292196	0.082623
539.507438	0.082242
539.722661	0.082921
539.937866	0.083010
540.153052	0.082898
540.368221	0.082880
540.583371	0.083142
540.798503	0.083659
541.013617	0.084384
541.228712	0.084571
541.443789	0.085466
541.658848	0.085810
541.873889	0.086162
542.088912	0.086107
542.303916	0.085900
542.518902	0.086301
542.733870	0.086246
542.948820	0.086442
543.163752	0.086456
543.378665	0.086429
543.593560	0.086164
543.808437	0.085935
544.023295	0.086173
544.238136	0.086335
544.452958	0.086212
544.667762	0.086276
544.882548	0.086367
545.097315	0.086664
545.312064	0.086782
545.526795	0.087018
545.741508	0.087206
545.956203	0.087317
546.170879	0.087643
546.385537	0.087891
546.600177	0.087888
546.814799	0.087943
547.029402	0.088007
547.243988	0.088046
547.458555	0.087941
547.673103	0.088285
547.887634	0.088568
548.102146	0.088603
548.316640	0.088898
548.531116	0.089088
548.745574	0.089027
548.960013	0.088788
549.174435	0.088939
549.388838	0.089336
549.603222	0.089112
549.817589	0.089397
550.031937	0.089655
550.246267	0.089378
550.460579	0.089647
550.674873	0.089407
550.889148	0.090049
551.103405	0.090214
551.317644	0.089981
551.531865	0.090264
551.746068	0.090036
551.960252	0.089989
552.174418	0.090446
552.388566	0.090764
552.602696	0.090900
552.816807	0.091041
553.030900	0.091480
553.244975	0.091886
553.459032	0.092106
553.673070	0.092603
553.887091	0.092595
554.101093	0.091912
554.315077	0.091924
554.529042	0.092495
554.742990	0.092221
554.956919	0.092041
555.170830	0.091902
555.384722	0.091705
555.598597	0.091242
555.812453	0.091686
556.026291	0.092280
556.240111	0.092358
556.453913	0.092399
556.667696	0.092538
556.881461	0.092460
557.095208	0.092552
557.308937	0.092878
557.522647	0.093407
557.736339	0.093133
557.950013	0.093721
558.163669	0.093725
558.377307	0.093733
558.590926	0.094024
558.804527	0.094101
559.018110	0.094299
559.231675	0.094278
559.445221	0.094109
559.658749	0.094211
559.872259	0.093863
560.085751	0.093690
560.299225	0.093794
560.512680	0.093633
560.726117	0.093945
560.939536	0.094033
561.152937	0.094061
561.366319	0.094134
561.579683	0.094264
561.793029	0.094108
562.006357	0.094252
562.219667	0.094338
562.432958	0.094466
562.646231	0.094476
562.859486	0.094401
563.072723	0.094683
563.285941	0.094913
563.499141	0.095304
563.712323	0.095538
563.925487	0.096007
564.138632	0.096179
564.351760	0.096564
564.564869	0.096300
564.777960	0.096685
564.991032	0.097016
565.204087	0.097154
565.417123	0.097063
565.630141	0.097158
565.843140	0.097076
566.056122	0.096944
566.269085	0.096861
566.482030	0.097200
566.694957	0.097207
566.907866	0.096895
567.120756	0.096936
567.333628	0.097176
567.546482	0.097209
567.759318	0.097150
567.972135	0.097393
568.184935	0.097277
568.397716	0.097410
568.610478	0.097778
568.823223	0.098297
569.035949	0.098474
569.248657	0.098400
569.461347	0.098517
569.674019	0.098786
569.886672	0.099018
570.099308	0.099179
570.311925	0.099259
570.524523	0.098926
570.737104	0.098744
570.949666	0.098799
571.162210	0.098976
571.374736	0.099134
571.587244	0.099158
571.799733	0.099011
572.012205	0.099265
572.224658	0.099347
572.437092	0.099594
572.649509	0.099568
572.861907	0.099752
573.074287	0.099694
573.286649	0.099814
573.498993	0.099818
573.711318	0.099765
573.923625	0.099777
574.135914	0.099855
574.348185	0.099851
574.560438	0.100034
574.772672	0.100108
574.984888	0.100191
575.197086	0.100351
575.409266	0.100520
575.621427	0.100836
575.833570	0.100763
576.045695	0.101027
576.257802	0.100915
576.469890	0.100963
576.681961	0.100858
576.894013	0.101258
577.106046	0.101238
577.318062	0.101411
577.530059	0.101417
577.742039	0.101886
577.954000	0.101567
578.165942	0.101722
578.377867	0.101859
578.589773	0.102063
578.801661	0.101920
579.013531	0.101799
579.225382	0.102056
579.437216	0.102111
579.649031	0.102094
579.860828	0.102492
580.072606	0.102801
580.284367	0.102766
580.496109	0.102668
580.707833	0.102754
580.919539	0.103265
581.131227	0.102805
581.342896	0.103078
581.554547	0.102875
581.766180	0.103097
581.977795	0.103144
582.189391	0.103623
582.400969	0.103727
582.612529	0.103948
582.824071	0.103849
583.035595	0.104024
583.247100	0.103929
583.458587	0.104327
583.670056	0.104190
583.881506	0.104433
584.092939	0.104077
584.304353	0.104157
584.515749	0.104355
584.727127	0.104561
584.938486	0.104762
585.149828	0.105020
585.361151	0.105170
585.572456	0.105291
585.783742	0.105222
585.995011	0.105529
586.206261	0.105861
586.417493	0.105747
586.628706	0.105687
586.839902	0.105853
587.051079	0.105921
587.262238	0.106046
587.473379	0.106264
587.684502	0.106183
587.895606	0.106137
588.106692	0.106269
588.317760	0.106241
588.528810	0.106606
588.739841	0.106635
588.950855	0.106634
589.161850	0.106707
589.372827	0.106786
589.583785	0.106987
589.794726	0.107335
590.005648	0.107264
590.216552	0.107416
590.427437	0.107387
590.638305	0.107570
590.849154	0.107474
591.059985	0.107164
591.270798	0.107233
591.481592	0.107280
591.692369	0.107155
591.903127	0.107364
592.113867	0.107594
592.324588	0.107423
592.535292	0.107436
592.745977	0.107713
592.956644	0.107871
593.167293	0.107890
593.377923	0.107970
593.588536	0.107997
593.799130	0.108123
594.009706	0.108256
594.220263	0.108559
594.430803	0.108557
594.641324	0.108863
594.851827	0.109115
595.062312	0.109302
595.272778	0.109509
595.483227	0.109660
595.693657	0.109730
595.904069	0.109685
596.114462	0.109802
596.324838	0.109891
596.535195	0.110137
596.745534	0.110388
596.955855	0.110418
597.166157	0.110657
597.376441	0.111126
597.586707	0.111395
597.796955	0.111879
598.007185	0.111959
598.217396	0.112134
598.427589	0.112041
598.637764	0.112102
598.847921	0.112185
599.058060	0.112185
599.268180	0.112041
599.478282	0.111925
599.688366	0.111658
599.898431	0.111636
600.108479	0.111929
600.318508	0.112007
600.528519	0.111843
600.738511	0.111989
600.948486	0.112329
601.158442	0.112163
601.368380	0.112426
601.578300	0.112676
601.788202	0.112623
601.998085	0.112579
602.207950	0.112753
602.417797	0.113081
602.627626	0.113037
602.837436	0.112937
603.047228	0.113160
603.257002	0.113401
603.466758	0.113270
603.676496	0.113697
603.886215	0.113879
604.095916	0.113797
604.305599	0.113772
604.515264	0.114205
604.724910	0.114182
604.934538	0.114314
605.144148	0.114225
605.353740	0.114487
605.563314	0.114559
605.772869	0.114435
605.982406	0.114696
606.191925	0.114670
606.401425	0.114359
606.610908	0.114477
606.820372	0.114360
607.029818	0.114228
607.239246	0.114322
607.448655	0.114293
607.658047	0.114293
607.867420	0.114176
608.076775	0.114329
608.286111	0.114530
608.495430	0.114330
608.704730	0.114629
608.914012	0.114731
609.123275	0.114509
609.332521	0.114475
609.541748	0.114861
609.750957	0.114963
609.960148	0.115148
610.169321	0.115473
610.378475	0.115849
610.587611	0.115980
610.796729	0.116116
611.005829	0.116394
611.214910	0.116776
611.423974	0.116838
611.633019	0.116932
611.842045	0.117026
612.051054	0.116904
612.260044	0.117235
612.469017	0.117367
612.677970	0.117201
612.886906	0.117139
613.095824	0.117120
613.304723	0.117195
613.513604	0.117197
613.722467	0.117189
613.931311	0.117272
614.140138	0.116909
614.348946	0.116962
614.557736	0.117006
614.766507	0.117258
614.975261	0.117342
615.183996	0.117410
615.392713	0.117381
615.601412	0.117344
615.810092	0.117350
616.018754	0.117529
616.227399	0.117491
616.436024	0.117667
616.644632	0.117715
616.853222	0.117699
617.061793	0.117809
617.270346	0.117996
617.478880	0.118358
617.687397	0.118469
617.895895	0.118476
618.104375	0.118491
618.312837	0.118769
618.521281	0.118852
618.729706	0.118880
618.938113	0.118724
619.146502	0.118595
619.354873	0.118524
619.563226	0.118532
619.771560	0.118823
619.979876	0.118853
620.188174	0.118831
620.396453	0.118858
620.604715	0.118880
620.812958	0.119000
621.021183	0.119296
621.229390	0.119378
621.437578	0.119445
621.645748	0.119419
621.853900	0.119555
622.062034	0.119839
622.270150	0.119726
622.478247	0.119952
622.686326	0.120347
622.894387	0.120421
623.102430	0.120277
623.310454	0.120486
623.518461	0.120519
623.726449	0.120586
623.934418	0.120385
624.142370	0.120617
624.350303	0.120605
624.558218	0.120563
624.766115	0.120458
624.973994	0.120619
625.181855	0.120612
625.389697	0.120746
625.597521	0.120965
625.805327	0.121214
626.013114	0.121470
626.220883	0.121458
626.428634	0.121296
626.636367	0.121591
626.844082	0.121669
627.051778	0.121525
627.259457	0.121364
627.467117	0.121610
627.674758	0.121556
627.882382	0.121488
628.089987	0.121640
628.297574	0.121749
628.505143	0.122039
628.712694	0.122141
628.920226	0.122351
629.127740	0.122491
629.335236	0.122379
629.542714	0.122443
629.750174	0.122522
629.957615	0.122671
630.165038	0.122965
630.372443	0.122761
630.579829	0.122833
630.787198	0.123120
630.994548	0.123077
631.201880	0.123065
631.409194	0.123300
631.616489	0.123379
631.823766	0.123250
632.031025	0.123001
632.238266	0.123158
632.445489	0.123201
632.652693	0.123214
632.859879	0.123732
633.067047	0.123846
633.274197	0.123832
633.481329	0.123855
633.688442	0.124119
633.895537	0.124596
634.102614	0.124601
634.309672	0.124796
634.516713	0.124743
634.723735	0.124693
634.930739	0.124613
635.137724	0.124597
635.344692	0.124597
635.551641	0.124614
635.758572	0.124495
635.965485	0.124618
636.172379	0.124751
636.379256	0.125072
636.586114	0.125141
636.792954	0.125298
636.999775	0.125297
637.206579	0.125456
637.413364	0.125673
637.620131	0.125792
637.826880	0.125946
638.033610	0.125996
638.240323	0.125953
638.447017	0.126178
638.653692	0.126161
638.860350	0.126364
639.066990	0.126317
639.273611	0.126337
639.480214	0.126299
639.686798	0.126192
639.893365	0.125989
640.099913	0.126004
640.306443	0.125981
640.512955	0.126225
640.719449	0.126316
640.925924	0.126275
641.132381	0.126304
641.338820	0.126387
641.545241	0.126661
641.751644	0.127194
641.958028	0.127230
642.164394	0.127182
642.370742	0.127257
642.577071	0.127278
642.783383	0.127572
642.989676	0.127596
643.195951	0.127638
643.402207	0.127359
643.608446	0.127337
643.814666	0.127534
644.020868	0.127437
644.227052	0.127540
644.433218	0.127683
644.639365	0.127894
644.845494	0.128006
645.051605	0.128234
645.257698	0.128644
645.463772	0.128563
645.669828	0.128713
645.875866	0.128963
646.081886	0.128857
646.287888	0.128960
646.493871	0.128982
646.699836	0.129112
646.905783	0.129046
647.111712	0.129067
647.317622	0.129179
647.523514	0.129212
647.729388	0.129249
647.935244	0.129306
648.141082	0.129487
648.346901	0.129628
648.552702	0.129913
648.758485	0.130087
648.964250	0.130258
649.169996	0.130322
649.375724	0.130486
649.581434	0.130750
649.787126	0.131001
649.992800	0.130987
650.198455	0.130991
650.404092	0.130768
650.609711	0.131006
650.815311	0.130979
651.020894	0.131058
651.226458	0.130936
651.432004	0.130993
651.637532	0.131037
651.843041	0.131172
652.048532	0.131075
652.254006	0.131188
652.459460	0.130950
652.664897	0.130935
652.870315	0.130907
653.075716	0.131041
653.281097	0.130963
653.486461	0.131119
653.691807	0.131064
653.897134	0.131294
654.102443	0.131287
654.307734	0.131497
654.513006	0.131540
654.718261	0.131708
654.923497	0.131641
655.128715	0.131859
655.333915	0.131740
655.539096	0.131718
655.744259	0.131965
655.949404	0.132158
656.154531	0.132166
656.359640	0.132412
656.564730	0.132694
656.769802	0.132835
656.974856	0.132732
657.179892	0.132995
657.384909	0.133276
657.589908	0.133125
657.794889	0.133208
657.999852	0.133494
658.204797	0.133492
658.409723	0.133234
658.614631	0.133602
658.819521	0.133921
659.024393	0.133913
659.229246	0.133806
659.434081	0.133859
659.638898	0.134110
659.843697	0.134054
660.048478	0.134280
660.253240	0.134567
660.457984	0.134554
660.662710	0.134649
660.867417	0.134931
661.072107	0.134992
661.276778	0.135083
661.481431	0.134985
661.686066	0.135010
661.890682	0.135054
662.095281	0.135125
662.299861	0.135238
662.504422	0.135225
662.708966	0.135247
662.913491	0.135558
663.117999	0.135842
663.322488	0.136001
663.526958	0.136162
663.731411	0.136276
663.935845	0.136473
664.140261	0.136492
664.344659	0.136606
664.549038	0.136573
664.753400	0.136446
664.957743	0.136552
665.162068	0.136547
665.366375	0.136685
665.570663	0.136725
665.774933	0.136850
665.979185	0.136863
666.183419	0.136919
666.387635	0.136883
666.591832	0.137322
666.796011	0.137542
667.000172	0.137827
667.204315	0.138088
667.408439	0.138261
667.612545	0.138239
667.816634	0.138353
668.020703	0.138436
668.224755	0.138668
668.428788	0.138651
668.632803	0.138539
668.836800	0.138324
669.040779	0.138284
669.244739	0.138376
669.448681	0.138432
669.652605	0.138445
669.856511	0.138625
670.060399	0.138738
670.264268	0.138624
670.468119	0.138900
670.671952	0.139146
670.875767	0.139253
671.079563	0.139356
671.283341	0.139420
671.487101	0.139644
671.690843	0.139860
671.894567	0.139958
672.098272	0.140138
672.301959	0.140189
672.505628	0.140267
672.709278	0.140378
672.912911	0.140474
673.116525	0.140687
673.320121	0.140692
673.523699	0.140631
673.727258	0.140777
673.930799	0.140900
674.134322	0.140787
674.337827	0.140986
674.541314	0.141008
674.744782	0.141068
674.948232	0.141084
675.151664	0.141103
675.355078	0.141074
675.558474	0.141097
675.761851	0.141292
675.965210	0.141343
676.168551	0.141383
676.371873	0.141416
676.575178	0.141308
676.778464	0.141390
676.981732	0.141600
677.184981	0.141814
677.388213	0.141978
677.591426	0.141920
677.794621	0.142200
677.997798	0.142221
678.200956	0.142370
678.404097	0.142701
678.607219	0.142861
678.810323	0.142893
679.013408	0.143013
679.216476	0.143184
679.419525	0.143283
679.622556	0.143337
679.825569	0.143428
680.028563	0.143631
680.231540	0.143689
680.434498	0.143531
680.637438	0.143660
680.840359	0.143822
681.043263	0.143755
681.246148	0.143884
681.449015	0.143964
681.651864	0.144173
681.854694	0.144201
682.057506	0.144315
682.260301	0.144720
682.463076	0.144771
682.665834	0.144751
682.868573	0.144788
683.071295	0.145019
683.273998	0.145082
683.476682	0.144995
683.679349	0.144973
683.881997	0.145039
684.084627	0.145022
684.287239	0.145189
684.489833	0.145124
684.692408	0.145328
684.894965	0.145311
685.097504	0.145316
685.300025	0.145452
685.502527	0.145265
685.705012	0.145158
685.907478	0.145331
686.109925	0.145452
686.312355	0.145563
686.514766	0.145587
686.717159	0.145572
686.919534	0.145712
687.121891	0.145806
687.324230	0.146310
687.526550	0.146594
687.728852	0.146678
687.931136	0.146662
688.133401	0.146837
688.335649	0.146889
688.537878	0.146949
688.740089	0.147070
688.942281	0.147297
689.144456	0.147176
689.346612	0.147128
689.548750	0.147058
689.750870	0.147253
689.952971	0.147399
690.155055	0.147602
690.357120	0.147648
690.559167	0.147836
690.761195	0.147904
690.963206	0.148096
691.165198	0.148222
691.367172	0.148371
691.569128	0.148316
691.771065	0.148327
691.972984	0.148332
692.174885	0.148704
692.376768	0.148765
692.578633	0.148631
692.780479	0.148705
692.982308	0.148709
693.184118	0.148697
693.385909	0.148839
