sample name	sample
index	143
start time	 02-15-2021  02:03:34 PM


Wavelength (nm)	Absorbance
494.344910	NaN
494.563924	NaN
494.782919	NaN
495.001897	NaN
495.220856	NaN
495.439797	NaN
495.658719	NaN
495.877624	NaN
496.096510	NaN
496.315378	NaN
496.534227	0.565615
496.753059	-0.265035
496.971872	-0.445130
497.190667	0.050394
497.409444	0.094561
497.628203	0.116132
497.846943	0.127548
498.065665	0.129842
498.284369	0.135511
498.503055	0.135228
498.721723	0.138988
498.940372	0.142510
499.159003	0.140915
499.377616	0.141126
499.596210	0.140429
499.814787	0.144134
500.033345	0.142267
500.251885	0.145115
500.470406	0.150021
500.688910	0.153345
500.907395	0.154715
501.125862	0.152444
501.344311	0.151658
501.562742	0.151426
501.781154	0.148032
501.999548	0.149736
502.217924	0.149021
502.436282	0.148589
502.654621	0.146659
502.872942	0.144305
503.091245	0.144459
503.309530	0.147619
503.527797	0.145297
503.746045	0.148070
503.964275	0.147015
504.182487	0.143805
504.400681	0.142952
504.618856	0.142809
504.837013	0.143191
505.055152	0.144541
505.273273	0.142312
505.491376	0.143929
505.709460	0.144869
505.927526	0.149304
506.145574	0.150367
506.363604	0.152815
506.581615	0.150699
506.799608	0.152237
507.017583	0.154267
507.235540	0.156531
507.453478	0.155543
507.671399	0.153245
507.889301	0.148923
508.107185	0.150956
508.325050	0.149278
508.542898	0.151559
508.760727	0.151449
508.978538	0.151027
509.196330	0.150393
509.414105	0.154822
509.631861	0.154634
509.849599	0.157623
510.067319	0.154475
510.285021	0.154004
510.502704	0.154541
510.720369	0.154924
510.938016	0.154884
511.155645	0.155573
511.373255	0.153231
511.590848	0.154678
511.808422	0.152353
512.025977	0.154845
512.243515	0.154509
512.461034	0.152837
512.678536	0.152021
512.896018	0.154346
513.113483	0.152442
513.330930	0.152428
513.548358	0.152372
513.765768	0.155408
513.983160	0.156795
514.200533	0.158925
514.417889	0.161399
514.635226	0.163464
514.852545	0.162361
515.069845	0.164600
515.287128	0.163979
515.504392	0.164028
515.721638	0.164129
515.938866	0.161682
516.156075	0.160601
516.373267	0.159748
516.590440	0.159361
516.807594	0.159030
517.024731	0.161015
517.241850	0.163443
517.458950	0.166526
517.676032	0.163831
517.893095	0.165079
518.110141	0.166575
518.327168	0.168028
518.544177	0.168802
518.761168	0.169756
518.978141	0.168233
519.195095	0.167070
519.412031	0.165198
519.628949	0.166590
519.845849	0.167373
520.062731	0.167395
520.279594	0.167371
520.496439	0.167550
520.713266	0.167614
520.930074	0.168605
521.146865	0.168621
521.363637	0.169007
521.580391	0.170364
521.797127	0.169694
522.013844	0.169887
522.230543	0.170489
522.447224	0.171539
522.663887	0.172647
522.880532	0.172682
523.097158	0.173983
523.313766	0.172739
523.530356	0.174282
523.746928	0.176249
523.963481	0.175196
524.180017	0.174678
524.396534	0.174287
524.613032	0.173415
524.829513	0.172745
525.045975	0.172846
525.262420	0.175395
525.478845	0.173636
525.695253	0.173115
525.911643	0.173100
526.128014	0.173817
526.344367	0.173074
526.560702	0.174116
526.777018	0.175373
526.993316	0.175146
527.209597	0.174784
527.425858	0.176217
527.642102	0.177576
527.858328	0.179073
528.074535	0.177887
528.290724	0.177571
528.506894	0.178553
528.723047	0.179053
528.939181	0.178965
529.155297	0.178251
529.371395	0.178867
529.587475	0.178058
529.803536	0.178150
530.019579	0.179734
530.235604	0.180572
530.451611	0.180236
530.667600	0.178592
530.883570	0.178972
531.099522	0.180333
531.315456	0.180013
531.531372	0.180776
531.747269	0.182707
531.963148	0.183906
532.179009	0.183362
532.394852	0.183018
532.610676	0.184872
532.826482	0.185086
533.042271	0.184918
533.258040	0.185376
533.473792	0.184806
533.689525	0.184174
533.905240	0.183709
534.120937	0.185967
534.336616	0.187215
534.552277	0.186304
534.767919	0.187068
534.983543	0.187110
535.199149	0.186772
535.414736	0.185910
535.630306	0.184880
535.845857	0.185512
536.061390	0.185465
536.276904	0.184615
536.492401	0.186493
536.707879	0.186797
536.923339	0.187578
537.138781	0.187819
537.354204	0.190410
537.569610	0.192047
537.784997	0.192426
538.000366	0.193264
538.215716	0.193750
538.431049	0.193320
538.646363	0.194434
538.861659	0.195847
539.076937	0.197049
539.292196	0.196468
539.507438	0.196713
539.722661	0.197123
539.937866	0.196924
540.153052	0.197801
540.368221	0.198636
540.583371	0.198999
540.798503	0.198807
541.013617	0.199379
541.228712	0.199739
541.443789	0.199770
541.658848	0.199436
541.873889	0.198749
542.088912	0.197627
542.303916	0.197728
542.518902	0.197305
542.733870	0.197194
542.948820	0.196189
543.163752	0.196562
543.378665	0.195554
543.593560	0.196112
543.808437	0.197843
544.023295	0.198039
544.238136	0.197247
544.452958	0.197628
544.667762	0.198877
544.882548	0.200081
545.097315	0.200440
545.312064	0.201267
545.526795	0.201909
545.741508	0.201493
545.956203	0.202879
546.170879	0.203948
546.385537	0.203554
546.600177	0.202329
546.814799	0.202174
547.029402	0.203012
547.243988	0.203671
547.458555	0.202636
547.673103	0.202163
547.887634	0.202593
548.102146	0.202974
548.316640	0.204854
548.531116	0.205507
548.745574	0.206250
548.960013	0.207350
549.174435	0.207080
549.388838	0.208404
549.603222	0.208643
549.817589	0.208361
550.031937	0.209157
550.246267	0.209073
550.460579	0.209606
550.674873	0.209001
550.889148	0.209089
551.103405	0.209816
551.317644	0.209896
551.531865	0.210818
551.746068	0.210611
551.960252	0.210204
552.174418	0.209963
552.388566	0.210231
552.602696	0.211309
552.816807	0.209870
553.030900	0.209349
553.244975	0.208502
553.459032	0.209152
553.673070	0.209849
553.887091	0.209600
554.101093	0.210502
554.315077	0.211048
554.529042	0.210605
554.742990	0.211075
554.956919	0.212092
555.170830	0.212460
555.384722	0.211999
555.598597	0.212083
555.812453	0.212997
556.026291	0.212199
556.240111	0.211610
556.453913	0.212132
556.667696	0.211760
556.881461	0.212943
557.095208	0.213404
557.308937	0.213962
557.522647	0.213696
557.736339	0.213716
557.950013	0.214050
558.163669	0.213898
558.377307	0.214805
558.590926	0.215584
558.804527	0.215433
559.018110	0.215288
559.231675	0.215413
559.445221	0.216280
559.658749	0.217260
559.872259	0.217536
560.085751	0.218426
560.299225	0.218122
560.512680	0.218448
560.726117	0.217414
560.939536	0.219169
561.152937	0.219880
561.366319	0.220251
561.579683	0.219306
561.793029	0.219395
562.006357	0.219947
562.219667	0.219226
562.432958	0.219281
562.646231	0.219924
562.859486	0.218802
563.072723	0.217843
563.285941	0.218184
563.499141	0.218062
563.712323	0.218282
563.925487	0.217686
564.138632	0.218604
564.351760	0.218980
564.564869	0.220426
564.777960	0.221537
564.991032	0.222319
565.204087	0.222784
565.417123	0.223920
565.630141	0.223926
565.843140	0.224570
566.056122	0.225124
566.269085	0.225866
566.482030	0.224908
566.694957	0.224773
566.907866	0.224674
567.120756	0.225490
567.333628	0.225395
567.546482	0.226484
567.759318	0.226300
567.972135	0.226014
568.184935	0.226109
568.397716	0.226968
568.610478	0.227317
568.823223	0.227972
569.035949	0.226512
569.248657	0.227216
569.461347	0.226724
569.674019	0.227673
569.886672	0.229047
570.099308	0.228919
570.311925	0.228771
570.524523	0.228890
570.737104	0.228144
570.949666	0.228470
571.162210	0.227746
571.374736	0.227856
571.587244	0.228315
571.799733	0.227852
572.012205	0.227564
572.224658	0.227756
572.437092	0.227847
572.649509	0.229481
572.861907	0.230279
573.074287	0.230164
573.286649	0.230408
573.498993	0.229558
573.711318	0.229686
573.923625	0.229617
574.135914	0.230571
574.348185	0.230713
574.560438	0.230636
574.772672	0.231779
574.984888	0.232666
575.197086	0.233382
575.409266	0.233966
575.621427	0.234199
575.833570	0.235513
576.045695	0.234698
576.257802	0.235318
576.469890	0.235468
576.681961	0.235128
576.894013	0.235664
577.106046	0.235973
577.318062	0.234810
577.530059	0.235400
577.742039	0.236094
577.954000	0.236647
578.165942	0.237006
578.377867	0.236814
578.589773	0.236497
578.801661	0.236116
579.013531	0.236446
579.225382	0.237387
579.437216	0.238002
579.649031	0.236450
579.860828	0.236986
580.072606	0.236946
580.284367	0.236953
580.496109	0.237168
580.707833	0.237847
580.919539	0.237409
581.131227	0.238556
581.342896	0.237523
581.554547	0.238730
581.766180	0.238697
581.977795	0.238562
582.189391	0.238737
582.400969	0.238548
582.612529	0.238783
582.824071	0.239241
583.035595	0.238584
583.247100	0.239240
583.458587	0.239573
583.670056	0.239171
583.881506	0.239572
584.092939	0.240412
584.304353	0.240918
584.515749	0.241130
584.727127	0.240986
584.938486	0.241864
585.149828	0.242443
585.361151	0.242534
585.572456	0.243829
585.783742	0.243621
585.995011	0.244449
586.206261	0.244380
586.417493	0.244019
586.628706	0.244639
586.839902	0.244819
587.051079	0.243768
587.262238	0.243925
587.473379	0.243320
587.684502	0.243962
587.895606	0.244405
588.106692	0.244901
588.317760	0.246061
588.528810	0.245674
588.739841	0.245618
588.950855	0.246916
589.161850	0.246866
589.372827	0.246650
589.583785	0.247213
589.794726	0.245996
590.005648	0.246574
590.216552	0.246768
590.427437	0.247901
590.638305	0.248081
590.849154	0.247930
591.059985	0.248756
591.270798	0.250015
591.481592	0.249540
591.692369	0.249950
591.903127	0.250403
592.113867	0.250264
592.324588	0.250558
592.535292	0.250241
592.745977	0.250408
592.956644	0.250598
593.167293	0.249767
593.377923	0.250271
593.588536	0.250440
593.799130	0.249798
594.009706	0.250303
594.220263	0.249731
594.430803	0.251158
594.641324	0.251683
594.851827	0.251542
595.062312	0.252609
595.272778	0.252815
595.483227	0.254021
595.693657	0.254817
595.904069	0.254495
596.114462	0.254820
596.324838	0.254916
596.535195	0.255539
596.745534	0.256510
596.955855	0.255888
597.166157	0.256155
597.376441	0.255166
597.586707	0.255198
597.796955	0.255423
598.007185	0.255695
598.217396	0.255328
598.427589	0.254728
598.637764	0.254577
598.847921	0.255193
599.058060	0.255843
599.268180	0.256524
599.478282	0.256911
599.688366	0.257490
599.898431	0.257678
600.108479	0.258347
600.318508	0.258511
600.528519	0.258412
600.738511	0.258793
600.948486	0.258896
601.158442	0.258482
601.368380	0.258500
601.578300	0.258094
601.788202	0.258654
601.998085	0.258354
602.207950	0.258646
602.417797	0.259151
602.627626	0.258825
602.837436	0.257840
603.047228	0.258323
603.257002	0.258346
603.466758	0.258984
603.676496	0.258231
603.886215	0.258524
604.095916	0.258724
604.305599	0.258810
604.515264	0.259632
604.724910	0.260731
604.934538	0.261231
605.144148	0.261670
605.353740	0.262258
605.563314	0.262907
605.772869	0.263463
605.982406	0.263618
606.191925	0.263832
606.401425	0.263745
606.610908	0.263796
606.820372	0.264170
607.029818	0.264116
607.239246	0.263347
607.448655	0.263564
607.658047	0.263499
607.867420	0.264191
608.076775	0.264315
608.286111	0.264670
608.495430	0.264244
608.704730	0.263797
608.914012	0.264115
609.123275	0.264427
609.332521	0.264014
609.541748	0.264294
609.750957	0.263609
609.960148	0.263557
610.169321	0.263307
610.378475	0.264171
610.587611	0.263882
610.796729	0.264080
611.005829	0.264433
611.214910	0.264783
611.423974	0.264749
611.633019	0.265139
611.842045	0.264723
612.051054	0.265238
612.260044	0.265169
612.469017	0.266646
612.677970	0.266778
612.886906	0.267270
613.095824	0.268299
613.304723	0.268081
613.513604	0.268837
613.722467	0.269074
613.931311	0.268766
614.140138	0.269058
614.348946	0.268392
614.557736	0.268488
614.766507	0.268245
614.975261	0.268323
615.183996	0.268798
615.392713	0.267898
615.601412	0.268555
615.810092	0.269142
616.018754	0.269314
616.227399	0.269644
616.436024	0.269470
616.644632	0.269618
616.853222	0.269946
617.061793	0.269826
617.270346	0.270416
617.478880	0.271233
617.687397	0.271096
617.895895	0.271401
618.104375	0.271276
618.312837	0.272262
618.521281	0.273064
618.729706	0.272353
618.938113	0.273264
619.146502	0.273983
619.354873	0.274398
619.563226	0.275369
619.771560	0.274869
619.979876	0.276081
620.188174	0.276535
620.396453	0.276201
620.604715	0.277401
620.812958	0.277231
621.021183	0.277079
621.229390	0.276872
621.437578	0.276431
621.645748	0.277831
621.853900	0.277702
622.062034	0.276695
622.270150	0.276591
622.478247	0.276237
622.686326	0.276253
622.894387	0.276275
623.102430	0.276081
623.310454	0.276217
623.518461	0.275951
623.726449	0.275241
623.934418	0.276008
624.142370	0.276978
624.350303	0.277824
624.558218	0.278491
624.766115	0.279281
624.973994	0.279680
625.181855	0.280289
625.389697	0.280838
625.597521	0.281383
625.805327	0.281978
626.013114	0.281709
626.220883	0.281700
626.428634	0.281441
626.636367	0.281562
626.844082	0.281992
627.051778	0.282018
627.259457	0.281966
627.467117	0.282986
627.674758	0.282490
627.882382	0.282668
628.089987	0.282452
628.297574	0.282983
628.505143	0.282403
628.712694	0.282294
628.920226	0.282292
629.127740	0.282153
629.335236	0.281688
629.542714	0.282686
629.750174	0.283306
629.957615	0.283539
630.165038	0.283484
630.372443	0.283431
630.579829	0.283236
630.787198	0.283266
630.994548	0.283477
631.201880	0.283458
631.409194	0.283291
631.616489	0.283137
631.823766	0.283447
632.031025	0.283992
632.238266	0.284732
632.445489	0.285398
632.652693	0.285758
632.859879	0.285808
633.067047	0.286555
633.274197	0.286143
633.481329	0.286320
633.688442	0.285852
633.895537	0.285862
634.102614	0.286528
634.309672	0.285604
634.516713	0.285452
634.723735	0.286084
634.930739	0.286521
635.137724	0.286951
635.344692	0.286762
635.551641	0.287754
635.758572	0.288217
635.965485	0.287732
636.172379	0.288815
636.379256	0.290548
636.586114	0.290265
636.792954	0.290007
636.999775	0.290446
637.206579	0.290735
637.413364	0.290329
637.620131	0.289896
637.826880	0.290849
638.033610	0.291415
638.240323	0.290611
638.447017	0.291219
638.653692	0.291730
638.860350	0.291815
639.066990	0.292688
639.273611	0.293305
639.480214	0.294401
639.686798	0.293962
639.893365	0.293992
640.099913	0.294492
640.306443	0.294323
640.512955	0.294679
640.719449	0.295261
640.925924	0.295230
641.132381	0.295179
641.338820	0.294981
641.545241	0.296107
641.751644	0.295961
641.958028	0.295951
642.164394	0.296925
642.370742	0.296737
642.577071	0.296806
642.783383	0.297431
642.989676	0.298337
643.195951	0.298602
643.402207	0.298000
643.608446	0.298528
643.814666	0.298819
644.020868	0.298745
644.227052	0.299407
644.433218	0.299357
644.639365	0.299058
644.845494	0.298560
645.051605	0.298454
645.257698	0.298952
645.463772	0.299201
645.669828	0.298593
645.875866	0.298681
646.081886	0.298083
646.287888	0.297791
646.493871	0.298081
646.699836	0.298425
646.905783	0.298987
647.111712	0.299234
647.317622	0.299504
647.523514	0.300023
647.729388	0.299857
647.935244	0.300030
648.141082	0.301098
648.346901	0.301206
648.552702	0.301099
648.758485	0.301056
648.964250	0.301246
649.169996	0.301526
649.375724	0.301907
649.581434	0.302411
649.787126	0.302697
649.992800	0.302690
650.198455	0.303125
650.404092	0.303819
650.609711	0.304310
650.815311	0.304644
651.020894	0.304520
651.226458	0.304842
651.432004	0.304674
651.637532	0.305266
651.843041	0.305543
652.048532	0.305618
652.254006	0.305637
652.459460	0.305392
652.664897	0.305372
652.870315	0.305094
653.075716	0.305182
653.281097	0.305469
653.486461	0.305563
653.691807	0.305577
653.897134	0.305462
654.102443	0.306075
654.307734	0.306579
654.513006	0.307155
654.718261	0.307702
654.923497	0.308252
655.128715	0.308550
655.333915	0.309174
655.539096	0.309464
655.744259	0.310167
655.949404	0.310480
656.154531	0.310905
656.359640	0.311068
656.564730	0.312012
656.769802	0.312240
656.974856	0.312812
657.179892	0.312757
657.384909	0.313223
657.589908	0.313426
657.794889	0.313203
657.999852	0.313531
658.204797	0.313617
658.409723	0.313106
658.614631	0.313154
658.819521	0.313533
659.024393	0.313836
659.229246	0.313818
659.434081	0.314197
659.638898	0.314492
659.843697	0.314398
660.048478	0.314638
660.253240	0.315365
660.457984	0.315830
660.662710	0.316012
660.867417	0.315970
661.072107	0.316142
661.276778	0.316699
661.481431	0.316895
661.686066	0.317415
661.890682	0.317447
662.095281	0.317732
662.299861	0.317600
662.504422	0.317670
662.708966	0.318801
662.913491	0.319505
663.117999	0.319258
663.322488	0.319689
663.526958	0.320011
663.731411	0.319924
663.935845	0.319548
664.140261	0.319822
664.344659	0.319820
664.549038	0.319326
664.753400	0.319484
664.957743	0.319807
665.162068	0.319584
665.366375	0.319852
665.570663	0.320338
665.774933	0.321511
665.979185	0.322475
666.183419	0.323054
666.387635	0.323646
666.591832	0.323991
666.796011	0.324095
667.000172	0.324477
667.204315	0.324350
667.408439	0.324966
667.612545	0.325358
667.816634	0.325269
668.020703	0.325381
668.224755	0.325560
668.428788	0.326121
668.632803	0.326864
668.836800	0.327753
669.040779	0.328119
669.244739	0.328131
669.448681	0.327997
669.652605	0.328211
669.856511	0.328401
670.060399	0.328525
670.264268	0.328316
670.468119	0.328504
670.671952	0.328272
670.875767	0.328382
671.079563	0.328737
671.283341	0.329367
671.487101	0.329413
671.690843	0.329520
671.894567	0.329658
672.098272	0.329942
672.301959	0.329966
672.505628	0.329929
672.709278	0.330526
672.912911	0.331041
673.116525	0.330703
673.320121	0.331472
673.523699	0.331902
673.727258	0.332283
673.930799	0.332586
674.134322	0.332598
674.337827	0.333269
674.541314	0.333543
674.744782	0.333071
674.948232	0.333115
675.151664	0.332548
675.355078	0.332493
675.558474	0.332369
675.761851	0.332186
675.965210	0.332516
676.168551	0.332987
676.371873	0.333052
676.575178	0.333554
676.778464	0.334356
676.981732	0.334801
677.184981	0.335350
677.388213	0.335957
677.591426	0.336745
677.794621	0.337502
677.997798	0.337432
678.200956	0.337322
678.404097	0.338137
678.607219	0.338019
678.810323	0.338712
679.013408	0.339296
679.216476	0.339859
679.419525	0.340211
679.622556	0.339879
679.825569	0.340073
680.028563	0.340773
680.231540	0.340369
680.434498	0.340813
680.637438	0.341226
680.840359	0.341127
681.043263	0.341524
681.246148	0.342029
681.449015	0.342699
681.651864	0.343110
681.854694	0.343325
682.057506	0.343540
682.260301	0.343409
682.463076	0.343230
682.665834	0.343442
682.868573	0.343412
683.071295	0.343905
683.273998	0.343698
683.476682	0.344440
683.679349	0.345075
683.881997	0.346096
684.084627	0.346432
684.287239	0.346777
684.489833	0.347209
684.692408	0.347287
684.894965	0.346837
685.097504	0.347471
685.300025	0.347570
685.502527	0.347223
685.705012	0.347096
685.907478	0.347147
686.109925	0.347899
686.312355	0.347966
686.514766	0.348513
686.717159	0.348783
686.919534	0.348395
687.121891	0.348588
687.324230	0.348771
687.526550	0.348614
687.728852	0.349175
687.931136	0.349033
688.133401	0.349348
688.335649	0.349081
688.537878	0.348756
688.740089	0.348801
688.942281	0.348666
689.144456	0.349333
689.346612	0.349607
689.548750	0.349648
689.750870	0.349687
689.952971	0.350075
690.155055	0.350331
690.357120	0.350679
690.559167	0.352006
690.761195	0.352398
690.963206	0.351789
691.165198	0.352322
691.367172	0.352360
691.569128	0.352361
691.771065	0.352502
691.972984	0.352610
692.174885	0.353211
692.376768	0.352918
692.578633	0.353319
692.780479	0.354139
692.982308	0.354092
693.184118	0.354138
693.385909	0.354275
693.587683	0.354120
693.789438	0.354773
