sample name	sample
index	1370
start time	 05-03-2021  02:23:44 PM


Wavelength (nm)	Absorbance
494.344910	1.050994
494.563924	1.050994
494.782919	1.050994
495.001897	NaN
495.220856	0.390720
495.439797	0.653016
495.658719	0.354039
495.877624	0.182168
496.096510	0.098513
496.315378	0.055566
496.534227	0.183364
496.753059	0.118590
496.971872	0.216992
497.190667	0.100058
497.409444	0.092694
497.628203	0.092144
497.846943	0.093852
498.065665	0.091821
498.284369	0.090048
498.503055	0.089861
498.721723	0.089048
498.940372	0.089041
499.159003	0.088726
499.377616	0.088631
499.596210	0.087170
499.814787	0.085962
500.033345	0.086260
500.251885	0.087098
500.470406	0.086674
500.688910	0.087752
500.907395	0.086878
501.125862	0.087693
501.344311	0.085580
501.562742	0.087155
501.781154	0.087670
501.999548	0.087891
502.217924	0.086712
502.436282	0.086623
502.654621	0.086850
502.872942	0.086748
503.091245	0.086313
503.309530	0.087757
503.527797	0.087293
503.746045	0.086287
503.964275	0.085508
504.182487	0.086766
504.400681	0.086772
504.618856	0.086549
504.837013	0.087075
505.055152	0.086745
505.273273	0.087356
505.491376	0.087156
505.709460	0.087959
505.927526	0.088849
506.145574	0.088899
506.363604	0.088929
506.581615	0.088376
506.799608	0.087398
507.017583	0.087162
507.235540	0.085797
507.453478	0.085175
507.671399	0.085552
507.889301	0.085689
508.107185	0.085483
508.325050	0.085081
508.542898	0.085388
508.760727	0.086107
508.978538	0.085886
509.196330	0.086929
509.414105	0.087679
509.631861	0.087081
509.849599	0.086636
510.067319	0.086465
510.285021	0.086823
510.502704	0.086373
510.720369	0.086697
510.938016	0.087124
511.155645	0.086979
511.373255	0.087406
511.590848	0.088184
511.808422	0.088636
512.025977	0.088476
512.243515	0.088223
512.461034	0.088466
512.678536	0.088673
512.896018	0.089258
513.113483	0.089401
513.330930	0.089091
513.548358	0.088282
513.765768	0.087753
513.983160	0.088065
514.200533	0.088635
514.417889	0.088834
514.635226	0.088113
514.852545	0.088154
515.069845	0.087602
515.287128	0.087815
515.504392	0.088240
515.721638	0.088981
515.938866	0.089747
516.156075	0.090112
516.373267	0.091011
516.590440	0.092017
516.807594	0.092362
517.024731	0.092611
517.241850	0.092984
517.458950	0.093467
517.676032	0.092862
517.893095	0.092426
518.110141	0.092224
518.327168	0.091418
518.544177	0.090580
518.761168	0.090079
518.978141	0.090567
519.195095	0.090317
519.412031	0.089836
519.628949	0.090621
519.845849	0.090223
520.062731	0.090178
520.279594	0.090465
520.496439	0.090857
520.713266	0.091026
520.930074	0.091118
521.146865	0.091327
521.363637	0.091691
521.580391	0.091026
521.797127	0.091502
522.013844	0.091580
522.230543	0.091978
522.447224	0.092342
522.663887	0.092596
522.880532	0.092714
523.097158	0.092613
523.313766	0.092798
523.530356	0.093590
523.746928	0.093966
523.963481	0.094533
524.180017	0.094804
524.396534	0.094628
524.613032	0.093972
524.829513	0.094327
525.045975	0.093796
525.262420	0.093311
525.478845	0.093389
525.695253	0.093190
525.911643	0.092399
526.128014	0.091968
526.344367	0.092447
526.560702	0.093381
526.777018	0.092908
526.993316	0.093732
527.209597	0.094378
527.425858	0.094701
527.642102	0.095010
527.858328	0.095644
528.074535	0.095965
528.290724	0.096450
528.506894	0.095982
528.723047	0.096062
528.939181	0.096210
529.155297	0.095979
529.371395	0.095974
529.587475	0.095857
529.803536	0.096180
530.019579	0.096085
530.235604	0.095971
530.451611	0.096800
530.667600	0.097487
530.883570	0.098395
531.099522	0.098991
531.315456	0.099050
531.531372	0.099750
531.747269	0.099691
531.963148	0.100092
532.179009	0.100196
532.394852	0.100208
532.610676	0.099939
532.826482	0.099496
533.042271	0.100080
533.258040	0.100278
533.473792	0.099983
533.689525	0.100202
533.905240	0.100508
534.120937	0.100460
534.336616	0.100121
534.552277	0.100538
534.767919	0.100675
534.983543	0.100657
535.199149	0.100641
535.414736	0.100939
535.630306	0.101156
535.845857	0.101271
536.061390	0.101786
536.276904	0.102616
536.492401	0.102826
536.707879	0.103746
536.923339	0.103319
537.138781	0.103568
537.354204	0.103752
537.569610	0.104411
537.784997	0.105299
538.000366	0.105167
538.215716	0.105047
538.431049	0.105647
538.646363	0.104941
538.861659	0.105842
539.076937	0.106027
539.292196	0.106325
539.507438	0.105810
539.722661	0.105205
539.937866	0.105373
540.153052	0.105964
540.368221	0.105470
540.583371	0.105686
540.798503	0.105365
541.013617	0.105863
541.228712	0.105821
541.443789	0.106209
541.658848	0.106505
541.873889	0.106895
542.088912	0.106679
542.303916	0.106585
542.518902	0.106975
542.733870	0.107206
542.948820	0.107087
543.163752	0.107501
543.378665	0.106840
543.593560	0.106003
543.808437	0.105749
544.023295	0.105781
544.238136	0.105993
544.452958	0.105774
544.667762	0.105868
544.882548	0.106047
545.097315	0.105610
545.312064	0.106051
545.526795	0.107409
545.741508	0.107747
545.956203	0.107501
546.170879	0.107554
546.385537	0.107554
546.600177	0.107636
546.814799	0.107276
547.029402	0.107323
547.243988	0.108347
547.458555	0.107851
547.673103	0.107730
547.887634	0.108358
548.102146	0.108894
548.316640	0.109224
548.531116	0.108977
548.745574	0.109138
548.960013	0.109518
549.174435	0.109075
549.388838	0.109254
549.603222	0.109336
549.817589	0.109224
550.031937	0.109078
550.246267	0.108935
550.460579	0.109477
550.674873	0.109907
550.889148	0.110448
551.103405	0.110420
551.317644	0.110496
551.531865	0.110708
551.746068	0.110716
551.960252	0.111208
552.174418	0.111471
552.388566	0.111647
552.602696	0.111638
552.816807	0.111262
553.030900	0.111714
553.244975	0.111869
553.459032	0.111987
553.673070	0.112469
553.887091	0.112376
554.101093	0.112457
554.315077	0.112458
554.529042	0.112909
554.742990	0.113102
554.956919	0.112575
555.170830	0.112458
555.384722	0.112556
555.598597	0.112272
555.812453	0.112439
556.026291	0.112801
556.240111	0.113091
556.453913	0.112944
556.667696	0.112895
556.881461	0.113687
557.095208	0.114092
557.308937	0.114239
557.522647	0.114475
557.736339	0.114859
557.950013	0.114607
558.163669	0.114221
558.377307	0.114195
558.590926	0.114693
558.804527	0.114508
559.018110	0.114392
559.231675	0.114280
559.445221	0.114170
559.658749	0.113918
559.872259	0.114056
560.085751	0.114096
560.299225	0.114094
560.512680	0.114104
560.726117	0.114197
560.939536	0.114563
561.152937	0.114619
561.366319	0.114873
561.579683	0.114923
561.793029	0.115121
562.006357	0.115328
562.219667	0.115449
562.432958	0.115244
562.646231	0.114901
562.859486	0.115012
563.072723	0.115131
563.285941	0.115130
563.499141	0.115055
563.712323	0.114852
563.925487	0.115143
564.138632	0.115367
564.351760	0.115331
564.564869	0.115454
564.777960	0.115270
564.991032	0.115320
565.204087	0.115412
565.417123	0.115226
565.630141	0.115204
565.843140	0.115255
566.056122	0.115152
566.269085	0.115217
566.482030	0.115327
566.694957	0.115180
566.907866	0.115107
567.120756	0.114837
567.333628	0.115196
567.546482	0.115338
567.759318	0.115064
567.972135	0.115411
568.184935	0.115379
568.397716	0.115633
568.610478	0.115610
568.823223	0.115571
569.035949	0.115580
569.248657	0.115541
569.461347	0.115523
569.674019	0.115311
569.886672	0.114991
570.099308	0.114972
570.311925	0.115001
570.524523	0.115311
570.737104	0.115634
570.949666	0.115664
571.162210	0.115766
571.374736	0.116010
571.587244	0.116116
571.799733	0.115863
572.012205	0.115921
572.224658	0.115656
572.437092	0.115666
572.649509	0.115751
572.861907	0.115989
573.074287	0.115994
573.286649	0.115872
573.498993	0.116519
573.711318	0.116680
573.923625	0.117166
574.135914	0.117403
574.348185	0.117387
574.560438	0.117600
574.772672	0.117646
574.984888	0.117567
575.197086	0.117701
575.409266	0.117671
575.621427	0.117938
575.833570	0.117728
576.045695	0.117812
576.257802	0.118014
576.469890	0.117713
576.681961	0.117717
576.894013	0.117762
577.106046	0.117745
577.318062	0.117702
577.530059	0.117802
577.742039	0.117723
577.954000	0.117749
578.165942	0.117604
578.377867	0.117515
578.589773	0.117582
578.801661	0.117556
579.013531	0.117730
579.225382	0.117422
579.437216	0.117704
579.649031	0.118048
579.860828	0.117911
580.072606	0.118010
580.284367	0.118475
580.496109	0.118553
580.707833	0.118468
580.919539	0.118621
581.131227	0.119010
581.342896	0.118871
581.554547	0.118708
581.766180	0.119032
581.977795	0.119072
582.189391	0.118997
582.400969	0.119024
582.612529	0.119319
582.824071	0.119010
583.035595	0.118549
583.247100	0.118118
583.458587	0.118562
583.670056	0.118683
583.881506	0.118681
584.092939	0.118609
584.304353	0.118607
584.515749	0.118809
584.727127	0.119201
584.938486	0.119564
585.149828	0.119901
585.361151	0.119483
585.572456	0.119258
585.783742	0.119082
585.995011	0.119036
586.206261	0.119205
586.417493	0.119115
586.628706	0.119233
586.839902	0.119640
587.051079	0.119564
587.262238	0.119668
587.473379	0.119687
587.684502	0.120130
587.895606	0.120326
588.106692	0.120467
588.317760	0.120666
588.528810	0.120636
588.739841	0.120607
588.950855	0.121156
589.161850	0.121264
589.372827	0.122025
589.583785	0.122159
589.794726	0.122474
590.005648	0.122595
590.216552	0.122770
590.427437	0.122817
590.638305	0.122698
590.849154	0.122560
591.059985	0.122562
591.270798	0.122274
591.481592	0.122160
591.692369	0.121908
591.903127	0.121915
592.113867	0.121532
592.324588	0.121588
592.535292	0.121636
592.745977	0.121761
592.956644	0.122006
593.167293	0.122007
593.377923	0.122015
593.588536	0.122214
593.799130	0.122430
594.009706	0.122962
594.220263	0.122837
594.430803	0.122978
594.641324	0.122715
594.851827	0.122593
595.062312	0.122945
595.272778	0.123203
595.483227	0.123480
595.693657	0.123288
595.904069	0.122941
596.114462	0.123153
596.324838	0.123253
596.535195	0.123637
596.745534	0.124012
596.955855	0.124063
597.166157	0.124125
597.376441	0.124237
597.586707	0.124506
597.796955	0.125149
598.007185	0.125102
598.217396	0.124974
598.427589	0.124900
598.637764	0.124855
598.847921	0.124707
599.058060	0.124744
599.268180	0.124477
599.478282	0.124594
599.688366	0.124509
599.898431	0.125043
600.108479	0.125573
600.318508	0.125585
600.528519	0.125355
600.738511	0.125507
600.948486	0.125574
601.158442	0.125777
601.368380	0.125516
601.578300	0.125517
601.788202	0.125432
601.998085	0.125374
602.207950	0.125820
602.417797	0.126069
602.627626	0.126000
602.837436	0.126159
603.047228	0.126344
603.257002	0.126405
603.466758	0.126489
603.676496	0.126516
603.886215	0.126352
604.095916	0.126217
604.305599	0.126472
604.515264	0.126773
604.724910	0.126549
604.934538	0.126499
605.144148	0.127022
605.353740	0.127228
605.563314	0.127166
605.772869	0.127717
605.982406	0.127757
606.191925	0.127702
606.401425	0.127722
606.610908	0.127875
606.820372	0.127647
607.029818	0.127390
607.239246	0.127485
607.448655	0.127503
607.658047	0.127056
607.867420	0.127025
608.076775	0.127121
608.286111	0.126868
608.495430	0.127106
608.704730	0.127456
608.914012	0.127481
609.123275	0.127569
609.332521	0.127700
609.541748	0.127926
609.750957	0.128106
609.960148	0.128319
610.169321	0.128507
610.378475	0.128599
610.587611	0.128433
610.796729	0.128553
611.005829	0.128451
611.214910	0.128480
611.423974	0.128748
611.633019	0.128659
611.842045	0.128574
612.051054	0.128776
612.260044	0.128790
612.469017	0.129042
612.677970	0.129377
612.886906	0.129232
613.095824	0.129537
613.304723	0.129575
613.513604	0.129780
613.722467	0.129967
613.931311	0.129940
614.140138	0.129975
614.348946	0.130068
614.557736	0.129925
614.766507	0.129971
614.975261	0.130002
615.183996	0.129900
615.392713	0.129931
615.601412	0.129706
615.810092	0.129841
616.018754	0.129934
616.227399	0.129974
616.436024	0.129871
616.644632	0.129919
616.853222	0.129712
617.061793	0.129488
617.270346	0.129597
617.478880	0.129585
617.687397	0.129367
617.895895	0.129558
618.104375	0.129576
618.312837	0.129374
618.521281	0.129505
618.729706	0.129661
618.938113	0.130035
619.146502	0.130201
619.354873	0.130338
619.563226	0.130575
619.771560	0.130420
619.979876	0.130563
620.188174	0.131107
620.396453	0.131422
620.604715	0.131436
620.812958	0.131567
621.021183	0.131585
621.229390	0.131757
621.437578	0.131920
621.645748	0.131829
621.853900	0.131850
622.062034	0.132050
622.270150	0.132258
622.478247	0.132625
622.686326	0.132387
622.894387	0.132392
623.102430	0.132369
623.310454	0.132426
623.518461	0.132709
623.726449	0.132755
623.934418	0.132519
624.142370	0.132140
624.350303	0.131868
624.558218	0.132207
624.766115	0.132344
624.973994	0.132604
625.181855	0.132695
625.389697	0.132766
625.597521	0.132809
625.805327	0.132999
626.013114	0.133236
626.220883	0.133602
626.428634	0.133648
626.636367	0.133822
626.844082	0.133605
627.051778	0.133586
627.259457	0.133760
627.467117	0.133992
627.674758	0.134025
627.882382	0.134214
628.089987	0.134434
628.297574	0.134453
628.505143	0.134640
628.712694	0.134925
628.920226	0.134715
629.127740	0.134850
629.335236	0.134611
629.542714	0.134785
629.750174	0.134928
629.957615	0.134872
630.165038	0.135076
630.372443	0.134744
630.579829	0.135042
630.787198	0.135625
630.994548	0.135539
631.201880	0.135966
631.409194	0.136046
631.616489	0.136184
631.823766	0.136173
632.031025	0.136386
632.238266	0.136454
632.445489	0.136216
632.652693	0.136150
632.859879	0.136016
633.067047	0.135948
633.274197	0.135863
633.481329	0.135552
633.688442	0.135230
633.895537	0.134961
634.102614	0.135183
634.309672	0.135187
634.516713	0.135148
634.723735	0.135452
634.930739	0.135452
635.137724	0.135616
635.344692	0.135671
635.551641	0.136127
635.758572	0.136322
635.965485	0.136213
636.172379	0.136392
636.379256	0.136551
636.586114	0.136394
636.792954	0.136358
636.999775	0.136431
637.206579	0.136530
637.413364	0.136540
637.620131	0.136257
637.826880	0.136493
638.033610	0.136577
638.240323	0.136401
638.447017	0.136730
638.653692	0.136978
638.860350	0.136882
639.066990	0.137186
639.273611	0.137169
639.480214	0.137609
639.686798	0.137522
639.893365	0.137630
640.099913	0.137644
640.306443	0.137826
640.512955	0.138020
640.719449	0.138027
640.925924	0.137859
641.132381	0.137919
641.338820	0.137868
641.545241	0.138281
641.751644	0.138360
641.958028	0.138624
642.164394	0.138445
642.370742	0.138497
642.577071	0.138789
642.783383	0.138788
642.989676	0.138992
643.195951	0.139099
643.402207	0.138931
643.608446	0.138798
643.814666	0.138686
644.020868	0.138721
644.227052	0.138835
644.433218	0.139097
644.639365	0.139319
644.845494	0.139420
645.051605	0.139352
645.257698	0.139573
645.463772	0.139672
645.669828	0.140032
645.875866	0.139989
646.081886	0.139809
646.287888	0.139355
646.493871	0.139177
646.699836	0.139285
646.905783	0.139541
647.111712	0.139369
647.317622	0.139482
647.523514	0.139520
647.729388	0.139793
647.935244	0.140030
648.141082	0.140489
648.346901	0.140806
648.552702	0.140662
648.758485	0.140547
648.964250	0.140764
649.169996	0.140847
649.375724	0.141085
649.581434	0.141197
649.787126	0.141156
649.992800	0.141145
650.198455	0.141087
650.404092	0.141262
650.609711	0.141624
650.815311	0.141954
651.020894	0.142102
651.226458	0.141979
651.432004	0.142204
651.637532	0.142345
651.843041	0.142526
652.048532	0.142768
652.254006	0.142768
652.459460	0.142705
652.664897	0.142661
652.870315	0.142858
653.075716	0.143076
653.281097	0.143222
653.486461	0.143400
653.691807	0.143626
653.897134	0.143849
654.102443	0.144293
654.307734	0.144398
654.513006	0.144395
654.718261	0.144344
654.923497	0.144274
655.128715	0.144088
655.333915	0.144204
655.539096	0.144282
655.744259	0.144372
655.949404	0.144291
656.154531	0.144559
656.359640	0.144802
656.564730	0.144916
656.769802	0.145118
656.974856	0.145354
657.179892	0.145282
657.384909	0.145093
657.589908	0.144959
657.794889	0.144904
657.999852	0.144684
658.204797	0.144509
658.409723	0.144487
658.614631	0.144515
658.819521	0.144312
659.024393	0.144298
659.229246	0.144300
659.434081	0.144287
659.638898	0.144307
659.843697	0.144439
660.048478	0.144361
660.253240	0.144410
660.457984	0.144410
660.662710	0.144482
660.867417	0.144674
661.072107	0.144795
661.276778	0.144813
661.481431	0.144861
661.686066	0.144979
661.890682	0.145027
662.095281	0.145024
662.299861	0.144960
662.504422	0.145100
662.708966	0.145042
662.913491	0.145100
663.117999	0.145351
663.322488	0.145550
663.526958	0.145556
663.731411	0.145693
663.935845	0.145646
664.140261	0.145958
664.344659	0.146082
664.549038	0.146094
664.753400	0.146229
664.957743	0.146298
665.162068	0.146575
665.366375	0.146782
665.570663	0.147054
665.774933	0.147528
665.979185	0.147540
666.183419	0.147469
666.387635	0.147645
666.591832	0.147878
666.796011	0.148026
667.000172	0.147876
667.204315	0.147941
667.408439	0.148026
667.612545	0.148080
667.816634	0.148280
668.020703	0.148615
668.224755	0.148732
668.428788	0.148593
668.632803	0.148670
668.836800	0.148819
669.040779	0.148856
669.244739	0.148825
669.448681	0.148893
669.652605	0.148838
669.856511	0.149047
670.060399	0.149121
670.264268	0.149251
670.468119	0.149374
670.671952	0.149466
670.875767	0.149353
671.079563	0.149541
671.283341	0.149753
671.487101	0.149783
671.690843	0.149869
671.894567	0.150114
672.098272	0.150331
672.301959	0.150377
672.505628	0.150358
672.709278	0.150398
672.912911	0.150341
673.116525	0.150338
673.320121	0.150366
673.523699	0.150245
673.727258	0.150326
673.930799	0.150296
674.134322	0.150415
674.337827	0.150556
674.541314	0.150972
674.744782	0.151173
674.948232	0.151391
675.151664	0.151766
675.355078	0.152004
675.558474	0.152012
675.761851	0.152199
675.965210	0.152256
676.168551	0.152453
676.371873	0.152371
676.575178	0.152461
676.778464	0.152308
676.981732	0.151975
677.184981	0.151939
677.388213	0.151862
677.591426	0.152007
677.794621	0.152142
677.997798	0.151898
678.200956	0.152020
678.404097	0.152080
678.607219	0.152012
678.810323	0.152363
679.013408	0.152447
679.216476	0.152796
679.419525	0.153046
679.622556	0.153226
679.825569	0.153520
680.028563	0.153786
680.231540	0.154272
680.434498	0.154720
680.637438	0.154878
680.840359	0.155000
681.043263	0.155279
681.246148	0.155194
681.449015	0.155233
681.651864	0.155268
681.854694	0.155248
682.057506	0.155126
682.260301	0.155159
682.463076	0.155055
682.665834	0.155068
682.868573	0.155102
683.071295	0.155348
683.273998	0.155490
683.476682	0.155841
683.679349	0.156279
683.881997	0.156335
684.084627	0.156630
684.287239	0.156915
684.489833	0.157165
684.692408	0.157083
684.894965	0.156893
685.097504	0.156930
685.300025	0.156856
685.502527	0.156838
685.705012	0.156747
685.907478	0.156692
686.109925	0.156758
686.312355	0.156987
686.514766	0.157160
686.717159	0.157442
686.919534	0.157373
687.121891	0.157249
687.324230	0.157162
687.526550	0.157220
687.728852	0.157063
687.931136	0.157116
688.133401	0.156931
688.335649	0.156913
688.537878	0.156713
688.740089	0.156762
688.942281	0.157067
689.144456	0.156954
689.346612	0.157196
689.548750	0.157263
689.750870	0.157362
689.952971	0.157353
690.155055	0.157301
690.357120	0.157676
690.559167	0.157864
690.761195	0.158158
690.963206	0.158463
691.165198	0.158461
691.367172	0.158779
691.569128	0.158975
691.771065	0.159350
691.972984	0.159644
692.174885	0.159604
692.376768	0.159828
692.578633	0.159765
692.780479	0.159796
692.982308	0.159775
693.184118	0.159772
693.385909	0.159809
