sample name	sample
index	693
start time	 03-22-2021  12:31:28 PM
880	0.027125
Peak Time (s)	92.535
Peak Height 	0.02712
calc peak height	90,93
Baseline Time (s)	11.035
Baseline Value 	-0.006458
subtract baseline	10,4
Abs	0.002469
Peak Time (s)	91.538
Peak Height 	0.002469
calc peak height	90,93
Baseline Time (s)	11.536
Baseline Value 	0.006103
subtract baseline	10,3
PK_550	0.007422
Peak Time (s)	92.038
Peak Height 	0.007422
calc peak height	90,93
Baseline Time (s)	11.536
Baseline Value 	6.9225E-4
subtract baseline	10,2
PK_880	0.007989
Peak Time (s)	92.038
Peak Height 	0.007989
calc peak height	90,93
Baseline Time (s)	9.537
Baseline Value 	0.003448
subtract baseline	10,1


Time (s)	A880-A510	A880-A775	A880-A975	A880	I510	I775	I975	I880	
0.034000	-0.001131	-0.000055	-0.004339	0.003516	7363.783168	45659.261901	3970.765938	24159.864466
0.537000	-0.002938	-0.000078	-0.007322	0.005553	7324.196227	45456.929381	3957.831873	24060.213723
1.037500	-0.000187	-0.000397	-0.008214	0.004135	7367.133605	45564.685178	3959.179006	24129.517054
1.536000	-0.005999	-0.000352	-0.009480	0.007069	7277.512849	45281.861149	3948.458855	23986.359976
2.035500	-0.001017	-0.000177	-0.002058	0.001759	7383.175986	45820.492479	3981.280453	24246.171625
2.536000	-0.000862	-0.000194	0.000926	0.001156	7391.053225	45878.455865	3990.702376	24275.883702
3.036000	0.000980	0.000178	-0.000600	-0.001417	7437.220927	46170.794049	3993.464393	24403.067544
3.536500	0.000181	-0.000005	-0.004908	0.001623	7397.052597	45850.893350	3974.200929	24252.864986
4.039500	-0.000225	-0.000217	-0.002911	0.000162	7408.061195	45974.670753	3983.226607	24324.940517
4.537000	-0.001897	-0.000351	-0.006820	0.000331	7388.875696	45944.600224	3972.591441	24316.597680
5.037500	0.000557	-0.000357	-0.001027	-0.000025	7418.189829	45979.249686	3988.666882	24334.172711
5.537500	-0.001356	0.000201	-0.004660	-0.000065	7398.628875	46038.632791	3979.247059	24336.153882
6.035000	-0.001064	0.000549	-0.005458	0.000462	7396.167741	46020.766055	3975.789381	24310.088867
6.535000	-0.000260	0.000359	-0.002342	0.000094	7408.397765	46038.574819	3984.896050	24328.287855
7.035500	-0.001980	0.000173	-0.001167	-0.000039	7391.857940	46033.312220	3988.335551	24334.873861
7.536000	-0.000180	0.000575	-0.000530	0.000557	7404.406748	46014.049771	3988.443740	24305.445049
8.036000	-0.000706	-0.000195	0.000074	-0.000212	7406.937153	46013.931044	3992.062126	24343.422685
8.539000	-0.000067	-0.000234	0.003268	0.000037	7411.013894	45985.335990	3999.865764	24331.111556
9.036500	0.001332	0.000344	0.001293	0.000536	7420.431836	45993.146612	3993.305717	24306.447519
9.536500	0.000000	0.000457	-0.002925	0.000369	7408.244550	46020.941489	3982.647329	24314.706091
10.037500	-0.001168	-0.000091	0.002512	-0.000043	7400.361382	46007.536882	3998.069731	24335.080306
10.537000	0.000828	-0.000037	-0.005872	-0.000275	7423.643139	46035.802967	3976.631100	24346.518127
11.035000	0.000794	0.000707	-0.003810	0.000000	7420.411085	46082.498474	3981.298252	24332.935553
11.535500	-0.000233	0.000000	0.000000	-0.000375	7413.588025	46049.497542	3992.298333	24351.495663
12.035500	0.001030	0.000393	-0.000293	-0.000575	7428.911858	46108.439799	3992.051298	24361.367310
12.536000	0.001632	-0.000217	-0.004344	-0.000444	7433.855124	46034.768963	3981.062716	24354.895585
13.042000	0.002617	0.000399	-0.003561	0.000021	7439.323998	46049.742282	3981.893005	24331.884958
13.536500	-0.000053	-0.000187	-0.003499	0.000584	7405.442103	45935.788723	3980.584122	24304.085856
14.036500	-0.000180	-0.000035	-0.007811	0.003748	7371.218152	45638.381594	3961.206753	24148.466432
14.536500	-0.002065	-0.000204	-0.002706	0.002516	7364.451961	45743.054990	3977.608119	24208.915294
15.034500	-0.001197	-0.000369	-0.003535	-0.000192	7401.607266	45994.665757	3982.518640	24342.414442
15.535000	-0.001009	0.000499	-0.003059	0.000442	7396.950420	46017.878351	3982.106008	24311.097111
16.035500	0.001158	0.000515	-0.003283	0.000788	7415.964472	45985.121828	3980.614624	24293.999614
16.535500	-0.001017	-0.000564	0.001430	0.001459	7386.286594	45811.825027	3991.230408	24260.921298
17.036000	0.002238	0.001107	0.003407	-0.001967	7456.276581	46318.498363	4005.578171	24430.400879
17.539000	-0.000620	-0.000795	-0.003134	0.000778	7397.510662	45856.376556	3981.030940	24294.517447
18.036500	-0.001573	0.000384	0.001583	0.002007	7374.827094	45851.461347	3990.190197	24233.984638
18.537000	-0.000801	0.000388	-0.003708	0.002121	7381.647832	45840.534450	3976.028085	24228.344582
19.037000	-0.000663	0.000526	-0.000807	0.002092	7383.390518	45857.056065	3983.684390	24229.791066
19.537000	-0.000343	0.000221	-0.006166	0.001835	7389.384899	45852.329804	3970.385859	24242.413169
20.035000	-0.000363	-0.000390	-0.002421	0.001400	7393.705569	45834.916770	3981.267526	24263.845587
20.534500	-0.001389	0.000007	-0.001351	0.001452	7382.505563	45869.095190	3983.937140	24261.310962
21.035500	-0.000549	-0.000079	-0.001791	0.001120	7394.688600	45893.409097	3983.652235	24277.658580
21.535500	0.000071	0.000470	-0.005525	0.001964	7392.354100	45864.148010	3971.713969	24236.079090
22.038500	0.000577	0.000903	-0.005776	0.002499	7392.046038	45854.120497	3969.678028	24209.763805
22.535500	0.000180	0.001364	-0.001858	0.002511	7387.792069	45898.504263	3979.836700	24209.180091
23.036500	0.000036	0.000260	0.000240	0.002134	7390.221285	45826.615533	3986.322142	24227.730906
23.537000	-0.001244	0.000294	-0.002789	0.001762	7380.785803	45866.830287	3979.362684	24246.044199
24.037000	-0.001168	0.000349	0.002214	0.002139	7377.656321	45834.910838	3991.505914	24227.467431
24.537500	-0.000228	0.000177	-0.007031	0.001650	7392.511170	45866.259012	3968.627679	24251.523749
25.034500	0.001200	0.000310	-0.001999	0.002189	7401.777725	45826.128395	3980.308237	24225.014293
25.535000	-0.000634	0.000467	0.000365	0.002333	7381.186159	45827.435448	3986.127403	24217.939661
26.035500	-0.000148	-0.000169	0.001054	0.001709	7392.726640	45826.177706	3989.578919	24248.628643
26.538500	-0.002550	-0.000302	-0.004414	0.001724	7367.636089	45811.582557	3975.223409	24247.896447
27.036000	0.000332	0.000382	-0.004901	-0.000491	7420.714947	46098.950802	3979.729561	24357.222504
27.536500	0.001219	0.001139	-0.000590	0.000849	7415.969364	46040.950978	3987.516606	24290.994466
28.037000	0.002243	0.001024	0.001490	0.001292	7422.053669	45985.608472	3991.828603	24269.162127
28.537000	-0.000545	-0.000098	-0.001042	0.002116	7384.359565	45793.022817	3983.003310	24228.591752
29.037000	-0.003806	0.000605	-0.001472	0.005485	7315.995857	45530.554897	3973.095650	24063.531946
29.537500	0.001375	0.000674	0.001256	0.001208	7413.846678	45959.270960	3991.433186	24273.313311
30.035000	-0.000470	0.000389	-0.004110	0.000953	7397.250330	45956.280075	3978.025553	24285.882805
30.535000	-0.000939	0.000017	-0.004016	0.003402	7366.943382	45677.565658	3971.898638	24165.437082
31.038000	-0.003385	0.000072	-0.002380	0.004277	7332.700163	45596.850082	3973.872680	24122.550021
31.536000	0.001846	0.000913	-0.006739	0.001758	7413.023681	45928.452550	3969.103708	24246.215992
32.036000	0.001187	0.001043	0.001244	0.001692	7406.830529	45947.836802	3990.127160	24249.476222
32.536500	-0.001335	-0.000066	-0.000824	0.000597	7391.940848	45946.477692	3987.563789	24303.430853
33.037000	-0.001636	0.000001	-0.002772	0.004089	7352.642304	45608.366565	3973.345921	24131.782483
33.537000	0.001140	0.000371	0.000335	-0.001050	7435.059555	46153.469382	3994.968103	24384.901794
34.037500	-0.000025	0.000316	0.001272	0.001763	7393.445582	45868.824704	3990.010330	24245.952724
34.537500	0.000095	0.000096	-0.004432	0.002799	7383.915235	45744.702218	3972.382190	24195.013712
35.035000	-0.001408	0.000039	-0.001678	0.003628	7359.759986	45657.496642	3977.391140	24154.369549
35.538000	0.000271	0.000743	-0.000684	0.002612	7387.689992	45827.145041	3982.641924	24204.227499
36.036000	-0.002875	0.000633	-0.003381	0.002696	7354.221596	45807.889293	3975.381415	24200.069000
36.536000	-0.000125	0.000173	-0.003802	0.002718	7382.470483	45760.296709	3974.229555	24199.001648
37.036500	-0.001080	0.000165	-0.002371	0.002721	7372.538000	45759.236173	3977.949899	24198.859099
37.536500	-0.001994	0.000833	-0.002559	0.003021	7359.981583	45795.638259	3976.678059	24184.157765
38.037000	0.000703	0.001002	0.001149	0.003441	7383.571698	45770.851002	3985.277421	24163.547325
38.537500	-0.000380	0.000467	-0.002303	0.003235	7374.457025	45738.280609	3976.784372	24173.611195
39.037500	0.000800	0.001083	0.003156	0.003331	7385.717162	45789.673245	3990.846335	24168.942739
39.535000	-0.000784	0.000310	-0.005006	0.002885	7373.900636	45757.344368	3970.672485	24190.798541
40.038000	0.001027	0.000816	-0.002651	0.003211	7389.334799	45775.239193	3975.944839	24174.833607
40.535500	0.000657	0.000723	0.001621	0.003194	7385.655055	45767.642550	3987.164688	24175.651291
41.035500	-0.002632	0.000127	-0.002181	0.002638	7357.343963	45763.706908	3978.661774	24202.949731
41.536000	-0.000292	0.000764	-0.005352	0.003138	7376.379211	45777.169285	3969.120767	24178.379575
42.036500	-0.000797	0.000469	-0.004014	0.003041	7372.151083	45757.627745	3972.839457	24183.133191
42.536500	-0.000852	-0.000550	-0.004627	0.002394	7378.300459	45721.071720	3972.929090	24214.950941
43.037000	-0.002347	0.000742	-0.001182	0.004918	7336.773692	45599.675218	3975.321614	24091.203866
43.537000	-0.000077	-0.000453	-0.002356	0.002048	7389.941634	45764.656939	3979.744813	24231.937500
44.034500	0.002168	0.000471	0.003349	-0.002363	7459.716595	46294.435715	4006.481946	24450.065581
44.538000	0.001675	0.000904	-0.001925	0.002305	7405.514288	45873.350097	3980.198843	24219.300145
45.035500	-0.001948	0.001496	-0.001747	0.006799	7321.563992	45489.010019	3968.974260	23999.472995
45.536000	0.000514	0.000805	0.000900	0.001641	7400.333120	45929.310643	3989.353677	24251.962867
46.036000	0.000613	0.000684	-0.003195	0.001169	7406.293410	45964.114683	3979.849851	24275.248823
46.536500	-0.000855	0.000680	-0.001157	0.005239	7348.840027	45562.088211	3974.553536	24075.561223
47.036500	-0.004305	0.000008	-0.000469	0.005956	7306.083188	45425.928908	3974.479069	24040.561148
47.539000	0.000051	0.000491	-0.001459	0.004663	7364.141034	45600.085579	3975.264877	24103.696144
48.037000	0.000410	0.000530	0.000679	0.001944	7396.089280	45872.108120	3987.973563	24237.059869
48.537000	-0.001848	-0.000022	-0.004060	0.003976	7351.615547	45617.191140	3970.295693	24137.306644
49.038000	-0.001826	0.000452	0.003821	0.006659	7324.257939	45400.509292	3983.843669	24006.303162
49.535000	0.003589	0.000823	0.002889	-0.000939	7459.687197	46187.517704	4001.452943	24379.396559
50.035500	0.001696	0.000484	-0.000029	-0.000308	7433.105154	46090.964874	3992.045669	24348.179005
50.535500	-0.001738	0.000163	-0.001079	0.006404	7327.764111	45397.183450	3971.728016	24018.703032
51.036000	-0.073283	-0.019551	-0.003610	0.408285	4369.781227	19001.125194	3289.188226	11251.194482
51.536500	-0.057455	-0.014774	-0.029298	0.027438	6605.938643	42019.533819	3850.955932	23018.700893
52.039500	-0.063569	-0.114149	-0.034058	-0.276383	10283.189909	65535.000000	4847.545768	43430.327009
52.537000	-0.054309	-0.187249	-0.016866	-0.349482	11830.818264	65535.000000	5310.261002	50866.143268
53.037000	-0.068845	-0.148476	-0.019331	-0.310710	10795.932197	65535.000000	5086.974724	46766.652040
53.537500	-0.060073	-0.138946	-0.007815	-0.301180	10782.116013	65535.000000	5097.248659	45813.796476
54.035000	-0.050166	-0.103139	-0.017119	-0.265373	10324.150801	65535.000000	4875.065541	42414.900457
54.535500	-0.027047	-0.106648	-0.020122	-0.268881	10795.375117	65535.000000	4877.429750	42735.700187
55.035500	-0.019229	-0.091130	-0.017741	-0.253364	10656.131229	65535.000000	4816.881830	41336.324895
55.536000	-0.012900	-0.068713	-0.008642	-0.228392	10329.042978	65167.635734	4746.124303	39186.719041
56.036000	-0.011428	-0.043036	-0.009251	-0.191567	9746.046318	63589.780386	4589.142434	36234.045433
56.538500	-0.009047	-0.020889	-0.006147	-0.144610	9075.473523	60220.291311	4421.653971	32814.521744
57.036500	-0.014878	-0.011231	-0.012351	-0.092172	8296.546411	54843.636042	4222.542796	29408.301787
57.537000	-0.020427	-0.011591	-0.010000	-0.072045	7985.120441	52450.411439	4167.307665	28206.341654
58.040000	-0.014451	-0.008694	-0.010684	-0.056149	7869.651160	50989.480522	4117.789279	27295.634736
58.534500	-0.012269	-0.005239	-0.008465	-0.035070	7656.845993	49077.305438	4063.709002	26138.287242
59.035000	-0.017747	-0.003991	-0.013356	-0.007846	7309.757645	46396.558818	3976.857168	24724.242831
59.535500	-0.012452	-0.002280	-0.013358	0.003641	7246.935440	45428.472353	3947.316016	24153.706213
60.035500	-0.013786	-0.002030	-0.008620	0.016805	7103.292076	44182.703607	3926.140876	23518.177984
60.536000	-0.011200	-0.001496	-0.008934	0.027520	7024.818806	43226.293477	3899.037021	23014.891693
61.036000	-0.009852	-0.000695	-0.009306	0.033837	6977.570442	42717.403743	3882.931301	22723.932580
61.536500	-0.006432	0.001867	-0.009475	0.036205	6987.526788	42735.109858	3876.886067	22615.958169
62.036500	0.000185	0.004322	-0.009322	0.033328	7078.502077	43227.252535	3884.110135	22747.258298
62.540000	-0.003766	0.003564	-0.010349	0.032460	7048.739611	43237.437356	3883.729435	22787.005879
63.037500	-0.003983	0.003305	-0.010354	0.032621	7045.105422	43198.387600	3883.331005	22779.611880
63.543500	-0.001282	0.003073	-0.007475	0.024599	7149.435667	43927.702965	3909.719972	23150.870901
64.035000	-0.000650	0.003297	-0.011628	0.022796	7173.476930	44119.583750	3903.974205	23235.242218
64.538500	0.000537	0.002701	-0.005412	0.021420	7198.943726	44193.715484	3922.644208	23299.871471
65.035500	0.000499	0.004044	-0.006325	0.022047	7192.331640	44261.873963	3918.830928	23270.426055
65.536500	0.001778	0.004002	-0.005873	0.021150	7214.026002	44343.329053	3922.171466	23312.588357
66.036500	0.002225	0.005041	-0.009311	0.021573	7214.266720	44402.214620	3912.640529	23292.702019
66.537000	0.000674	0.005054	-0.001781	0.022147	7193.071730	44348.545912	3929.872339	23265.703035
67.040000	-0.001000	0.004664	-0.008600	0.026224	7136.229726	43924.517695	3903.000199	23075.124236
67.537500	0.001129	0.005499	-0.001811	0.021810	7200.959146	44423.266846	3930.640039	23281.561058
68.037500	0.002810	0.005643	-0.003444	0.022900	7206.851302	44332.991906	3923.855868	23230.387838
68.535500	0.001483	0.005535	-0.003889	0.023219	7190.458912	44292.201885	3921.960202	23215.425252
69.035500	0.003379	0.006023	-0.005418	0.026548	7176.230957	44022.315705	3909.984290	23060.036880
69.536000	0.003864	0.006514	-0.003721	0.025118	7195.247530	44204.656169	3917.677795	23126.642461
70.036000	0.005688	0.006630	-0.002501	0.026326	7201.386629	44100.973711	3917.708366	23070.369427
70.536000	0.004953	0.006099	-0.004101	0.026244	7194.881413	44058.327262	3913.964285	23074.161627
71.036500	0.000787	0.006202	-0.008399	0.031433	7102.755204	43579.236326	3890.872289	22834.183945
71.540000	0.007282	0.006870	-0.001070	0.027265	7207.913633	44034.634691	3918.921541	23026.709737
72.034500	0.006499	0.007013	-0.006793	0.026621	7206.530641	44109.287509	3906.439234	23056.646490
72.537500	0.006786	0.007746	-0.004270	0.026742	7208.194866	44167.386688	3912.326326	23051.023581
73.038000	0.003582	0.007312	-0.002009	0.027909	7164.767604	44015.558314	3915.018095	22996.872434
73.535500	0.007571	0.007393	-0.001287	0.026474	7218.721287	44159.324496	3920.344173	23063.498018
74.035500	0.006659	0.007411	-0.001642	0.026310	7211.232448	44176.576652	3919.869400	23071.100654
74.536000	0.006634	0.007647	-0.004799	0.027070	7203.399825	44126.864021	3910.221409	23035.775408
75.036000	0.005796	0.006661	-0.007396	0.029656	7169.383391	43789.164830	3897.588775	22916.055716
75.536000	0.006943	0.007959	0.001792	0.026319	7213.985981	44227.920546	3928.378098	23070.709547
76.039000	0.008793	0.007994	-0.006329	0.026525	7230.454066	44211.583136	3907.808831	23061.122821
76.537000	0.008280	0.007850	-0.007663	0.028169	7208.863313	44041.904890	3900.548011	22984.823099
77.088500	0.005642	0.007622	-0.006178	0.030688	7157.664793	43782.466180	3898.038209	22868.464012
78.493000	0.007330	0.007932	-0.006343	0.029516	7185.972328	43922.211409	3900.481979	22922.484937
78.639500	0.009394	0.008325	0.001807	0.027936	7222.325041	44108.960151	3924.390287	22995.587119
78.736000	0.008957	0.009079	-0.002077	0.028679	7210.528872	44110.102957	3912.954130	22961.213262
79.039000	0.008169	0.008360	-0.000641	0.029137	7198.099336	43998.594166	3915.362508	22940.034727
79.536000	0.008099	0.008034	-0.000434	0.027309	7215.648724	44140.911314	3920.385641	23024.679990
80.037000	0.009405	0.008607	0.000788	0.028229	7219.504559	44107.956928	3921.134647	22982.035676
80.539500	0.008234	0.008442	-0.001622	0.028931	7200.796049	44025.746229	3913.453312	22949.518458
81.037000	0.004639	0.007325	-0.004779	0.029768	7156.843278	43841.156756	3903.673601	22910.852939
81.540000	0.009536	0.008116	-0.000765	0.026682	7236.340193	44208.324641	3921.120446	23053.825110
82.037500	0.009618	0.007818	0.000563	0.026241	7241.599624	44221.922443	3925.511333	23074.328425
82.537500	0.007716	0.008897	-0.000555	0.028802	7196.916893	44081.076302	3916.397383	22955.491056
83.035000	0.009167	0.008149	-0.001065	0.029912	7200.321333	43905.290860	3912.411070	22904.235290
83.536000	0.009708	0.008262	-0.000056	0.027132	7233.543082	44179.350317	3921.761400	23032.890284
84.035500	0.009938	0.008345	0.004298	0.026692	7240.278096	44229.103635	3933.709133	23053.330039
84.536000	0.010807	0.008449	-0.002292	0.028862	7227.217911	44032.996525	3911.976887	22952.740722
85.039000	0.007221	0.007134	-0.002452	0.029276	7187.289755	43869.555081	3910.567096	22933.612425
85.539000	0.009315	0.007959	-0.002059	0.026717	7233.767100	44189.931711	3917.831737	23052.167667
86.037000	0.008774	0.007254	-0.001102	0.026125	7234.284060	44179.229650	3921.666655	23079.720050
86.537000	0.008339	0.008495	-0.000442	0.028378	7207.366385	44083.277685	3917.724754	22975.151482
87.037500	0.009026	0.007137	-0.001798	0.026044	7237.631829	44175.822069	3920.143787	23083.499678
87.535000	0.008193	0.006958	0.005055	0.026075	7228.945774	44155.904171	3937.160339	23082.052981
88.038500	0.007304	0.007368	0.003204	0.026457	7216.221368	44158.605454	3931.560338	23064.291362
88.535500	0.008241	0.007757	0.002138	0.026838	7221.785995	44159.295052	3927.946910	23046.565510
89.036000	0.007392	0.007203	-0.000093	0.026136	7220.299443	44173.332550	3924.140550	23079.181093
89.539000	0.006809	0.007104	-0.005610	0.026218	7213.656773	44156.182036	3910.321869	23075.372795
90.036500	0.006302	0.006665	0.000881	0.026240	7208.366017	44112.375422	3926.305646	23074.354927
90.537000	0.006900	0.006671	-0.003960	0.026086	7215.886774	44127.637464	3914.701345	23081.535684
91.037000	0.007026	0.006289	-0.004832	0.025918	7218.819808	44107.262147	3912.969089	23089.338808
91.537500	0.007227	0.006647	0.002469	0.026324	7216.770444	44102.696727	3930.055890	23070.447423
92.038000	0.007989	0.007422	-0.000749	0.026689	7220.754890	44141.638175	3921.143959	23053.490368
92.535000	0.006549	0.005825	-0.001373	0.027125	7202.001418	43949.094415	3918.520254	23033.228753
93.035500	0.005290	0.006204	-0.003356	0.027500	7185.747964	43949.428036	3912.708455	23015.841401
93.535500	0.006451	0.005142	0.004797	0.025187	7220.382844	44067.816148	3938.744368	23123.406145
94.038500	0.006058	0.007339	0.001139	0.026717	7201.171949	44131.105232	3925.758231	23052.166583
94.536000	0.005599	0.005447	-0.003199	0.026406	7199.707087	43981.309856	3915.787757	23066.648091
95.036500	0.005002	0.005992	0.000766	0.028271	7175.227324	43856.622651	3920.974387	22980.067169
95.537000	0.006482	0.006473	0.005479	0.026475	7207.820449	44071.897452	3937.222034	23063.449496
96.036500	0.004276	0.005611	-0.000084	0.026063	7189.944422	44029.330801	3924.346254	23082.610253
