sample name	sample
index	802
start time	 03-31-2021  02:50:34 PM
880	0.449265
Peak Time (s)	92.035
Peak Height 	0.4493
calc peak height	90,93
Baseline Time (s)	10.037
Baseline Value 	0.02247
subtract baseline	10,4
Abs	0.293293
Peak Time (s)	92.536
Peak Height 	0.2933
calc peak height	90,93
Baseline Time (s)	11.038
Baseline Value 	0.006419
subtract baseline	10,3
PK_550	0.162411
Peak Time (s)	91.535
Peak Height 	0.1624
calc peak height	90,93
Baseline Time (s)	10.037
Baseline Value 	0.002552
subtract baseline	10,2
PK_880	0.276277
Peak Time (s)	91.04
Peak Height 	0.2763
calc peak height	90,93
Baseline Time (s)	10.037
Baseline Value 	0.003852
subtract baseline	10,1


Time (s)	A880-A510	A880-A775	A880-A975	A880	I510	I775	I975	I880	
0.034000	-0.002172	-0.002147	-0.006439	-0.025632	7552.750240	48018.381327	4262.532862	26021.959347
0.534500	-0.003557	-0.002552	-0.003410	-0.027701	7559.695240	48190.480153	4276.058753	26131.258482
1.035000	-0.000854	-0.002089	-0.005156	-0.027951	7589.821995	48264.430098	4272.072079	26144.456746
1.536500	-0.004624	-0.002529	-0.011033	-0.025865	7530.285254	48003.022531	4251.090094	26034.256156
2.036000	-0.002479	-0.002872	-0.002041	-0.027975	7573.462263	48185.703610	4280.453343	26145.748529
2.536000	-0.002418	-0.002025	-0.001583	-0.026137	7555.377090	48083.061510	4276.761024	26048.561541
3.036500	-0.001361	-0.002492	-0.002370	-0.027538	7580.406819	48179.817332	4278.401772	26122.598751
3.539500	-0.003043	-0.001282	-0.007847	-0.019160	7478.822942	47443.080887	4241.935571	25683.412258
4.037000	-0.000709	-0.001645	0.001251	-0.020566	7516.320796	47549.529027	4269.475571	25756.552796
4.537500	0.000486	-0.000220	-0.001816	-0.017917	7501.711260	47424.662853	4254.406155	25619.011616
5.037500	-0.000416	-0.001957	0.001297	-0.017540	7488.897178	47209.856750	4261.595968	25599.499069
5.535000	-0.001878	-0.001994	-0.007434	-0.011723	7416.680351	46620.169353	4223.887226	25300.603090
6.035500	-0.001462	-0.001411	-0.000438	-0.013451	7437.823117	46852.043370	4246.346307	25388.965536
6.536000	0.000437	-0.000783	-0.002755	-0.011392	7436.237155	46708.371012	4235.025482	25283.719677
7.036000	-0.000977	-0.001568	-0.001080	-0.010386	7412.392538	46529.178978	4236.747289	25232.467492
7.536000	-0.004081	-0.000502	0.000065	-0.003301	7313.412833	45932.453250	4221.538648	24874.930500
8.039000	-0.000446	-0.000468	-0.000020	-0.006014	7374.809850	46203.793261	4228.242585	25011.176133
8.537000	0.000377	-0.000379	0.001284	-0.004578	7368.845707	46070.544110	4227.903440	24938.956426
9.037000	0.001323	0.000074	-0.000866	-0.002695	7359.740865	45929.533191	4217.636269	24844.635337
9.537500	-0.000108	0.000425	-0.000829	-0.001222	7331.641982	45819.247462	4214.005042	24771.142772
10.037500	0.000000	0.000000	0.001273	0.000000	7320.913530	45657.814222	4216.226858	24710.335925
10.535000	-0.002110	-0.000285	0.002926	0.000562	7295.294556	45575.009453	4218.992783	24682.412559
11.038000	-0.000263	0.001015	0.000000	0.003358	7286.238135	45429.227631	4204.569882	24544.182686
11.536000	0.000154	-0.000161	-0.003909	0.003444	7289.394050	45306.650512	4194.609410	24539.921620
12.036000	-0.001834	0.000208	0.003362	0.004472	7260.701426	45242.725773	4210.211300	24489.309454
12.536500	-0.000135	-0.000260	0.002170	0.005742	7264.776091	45074.725829	4204.035395	24426.990096
13.039500	-0.000233	0.000825	0.001823	0.008285	7239.797006	44934.340440	4196.825820	24302.694112
13.537500	-0.000764	-0.000101	0.000713	0.008862	7229.356407	44790.084594	4192.638760	24274.575047
14.037000	-0.001722	0.001293	-0.001395	0.011854	7192.367115	44637.247888	4180.081022	24129.464079
14.534500	-0.000092	0.000910	0.000927	0.013033	7196.568761	44488.355357	4182.881892	24072.526923
15.035000	-0.003459	0.000720	-0.006351	0.012463	7170.558620	44524.486299	4166.544011	24100.021130
15.535000	-0.001116	0.000528	0.003745	0.012926	7188.031277	44462.261908	4190.085528	24077.702090
16.035500	-0.001893	0.001108	0.002813	0.014027	7170.579125	44412.672819	4185.072379	24024.670330
16.536000	-0.000467	0.001289	-0.002017	0.015384	7171.220199	44301.203231	4169.965626	23959.516655
17.036500	0.003663	0.001304	0.003284	0.012723	7234.686641	44555.456871	4189.449307	24087.495741
17.535500	-0.004097	-0.000288	-0.000390	0.015819	7133.701891	44111.178966	4172.860328	23938.673519
18.036500	-0.002333	0.000776	-0.001246	0.017908	7130.709024	44014.599237	4165.723860	23838.823609
18.537000	-0.000943	0.001567	-0.003109	0.018979	7133.640625	43988.277765	4158.663134	23787.854574
19.037500	-0.004225	0.000304	-0.004065	0.018706	7106.096648	43895.300828	4157.026294	23800.824770
19.537500	-0.004242	0.000822	0.002611	0.020358	7090.892432	43789.184239	4169.125491	23722.364293
20.035000	-0.002937	0.000875	-0.003061	0.021093	7096.077503	43725.403807	4153.718806	23687.556045
20.535000	-0.001513	0.000691	-0.005442	0.021365	7106.571266	43682.836240	4147.404141	23674.677325
21.035500	-0.003034	0.000507	-0.003021	0.021742	7089.291154	43630.542993	4152.264690	23656.850855
21.536000	-0.001861	0.000674	-0.000685	0.022896	7089.471642	43538.776813	4155.087421	23602.409371
22.039000	-0.004052	0.000536	-0.005399	0.022952	7069.102811	43520.672844	4143.747505	23599.755385
22.536500	-0.002274	0.001537	-0.002292	0.023852	7077.045911	43530.053935	4148.979442	23557.394100
23.037000	-0.000635	0.000694	-0.002716	0.024211	7088.661097	43418.554794	4147.121491	23540.542665
23.537000	-0.002768	-0.000202	-0.000223	0.024321	7068.340735	43325.431719	4152.789193	23535.376823
24.037500	-0.002798	0.000503	0.001196	0.025364	7058.656727	43294.202949	4153.684550	23486.434709
24.535000	-0.004102	0.000449	-0.003243	0.025721	7043.719119	43256.312754	4142.301205	23469.729917
25.035000	-0.003217	0.000337	-0.003975	0.026590	7043.856475	43165.800250	4138.528050	23429.069028
25.535500	-0.004095	0.000104	-0.005209	0.026854	7033.615783	43120.122286	4135.009521	23416.740813
26.035500	-0.003812	0.001503	-0.001250	0.028458	7021.806323	43101.249982	4140.545435	23341.966089
26.539000	-0.004545	0.000277	0.001781	0.027844	7020.743004	43045.035265	4149.172839	23370.575834
27.036000	-0.002527	0.000243	0.003944	0.024978	7064.579813	43305.800200	4161.192319	23504.519545
27.537000	-0.001982	0.000469	0.000606	0.027940	7042.828730	43053.882381	4146.157537	23366.108590
28.036500	-0.003752	0.000673	0.002133	0.029015	7017.369345	42973.908168	4147.225548	23316.069285
28.537500	-0.004605	0.000347	0.002557	0.029076	7009.226881	42938.482150	4148.088663	23313.230637
29.034000	-0.002804	0.000544	0.004182	0.030225	7015.031140	42851.423700	4149.218593	23259.926137
29.535000	-0.002340	0.000664	-0.001185	0.030569	7016.106020	42830.964776	4135.734100	23244.006478
30.035000	-0.005742	0.000340	-0.000662	0.030432	6987.102716	42813.853942	4137.282272	23250.326267
30.535500	-0.005551	-0.000318	-0.002218	0.032192	6973.243941	42593.759788	4129.522959	23168.978566
31.036000	-0.003694	0.000788	0.005085	0.033307	6979.796836	42593.045086	4144.053825	23117.639114
31.536000	-0.004381	0.000814	0.004894	0.032588	6980.079353	42660.710770	4145.303579	23150.745011
32.037000	-0.003246	-0.000155	0.004971	0.032402	6991.752891	42589.500560	4145.924703	23159.297088
32.536500	-0.005204	0.000520	0.003097	0.032931	6969.789352	42602.867922	4140.250012	23134.953496
33.037000	-0.001843	0.000975	0.002674	0.034026	6989.808866	42544.729633	4136.679343	23084.592563
33.537500	-0.005740	0.000326	-0.002166	0.035629	6941.411607	42341.135507	4121.663720	23011.093560
34.035000	-0.004661	0.000253	-0.002983	0.035300	6953.738720	42364.188101	4120.533206	23026.136610
34.535500	-0.003988	0.000045	-0.001467	0.035402	6958.754468	42336.310753	4123.808005	23021.494632
35.035000	-0.003430	0.000025	-0.002592	0.035917	6959.128144	42288.054223	4120.011628	22997.900169
35.535500	-0.005902	0.000195	-0.005658	0.037464	6923.988161	42164.222511	4109.414022	22927.278705
36.036000	-0.005138	0.000354	-0.003970	0.036416	6939.796889	42272.820398	4115.686393	22975.122153
36.536000	-0.004250	0.000712	0.005179	0.037248	6940.286379	42230.105961	4134.997196	22937.153331
37.037000	-0.004258	0.001007	-0.000459	0.037767	6935.681314	42210.006421	4120.666113	22913.494857
37.537000	-0.005419	0.000434	-0.004434	0.038421	6919.862308	42099.844656	4110.026729	22883.744485
38.037500	-0.005096	0.000160	-0.004520	0.038102	6925.454159	42103.889393	4110.558893	22898.249724
38.537500	-0.005608	0.000108	0.000976	0.038294	6919.324003	42082.035012	4122.765918	22889.508836
39.035000	-0.004474	0.000351	-0.000613	0.038725	6925.436718	42065.170291	4118.099953	22869.911970
39.535500	-0.003040	0.001026	-0.001460	0.040062	6926.287136	42005.904888	4113.077715	22809.246893
40.035500	-0.004083	0.000469	-0.003017	0.039695	6920.397649	41988.872990	4110.351605	22825.865418
40.538500	-0.002533	0.000222	-0.000934	0.039618	6934.576145	41973.759521	4115.305848	22829.381783
41.035500	-0.004332	0.000255	0.000926	0.040094	6914.771410	41934.210580	4118.491015	22807.816769
41.536000	-0.005802	-0.000354	-0.000385	0.040217	6900.969060	41868.966300	4115.191342	22802.237746
42.036500	-0.004860	0.000925	0.001456	0.040873	6903.439680	41924.481732	4117.918502	22772.561734
42.536500	-0.005530	0.000099	-0.000958	0.040631	6899.737851	41872.355936	4112.924375	22783.492523
43.040000	-0.006350	0.000128	0.002941	0.040592	6892.994882	41878.498418	4121.997082	22785.271037
43.535000	-0.003927	-0.000929	-0.000055	0.038975	6928.029476	41928.393259	4118.808678	22858.555690
44.035000	-0.001718	0.000071	0.003946	0.040131	6937.214853	41914.495033	4125.393823	22806.123980
44.535500	-0.005076	-0.000563	0.002477	0.039677	6911.927756	41898.363563	4123.039547	22826.680063
45.035500	-0.004401	0.000737	0.000231	0.040925	6906.964430	41903.077904	4114.979096	22770.196040
45.536000	-0.003639	0.000829	0.000821	0.041648	6907.301395	41846.797232	4114.672622	22737.524029
46.036000	-0.001385	0.000275	0.000076	0.041956	6924.203681	41770.142891	4112.257788	22723.657038
46.536500	-0.004940	0.000202	0.000278	0.041209	6899.839138	41830.057244	4114.433179	22757.349901
47.037000	-0.006490	-0.000162	0.000323	0.042685	6873.765112	41666.658865	4111.154093	22690.802252
47.537500	-0.005788	-0.000247	-0.002196	0.043268	6874.781987	41607.518505	4104.077513	22664.557240
48.037500	-0.002826	0.000431	0.007130	0.042546	6906.572176	41731.610614	4127.180853	22697.062062
48.540000	-0.005514	0.000318	-0.000908	0.042299	6885.472889	41743.470385	4109.219730	22708.164284
49.035500	-0.005312	0.000588	-0.002851	0.042621	6884.436843	41738.891178	4104.057820	22693.652784
49.538500	-0.000531	0.000103	0.002149	0.039583	6952.395155	41966.293580	4122.497537	22830.970342
50.036000	-0.002095	0.000251	0.002622	0.039714	6937.560169	41967.796978	4123.290713	22825.017083
50.536500	0.000456	0.001586	0.003265	0.018471	7151.194707	44037.783889	4175.299812	23811.994487
51.036000	0.002624	-0.002443	0.002633	-0.018407	7528.159258	47248.444143	4267.417011	25644.394078
51.536500	-0.011649	0.009863	0.011719	0.238240	5493.482493	28284.633530	3767.573947	15601.312177
52.037500	-0.039313	-0.005298	0.005840	0.021737	6773.170294	43093.973355	4173.618423	23657.124977
52.537000	-0.040174	-0.022556	0.005751	-0.129408	8273.658094	57508.076783	4613.144368	32199.237241
53.035000	-0.040069	-0.118166	0.003147	-0.284861	10483.128819	65535.000000	5244.258848	44707.423791
53.535000	-0.035816	-0.134852	0.010328	-0.301547	10845.633197	65535.000000	5364.439260	46335.692117
54.035500	-0.022079	-0.109929	0.022821	-0.276623	10649.800179	65535.000000	5301.023836	43926.328136
54.535500	-0.005656	-0.073278	0.036432	-0.238897	10290.501915	65380.758920	5183.052914	40532.520279
55.036500	0.009211	-0.027031	0.042392	-0.173949	9512.157527	62759.045103	4920.661031	35338.124223
55.536000	0.030118	-0.017881	0.046226	-0.166646	9714.779563	63012.961496	4906.311013	34801.136888
56.036500	0.050054	-0.001286	0.062285	-0.139475	9606.223166	61573.341626	4861.105020	32880.727367
56.537000	0.064985	0.017975	0.083787	-0.094689	9176.908185	58239.987065	4770.063113	29966.251709
57.037000	0.085895	0.035366	0.099716	-0.032057	8624.327862	52792.628168	4601.522492	26363.065096
57.534500	0.100845	0.049897	0.116204	0.030568	8054.568072	47591.299914	4451.902799	23244.047812
58.034500	0.122630	0.062546	0.134659	0.081640	7734.343792	43830.566171	4355.323549	21013.192049
58.535000	0.142128	0.075096	0.148369	0.134052	7399.317678	40265.163018	4249.744856	18980.856933
59.038500	0.158587	0.087984	0.175727	0.181717	7104.271697	37410.821846	4197.996012	17333.891034
59.538000	0.171148	0.095319	0.182880	0.223691	6844.950202	34786.343410	4114.708548	16025.940183
60.035500	0.183250	0.101803	0.205962	0.252071	6708.806398	33232.118029	4102.612948	15210.580463
60.536500	0.195762	0.110777	0.215165	0.279379	6589.403709	31989.718558	4062.369461	14474.758401
61.036500	0.205233	0.116395	0.222998	0.300599	6497.447762	30972.910417	4033.673849	13934.066937
61.537000	0.222433	0.128981	0.224545	0.320198	6478.976708	30527.670268	3996.353398	13457.617437
62.037500	0.236211	0.132365	0.239733	0.331675	6496.691615	30022.668770	4003.898210	13188.432275
62.537000	0.237664	0.135934	0.243054	0.336328	6472.074990	29955.715115	4001.182996	13081.304870
63.037500	0.244997	0.137675	0.243518	0.342792	6478.739251	29666.080374	3989.050060	12934.373037
63.538000	0.245300	0.140397	0.247642	0.346858	6449.971822	29584.154774	3989.167337	12843.063321
64.035500	0.251188	0.143145	0.252654	0.353745	6442.378880	29333.770822	3985.410863	12690.369452
64.536000	0.254287	0.144955	0.251928	0.360157	6417.311847	29057.997576	3971.253105	12550.337602
65.036000	0.254477	0.146121	0.257513	0.365017	6382.306058	28838.767760	3972.681676	12445.583652
65.536500	0.256904	0.147894	0.252762	0.372521	6344.669861	28502.400177	3948.874120	12286.119206
66.037000	0.260198	0.148696	0.256786	0.374872	6351.629882	28412.192253	3952.085211	12236.719926
66.537000	0.260499	0.150781	0.262374	0.380883	6309.726277	28185.063100	3951.270466	12111.626657
67.037500	0.261962	0.151577	0.262711	0.385242	6288.693494	27980.719976	3943.581626	12021.995861
67.538000	0.266107	0.153059	0.258015	0.391757	6271.576924	27694.937289	3922.516482	11889.695034
68.038000	0.267077	0.154388	0.264591	0.394230	6260.770258	27630.396268	3930.160928	11839.978373
68.535500	0.269058	0.155338	0.265697	0.395593	6265.212671	27607.197774	3929.681576	11812.722979
69.035500	0.271279	0.157528	0.267414	0.398955	6257.017588	27541.350432	3926.609400	11745.811931
69.536000	0.269503	0.157890	0.271438	0.401229	6228.126045	27434.340300	3929.877899	11700.854598
70.036500	0.273848	0.158812	0.270968	0.405376	6229.534383	27254.851615	3921.281222	11619.455245
70.537000	0.274682	0.158956	0.276300	0.407647	6219.334453	27137.157202	3926.970631	11575.207273
71.036500	0.275534	0.158328	0.278059	0.408587	6218.711709	27050.818746	3928.499816	11556.962620
71.537000	0.276669	0.160896	0.275021	0.412133	6201.698996	26997.117207	3916.291071	11488.496916
72.034500	0.275910	0.160593	0.273676	0.412181	6196.020531	26977.894126	3913.730023	11487.571273
72.535500	0.276418	0.161467	0.273219	0.413728	6188.727251	26941.042072	3910.063783	11457.879589
73.035500	0.278142	0.162700	0.290679	0.414293	6196.866305	26977.630763	3941.522395	11447.059768
73.535500	0.279002	0.161884	0.284909	0.414869	6198.858059	26901.472037	3929.562491	11436.044302
74.035500	0.276326	0.161765	0.281465	0.414744	6180.970569	26901.758856	3923.376155	11438.431711
74.536500	0.278772	0.162443	0.285685	0.417597	6178.121332	26783.205966	3925.918026	11384.063082
75.036500	0.279980	0.164177	0.282207	0.421057	6162.430541	26689.622377	3913.097641	11318.623248
75.537000	0.280221	0.165400	0.282632	0.423035	6150.384514	26648.761219	3910.257093	11281.445157
76.037000	0.279425	0.162892	0.282598	0.422824	6146.334157	26524.956405	3910.579800	11285.400939
76.534500	0.278836	0.164244	0.285258	0.425042	6126.996035	26478.451841	3911.387849	11243.893372
77.036000	0.279421	0.163278	0.285007	0.425257	6129.536766	26415.153950	3910.535389	11239.874481
77.535000	0.279356	0.162251	0.285801	0.425218	6129.353164	26362.308398	3912.058549	11240.598704
78.035500	0.279132	0.163376	0.284699	0.426731	6117.445628	26341.662248	3907.287787	11212.423533
78.538500	0.279871	0.163143	0.289264	0.427342	6118.311313	26296.601371	3914.513060	11201.054498
79.036000	0.278667	0.163025	0.286001	0.427678	6107.791612	26272.464583	3907.932787	11194.823687
79.536500	0.280170	0.163964	0.290222	0.429052	6108.670588	26249.361194	3913.134978	11169.368047
80.036500	0.281170	0.163413	0.284845	0.430838	6103.312834	26125.529317	3900.111642	11136.409695
80.537000	0.284751	0.164534	0.288854	0.432568	6115.950577	26093.363003	3904.232446	11104.600844
81.037500	0.280081	0.162303	0.284566	0.431481	6091.526893	26033.085861	3898.449790	11124.562918
81.535000	0.280698	0.164632	0.293812	0.434298	6076.633061	26007.388508	3910.103530	11072.914692
82.038000	0.281319	0.162957	0.286921	0.433816	6084.093885	25944.796842	3898.486145	11081.735538
82.535500	0.277768	0.164710	0.286842	0.435894	6046.239204	25927.791824	3894.615698	11043.814512
83.035500	0.278632	0.164016	0.289778	0.435561	6054.249599	25908.876271	3900.490844	11049.878677
83.535500	0.278945	0.163210	0.285917	0.437103	6046.019238	25786.246930	3890.803399	11021.824432
84.036500	0.277459	0.163163	0.286808	0.436803	6038.107314	25799.479471	3892.927923	11027.279252
84.536000	0.277621	0.163407	0.294008	0.438274	6029.396802	25735.593770	3903.230398	11000.585400
85.036500	0.276899	0.162715	0.282804	0.437872	6027.271744	25720.535398	3883.917496	11007.871502
85.537000	0.277207	0.161658	0.291370	0.438892	6022.552941	25613.023114	3897.359091	10989.416524
86.037500	0.277651	0.162483	0.287451	0.439969	6018.359300	25599.972856	3888.434457	10969.957999
86.537500	0.277872	0.161663	0.285392	0.440418	6016.844683	25534.531846	3883.992100	10961.861979
87.034500	0.275938	0.161825	0.295474	0.440990	6000.314048	25513.446075	3900.972141	10951.560296
87.535500	0.278782	0.162070	0.287515	0.442226	6010.911025	25462.513128	3884.546435	10929.344609
88.036000	0.275678	0.161587	0.289613	0.442419	5989.229163	25427.823401	3887.922210	10925.882478
88.539000	0.276313	0.162213	0.287560	0.443793	5984.395979	25389.561664	3881.863445	10901.284498
89.036500	0.277182	0.161195	0.294315	0.444887	5982.921828	25281.785578	3891.897403	10881.741234
89.536500	0.275620	0.162352	0.288935	0.446008	5965.438648	25283.599599	3880.384989	10861.774433
90.037000	0.274384	0.161461	0.289357	0.445942	5957.847632	25241.715021	3881.243371	10862.959793
90.536500	0.275082	0.161173	0.287422	0.447252	5953.888730	25160.645738	3875.554719	10839.686951
91.040000	0.276277	0.161517	0.289723	0.447673	5958.899686	25156.710919	3878.843944	10832.217721
91.535000	0.273903	0.162411	0.292531	0.449011	5934.938316	25134.262064	3881.428126	10808.544086
92.035000	0.272864	0.161398	0.291641	0.449265	5926.646689	25070.311800	3879.417506	10804.063637
92.536000	0.272800	0.160242	0.293293	0.448572	5930.680246	25046.990350	3883.543785	10816.304676
93.036000	0.272305	0.158968	0.294668	0.448843	5925.773493	24969.356533	3885.495878	10811.524687
93.536500	0.272176	0.160659	0.293911	0.450636	5913.486698	24964.212258	3880.996870	10779.902936
94.072500	0.271422	0.159095	0.286642	0.449660	5914.898199	24934.701213	3870.006325	10797.084720
94.536500	0.269847	0.159372	0.292677	0.450792	5897.678958	24891.886030	3878.554460	10777.142046
95.033500	0.271582	0.160742	0.289945	0.452653	5896.887978	24867.409854	3870.544273	10744.487029
95.540000	0.270279	0.159966	0.290647	0.452918	5886.965180	24815.460134	3871.303933	10739.842341
96.037500	0.270995	0.160237	0.291855	0.453264	5889.298691	24811.707506	3872.801033	10733.780581
