sample name	sample
index	1072
start time	 04-22-2021  10:36:45 AM
880	0.239833
Peak Time (s)	102.537
Peak Height 	0.2398
calc peak height	100,103
Baseline Time (s)	8.537
Baseline Value 	-0.005726
subtract baseline	10,4
Abs	0.158017
Peak Time (s)	102.037
Peak Height 	0.158
calc peak height	100,103
Baseline Time (s)	9.538
Baseline Value 	0.003391
subtract baseline	10,3
PK_550	0.099123
Peak Time (s)	100.536
Peak Height 	0.09912
calc peak height	100,103
Baseline Time (s)	8.537
Baseline Value 	5.4491E-4
subtract baseline	10,2
PK_880	0.147663
Peak Time (s)	102.537
Peak Height 	0.1477
calc peak height	100,103
Baseline Time (s)	9.538
Baseline Value 	0.00337
subtract baseline	10,1


Time (s)	A880-A510	A880-A775	A880-A975	A880	I510	I775	I975	I880	
0.041000	-0.001566	-0.000924	-0.002107	0.002171	6242.708801	43306.280636	3857.407636	22741.036484
0.536500	-0.003828	-0.000626	-0.001548	0.004930	6202.343134	43077.140898	3851.616649	22614.269497
1.036500	-0.002362	-0.000328	-0.000645	0.003858	6222.687657	43204.464841	3856.811007	22663.407921
1.536500	-0.002355	-0.000932	-0.008287	0.007218	6195.836189	42837.060017	3828.158464	22509.783415
2.037000	-0.000116	-0.000299	-0.000575	0.001056	6263.517418	43469.093842	3864.414811	22792.483894
2.537500	-0.000234	0.000311	0.000855	0.001203	6261.359108	43512.446241	3867.823120	22785.669851
3.037500	0.002509	-0.000440	0.004518	-0.001410	6305.170077	43687.575117	3884.659581	22906.741670
3.535000	-0.001687	-0.001121	-0.002852	0.000378	6256.251263	43455.507739	3860.173269	22823.809046
4.035500	-0.000574	-0.000749	-0.005538	-0.000052	6268.810199	43530.781107	3854.223140	22843.748200
4.535500	-0.000010	-0.000057	0.000416	0.000443	6269.359374	43549.210750	3868.679109	22820.796772
5.035500	0.000126	0.000113	-0.005625	0.001007	6265.879290	43512.309533	3851.211385	22794.735789
5.536500	-0.001911	-0.000631	-0.001397	0.000292	6255.130827	43509.539933	3864.258080	22827.794461
6.036500	-0.002776	-0.000474	0.000407	0.000232	6248.607923	43529.994078	3869.218709	22830.595595
6.537000	-0.001497	-0.000315	0.001777	-0.000018	6261.021254	43568.450750	3873.546200	22842.177811
7.036500	-0.002905	-0.000912	-0.003870	-0.000406	6252.741089	43548.783159	3859.558239	22860.156284
7.537500	-0.001262	-0.000071	-0.002294	0.000042	6262.436262	43585.675496	3862.543175	22839.370538
8.037500	-0.000351	-0.000108	-0.000119	-0.000069	6270.759313	43592.593765	3868.616967	22844.519050
8.537500	-0.000923	0.000000	0.000056	0.000000	6265.538767	43596.287193	3868.900512	22841.325146
9.035500	-0.001597	0.000409	-0.000337	0.000339	6257.297388	43602.861679	3866.950761	22825.610695
9.538000	0.000000	-0.000366	0.000000	-0.000004	6273.095444	43562.329875	3868.763405	22841.530446
10.035500	0.000327	0.000676	0.002278	0.000853	6268.768993	43579.655036	3872.554290	22801.848563
10.536000	0.001048	0.000408	-0.003109	0.000299	6279.173326	43606.455058	3859.702800	22827.459933
11.036000	0.000047	-0.000674	-0.002004	-0.000522	6277.703474	43582.030554	3864.810607	22865.536623
11.533500	-0.001310	-0.000787	0.000965	-0.000623	6267.464215	43580.918272	3872.993293	22870.211182
12.034000	-0.001815	0.000055	-0.002060	0.000148	6257.082115	43587.556204	3862.880978	22834.455875
12.534000	-0.002336	-0.000557	0.000360	-0.000681	6259.583122	43607.973178	3871.527833	22872.881771
13.034500	-0.000425	-0.000228	0.000310	-0.000261	6271.721543	43599.384078	3870.275756	22853.420207
13.535000	-0.002421	-0.000271	-0.000433	-0.000226	6255.203062	43592.056273	3868.200739	22851.802953
14.035500	-0.003230	-0.000553	-0.002840	0.002942	6223.070029	43268.961880	3853.444699	22705.511353
14.535500	-0.002330	-0.000194	-0.002903	0.001543	6241.612428	43433.310912	3856.963538	22769.993810
15.036500	-0.001092	-0.000169	0.001128	0.001047	6255.651148	43482.023598	3868.966493	22792.869946
15.536000	-0.001080	0.000270	0.001134	0.000337	6261.522700	43589.947817	3870.878461	22825.725183
16.036500	0.000119	0.000271	-0.002292	0.000386	6270.879030	43585.445660	3861.637008	22823.451330
16.534000	-0.000794	-0.000426	-0.001478	-0.000413	6269.955487	43595.090737	3865.918744	22860.476882
17.034000	0.000083	-0.000257	-0.001748	-0.003094	6299.069319	43863.977044	3872.344300	22985.162828
17.540000	-0.000222	-0.000077	-0.004242	0.001405	6259.811982	43457.117926	3853.799630	22776.345998
18.037000	-0.002646	-0.000433	-0.001005	0.001203	6241.806603	43442.754901	3862.883078	22785.685401
18.535500	-0.000643	-0.000088	-0.005699	0.001056	6259.231778	43488.832020	3850.887646	22792.473905
19.039000	-0.002541	-0.000275	-0.001082	0.001266	6242.144507	43451.613846	3862.512741	22782.781597
19.539000	-0.001357	-0.000390	-0.000706	0.001214	6252.156784	43445.723886	3863.647180	22785.193583
20.036000	-0.001590	0.000446	0.000670	0.001708	6246.257020	43477.774074	3865.988081	22762.367589
20.537000	-0.001316	-0.000181	-0.001195	0.001308	6251.722731	43456.470973	3862.100196	22780.820008
21.037000	-0.001201	-0.000510	-0.000462	0.000816	6256.647272	43471.854030	3865.350810	22803.588850
21.537500	-0.002577	-0.000632	-0.002329	0.000936	6244.518781	43449.151261	3860.083637	22798.028143
22.037500	-0.001772	-0.000081	0.000195	0.001348	6247.702316	43462.140288	3865.684998	22779.003199
22.535000	-0.001574	-0.000360	0.001198	0.000969	6252.380506	43471.551995	3869.363116	22796.509072
23.035000	-0.002143	0.000046	0.002063	0.001399	6244.287154	43469.264955	3870.521809	22776.618707
23.538000	-0.000559	0.000033	0.001485	0.001698	6254.701764	43440.081817	3868.184127	22762.846201
24.036000	-0.000976	-0.000220	-0.000878	0.001247	6254.970250	43458.503183	3863.101641	22783.632581
24.536000	-0.001640	0.000350	-0.001885	0.001309	6249.082047	43506.134019	3860.270045	22780.767156
25.036500	-0.002328	0.000138	-0.001650	0.001464	6242.266892	43471.746015	3860.481688	22773.622891
25.536500	-0.002075	0.000080	0.000268	0.001662	6242.709295	43447.760400	3865.041943	22764.477355
26.036500	-0.000073	0.000085	-0.003403	0.001558	6259.782139	43458.033295	3855.604907	22769.303009
26.537500	-0.001120	0.000404	0.002376	0.001935	6248.228368	43452.538956	3869.925937	22751.886115
27.037500	0.000094	0.000554	0.001158	-0.001595	6286.855945	43798.831898	3876.111447	22915.322375
27.535000	0.000607	-0.000195	-0.001705	-0.000602	6282.929949	43634.598259	3865.816632	22869.221559
28.035500	-0.002173	-0.000808	-0.005436	-0.000323	6258.001656	43550.680658	3855.203551	22856.274886
28.535500	-0.001011	0.000058	0.001800	0.000292	6262.452616	43574.334722	3872.777364	22827.817772
29.039000	-0.001121	0.000167	-0.001376	0.000640	6258.720845	43551.858108	3863.391057	22811.703217
29.536500	-0.000108	-0.001118	-0.002510	-0.000112	6273.094653	43501.846225	3862.379541	22846.532315
30.036500	-0.001499	-0.000731	0.002493	0.000399	6257.606191	43490.120452	3874.344178	22822.838738
30.537000	-0.003195	-0.001062	0.000124	0.002445	6227.356311	43267.833814	3862.583300	22728.397868
31.039500	-0.003068	-0.000358	-0.002754	0.003939	6216.363029	43194.219669	3851.050677	22659.713507
31.553500	-0.001872	-0.000100	-0.000543	0.001011	6249.626479	43491.940551	3864.618192	22794.564149
32.034000	0.000511	-0.000920	0.000741	-0.000436	6280.792441	43550.800557	3871.894934	22861.547930
32.535500	-0.000266	-0.000191	-0.000957	-0.000220	6272.679375	43598.945556	3866.789209	22851.499228
33.038500	-0.003261	0.000170	-0.003742	0.003677	6216.920850	43267.856831	3849.147867	22671.753187
33.535500	0.001036	-0.000545	0.002169	-0.000119	6282.488139	43556.161520	3874.864103	22846.816604
34.036000	-0.000847	0.000755	-0.004675	0.002443	6246.323079	43437.830025	3849.934209	22728.469517
34.536000	-0.002416	-0.001253	-0.002563	0.001381	6242.224203	43349.389411	3858.289773	22777.475856
35.036000	-0.003295	-0.000708	-0.000273	0.003016	6221.951915	43247.585885	3860.017674	22702.097743
35.537000	-0.001495	0.000121	-0.000986	0.001654	6247.468762	43452.464193	3861.737829	22764.882783
36.037000	-0.001958	-0.000815	-0.002287	0.001427	6245.555173	43385.992201	3858.895491	22775.325213
36.534500	-0.003606	-0.000206	-0.004826	0.000966	6235.958273	43486.201179	3853.415849	22796.609812
37.035000	-0.003610	-0.001085	-0.002617	0.001827	6228.989507	43323.356790	3856.969098	22756.897036
37.535500	-0.002081	-0.000918	-0.001125	0.001036	6247.727218	43412.970532	3863.006742	22793.404603
38.035500	-0.003110	-0.000304	0.000948	0.001136	6238.601921	43461.108244	3868.252277	22788.793994
38.536000	-0.001075	-0.000297	-0.001564	0.001576	6251.497527	43420.489940	3860.414520	22768.458256
39.035500	-0.003329	-0.000528	-0.002384	0.001198	6236.323945	43434.283814	3859.243433	22785.897858
39.536000	0.000663	-0.000282	0.000524	0.001533	6265.971289	43425.926143	3866.065990	22770.431034
40.036500	-0.002517	-0.000333	0.001445	0.001418	6241.104657	43431.984798	3868.824634	22775.755151
40.537000	-0.000724	-0.000387	-0.001584	0.001096	6258.249044	43457.120617	3861.633169	22790.636495
41.037500	-0.001249	-0.000212	-0.002029	0.001567	6250.166266	43429.391768	3859.207818	22768.894334
41.534500	0.000692	0.000327	-0.000778	0.002083	6261.730907	43431.532103	3861.150598	22745.075287
42.035000	-0.002248	-0.000011	-0.002377	0.001808	6240.130767	43425.558885	3857.652502	22757.757369
42.537500	-0.000957	-0.000032	0.001445	0.001621	6252.088255	43441.099762	3868.282556	22766.369846
43.035500	-0.001144	-0.000938	0.001259	0.001304	6253.149400	43386.001192	3868.632150	22781.011835
43.536000	-0.002903	-0.000693	0.000548	0.001538	6237.020950	43386.997659	3866.114757	22770.213278
44.036000	-0.000246	-0.000903	0.002962	-0.003235	6297.528516	43816.222391	3885.385210	22991.733101
44.536000	-0.001186	0.000031	0.000701	-0.000914	6270.842468	43685.218514	3873.062182	22883.694191
45.037000	-0.000163	-0.000317	0.001828	-0.000696	6277.416312	43631.962126	3875.498293	22873.606232
45.537000	-0.001050	0.000632	0.001300	0.000022	6264.323517	43653.696901	3872.161352	22840.306828
46.037000	-0.000751	0.000123	0.001103	0.000830	6260.182051	43529.878171	3869.478517	22802.907314
46.535000	-0.000648	0.000216	0.001161	-0.000417	6271.181953	43655.867266	3872.966698	22860.671443
47.035500	-0.000380	-0.000630	0.001975	0.004092	6236.778156	43154.699786	3863.125982	22652.707698
47.536500	-0.003035	-0.000133	0.003169	0.002471	6228.432180	43352.187484	3870.614075	22727.209713
48.035500	-0.001114	0.000630	-0.000571	0.002442	6244.167586	43426.172952	3860.749242	22728.517466
48.536500	-0.000985	-0.000232	-0.005748	-0.000806	6271.596836	43650.329787	3855.656307	22878.693047
49.036500	-0.003085	-0.001338	-0.000619	0.003978	6215.916080	43099.464068	3856.565401	22657.927920
49.536500	0.000471	0.000618	0.001626	0.000274	6274.669350	43628.660069	3872.360756	22828.660631
50.037000	-0.001032	-0.000343	0.000097	-0.001805	6279.367056	43734.028649	3873.830347	22925.098673
50.537500	-0.000929	-0.000935	0.004587	0.009463	6189.299945	42630.043240	3855.827670	22407.755672
51.037500	0.027954	-0.005121	0.057688	0.266250	4777.137214	24619.632134	3427.359213	13622.271754
51.535000	0.008468	-0.011540	-0.016091	0.083983	5707.691750	35532.880481	3630.548054	19304.468450
52.038000	-0.023128	-0.032042	-0.056282	-0.138815	7354.286321	54978.765278	4110.993764	30417.158875
52.536000	-0.005320	-0.124191	-0.042255	-0.310919	9890.318652	65535.000000	4859.922279	43883.149732
53.036000	-0.017289	-0.095763	-0.035504	-0.282062	9247.957935	65473.084144	4753.297591	41237.342117
53.536500	-0.009169	-0.073702	-0.031747	-0.253871	8953.598040	64593.952602	4641.583478	38816.834496
54.036500	-0.010245	-0.065924	-0.031467	-0.245000	8812.697635	64438.586642	4603.775413	38087.128458
54.536500	-0.014884	-0.061002	-0.033897	-0.239910	8677.969137	64414.820975	4571.291997	37675.149897
55.037000	-0.018161	-0.048014	-0.033134	-0.220596	8376.521402	63523.101538	4493.515280	36154.938255
55.537500	-0.011377	-0.064985	-0.030182	-0.246153	8812.990183	64736.513722	4614.428309	38181.157340
56.034500	-0.005455	-0.045095	-0.027415	-0.216289	8486.772509	63329.248363	4499.319126	35825.058029
56.538000	-0.004214	-0.021592	-0.019483	-0.157110	7767.880816	58552.286617	4300.307946	31608.619425
57.035500	-0.005036	-0.011328	-0.014002	-0.108550	7226.490075	53842.830463	4150.255791	28553.148345
57.536000	0.002735	-0.008838	-0.010219	-0.102906	7248.556779	53473.160755	4144.104313	28219.671193
58.036000	0.003547	-0.005379	-0.004874	-0.089744	7121.897817	52352.711867	4118.547821	27458.652728
58.536500	0.009660	0.000127	-0.003451	-0.066430	6951.378033	50360.216626	4049.374528	26165.975316
59.037000	0.010990	0.004019	-0.000873	-0.042018	6732.908730	48163.186548	3983.765984	24884.709113
59.537000	0.021710	0.007769	0.013627	-0.014990	6585.414224	45793.491863	3947.585446	23547.723299
60.034000	0.023287	0.009234	0.019186	0.007205	6406.689475	43787.573706	3901.125257	22510.364723
60.537000	0.031175	0.013560	0.021463	0.010387	6446.746735	43895.760188	3898.649866	22365.950727
61.035000	0.033924	0.019862	0.026429	0.029666	6307.959431	42684.639055	3860.156899	21513.147935
61.535500	0.044966	0.022970	0.045388	0.083690	5970.877777	38267.605956	3771.046653	19315.670175
62.035500	0.050515	0.026703	0.050957	0.089932	5965.713655	38063.022870	3769.405974	19078.941618
62.536000	0.059224	0.033425	0.057350	0.097329	5975.501914	38008.236331	3766.962669	18802.773422
63.036000	0.059177	0.034631	0.061748	0.121931	5796.469598	36159.373476	3718.977444	17917.359073
63.536500	0.066736	0.039456	0.074732	0.133606	5767.542777	35636.627723	3722.019788	17514.401870
64.037000	0.069953	0.042201	0.078587	0.162940	5590.306211	33683.940208	3664.430898	16548.522057
64.538000	0.069887	0.041813	0.083848	0.166220	5568.361002	33423.900321	3668.788891	16444.538050
65.037500	0.070172	0.044565	0.089276	0.162922	5591.869346	33854.108319	3688.221326	16549.112752
65.535000	0.074321	0.048833	0.085053	0.156324	5663.555674	34641.997860	3693.578578	16760.731203
66.038000	0.078201	0.049631	0.090596	0.152302	5717.403525	34997.810835	3715.450653	16891.292528
66.535000	0.079265	0.053260	0.092232	0.150896	5734.437138	35373.760264	3722.509348	16937.221222
67.035500	0.079788	0.055998	0.083982	0.154496	5713.229301	35309.118900	3695.290626	16819.911738
67.535500	0.081723	0.058623	0.088004	0.149285	5762.714781	35901.744227	3716.433455	16990.037723
68.037000	0.083607	0.061117	0.098686	0.147898	5785.635658	36199.290206	3744.757164	17035.668198
68.537000	0.085713	0.062282	0.093625	0.146714	5808.865487	36380.636729	3735.572723	17074.737520
69.037000	0.085468	0.062721	0.097296	0.152675	5765.190836	35955.881908	3730.185123	16879.135679
69.537000	0.090754	0.064091	0.102961	0.151444	5811.069449	36155.332767	3746.493930	16919.317413
70.037500	0.093258	0.065270	0.106546	0.154659	5806.033641	35999.028019	3747.374397	16814.622450
70.535000	0.096076	0.066522	0.107492	0.156355	5813.991811	35965.094230	3745.588727	16759.727802
71.035500	0.096679	0.066601	0.109868	0.161356	5782.924468	35590.873695	3739.356705	16599.057121
71.535000	0.100450	0.069183	0.110726	0.163801	5792.259010	35601.287600	3735.607288	16521.172392
72.035500	0.098319	0.069809	0.107133	0.164887	5769.665957	35566.479806	3724.630876	16486.717858
72.536000	0.104334	0.071170	0.111942	0.165734	5806.040262	35605.348946	3733.915829	16459.898725
73.036500	0.102910	0.072201	0.110410	0.170395	5763.248936	35331.915273	3719.437637	16313.297235
73.536500	0.104712	0.073097	0.117801	0.167572	5795.718787	35612.068983	3743.426867	16401.896356
74.037000	0.109463	0.074518	0.119755	0.169353	5816.749939	35584.780048	3743.839498	16345.925932
74.535000	0.110195	0.076828	0.123300	0.171475	5806.889840	35599.062230	3747.228114	16279.546349
75.035000	0.110653	0.077753	0.119632	0.176127	5777.325700	35318.334024	3727.569680	16135.126907
75.537500	0.107856	0.076808	0.120302	0.174379	5769.974118	35378.634493	3733.245197	16189.221712
76.038000	0.111118	0.078542	0.127021	0.177356	5771.970862	35285.446800	3742.089873	16097.254915
76.535000	0.110415	0.079200	0.121264	0.178449	5759.414840	35252.833028	3725.957490	16063.627750
77.036000	0.111689	0.080593	0.119991	0.183969	5729.954705	34945.537180	3710.212106	15895.191759
77.536000	0.113025	0.081156	0.118714	0.184181	5737.730360	34971.582473	3706.794398	15888.767709
78.036500	0.111452	0.082396	0.126019	0.186267	5712.496277	34908.863254	3718.827030	15825.680272
78.539500	0.114653	0.082414	0.126367	0.188208	5721.160741	34766.819283	3715.139221	15767.279601
79.037000	0.114463	0.082692	0.125290	0.192754	5688.729033	34453.785637	3702.225657	15631.478051
79.537500	0.112970	0.084060	0.130193	0.193687	5672.251561	34485.502259	3711.325046	15603.783691
80.035000	0.113160	0.085764	0.130200	0.196474	5654.710375	34406.468336	3704.944108	15521.404010
80.535500	0.114180	0.083989	0.129952	0.197222	5656.541601	34223.123019	3702.667294	15499.377834
81.035000	0.112799	0.084492	0.128701	0.201587	5618.091054	33944.642905	3689.932995	15371.658404
81.535000	0.117764	0.086235	0.130893	0.202870	5642.669733	33977.632943	3691.982311	15334.334450
82.038000	0.116660	0.086228	0.131416	0.203277	5632.560171	33947.887704	3692.246318	15322.545283
82.536500	0.118362	0.086732	0.131422	0.203887	5639.866594	33940.287820	3690.882213	15304.859018
83.039500	0.118113	0.086899	0.129601	0.207177	5616.257457	33716.854184	3679.422852	15209.934090
83.537000	0.119236	0.087502	0.129443	0.206587	5627.654159	33801.989500	3680.382588	15226.879651
84.037500	0.121453	0.086840	0.130973	0.206134	5645.518822	33787.077174	3684.818491	15239.928507
84.535000	0.121706	0.088430	0.134433	0.207205	5640.041401	33824.243255	3690.190255	15209.131298
85.038500	0.122646	0.089548	0.140994	0.209263	5632.557058	33756.967020	3700.390394	15150.092922
85.535500	0.125001	0.089951	0.136948	0.210275	5641.548260	33713.574265	3688.938090	15121.183125
86.036500	0.126585	0.090042	0.133929	0.211559	5643.558591	33628.690830	3679.302339	15084.608209
86.538500	0.127135	0.091731	0.136295	0.213428	5634.725348	33615.873209	3680.409339	15031.525376
87.036500	0.126375	0.091279	0.139963	0.213981	5625.961969	33544.501206	3687.385925	15015.871087
87.536500	0.125913	0.090755	0.139096	0.214369	5620.299217	33479.982413	3684.569804	15004.896924
88.036500	0.129018	0.092410	0.140911	0.216810	5624.718951	33424.389674	3683.166554	14936.059871
88.537500	0.129336	0.091795	0.140788	0.216597	5628.252298	33396.006383	3683.367611	14942.046339
89.037500	0.128820	0.092046	0.147849	0.217603	5618.118673	33342.767298	3697.014774	14913.792928
89.534500	0.130961	0.092986	0.138024	0.219242	5621.457104	33293.567604	3671.335582	14867.878127
90.038000	0.129894	0.092553	0.141217	0.219499	5612.659583	33245.086567	3677.849049	14860.695446
90.536000	0.131809	0.093208	0.146106	0.221081	5614.869573	33180.102097	3685.234204	14816.567523
91.035500	0.134763	0.093896	0.145287	0.221485	5631.856496	33199.983338	3682.497507	14805.333734
91.536000	0.133502	0.093958	0.149814	0.222376	5617.519299	33141.980162	3690.663202	14780.590342
92.036500	0.133049	0.093252	0.142505	0.222292	5615.063551	33098.494041	3674.505119	14782.920599
92.536000	0.133364	0.093367	0.141615	0.223076	5611.955216	33051.809025	3670.799511	14761.171823
93.037000	0.134189	0.094707	0.146147	0.226120	5597.268998	32933.133179	3674.092643	14677.120622
93.537000	0.136340	0.094056	0.142741	0.226161	5611.231580	32885.094510	3666.480507	14675.981591
94.034500	0.137218	0.094400	0.147022	0.226571	5614.334529	32880.562965	3675.033530	14664.716787
94.537500	0.139771	0.094881	0.147842	0.226941	5628.861751	32888.178650	3676.031740	14654.525949
95.035000	0.136235	0.094429	0.146457	0.228094	5597.742677	32777.050905	3670.409344	14622.903418
95.536000	0.137797	0.095366	0.154192	0.228917	5602.626159	32784.941782	3685.798901	14600.397454
96.036000	0.138841	0.095521	0.151073	0.229505	5605.642940	32755.041561	3677.513569	14584.319239
96.536000	0.139460	0.096521	0.154544	0.230911	5600.436969	32726.999361	3682.119286	14545.987705
97.036500	0.141379	0.095903	0.155714	0.232526	5602.448585	32573.256790	3681.126103	14502.114298
