sample name	sample
index	1449
start time	 05-10-2021  01:24:32 PM


Wavelength (nm)	Absorbance
494.344910	-0.007988
494.563924	-0.007988
494.782919	-0.007988
495.001897	-0.016075
495.220856	0.000229
495.439797	-0.004025
495.658719	-0.003732
495.877624	-0.009872
496.096510	0.000216
496.315378	-0.002942
496.534227	0.009893
496.753059	0.019206
496.971872	0.014517
497.190667	0.042142
497.409444	0.059878
497.628203	0.065517
497.846943	0.066472
498.065665	0.066264
498.284369	0.068114
498.503055	0.066756
498.721723	0.067119
498.940372	0.068467
499.159003	0.068998
499.377616	0.069598
499.596210	0.069663
499.814787	0.071146
500.033345	0.071011
500.251885	0.071602
500.470406	0.072924
500.688910	0.073198
500.907395	0.072770
501.125862	0.073133
501.344311	0.072384
501.562742	0.072016
501.781154	0.072680
501.999548	0.073679
502.217924	0.072354
502.436282	0.071761
502.654621	0.071461
502.872942	0.071237
503.091245	0.070972
503.309530	0.071583
503.527797	0.072279
503.746045	0.071825
503.964275	0.071731
504.182487	0.072733
504.400681	0.073349
504.618856	0.073473
504.837013	0.072939
505.055152	0.072130
505.273273	0.071944
505.491376	0.071031
505.709460	0.070590
505.927526	0.070576
506.145574	0.071098
506.363604	0.071920
506.581615	0.071186
506.799608	0.071382
507.017583	0.071719
507.235540	0.071192
507.453478	0.070903
507.671399	0.070588
507.889301	0.070231
508.107185	0.069619
508.325050	0.069290
508.542898	0.070016
508.760727	0.069985
508.978538	0.070608
509.196330	0.071226
509.414105	0.072438
509.631861	0.072569
509.849599	0.073003
510.067319	0.073263
510.285021	0.073189
510.502704	0.073745
510.720369	0.074530
510.938016	0.073672
511.155645	0.073835
511.373255	0.073069
511.590848	0.073982
511.808422	0.073300
512.025977	0.073165
512.243515	0.072775
512.461034	0.072267
512.678536	0.073168
512.896018	0.074334
513.113483	0.073619
513.330930	0.073788
513.548358	0.072984
513.765768	0.073332
513.983160	0.072828
514.200533	0.073253
514.417889	0.072717
514.635226	0.071747
514.852545	0.070733
515.069845	0.070139
515.287128	0.069862
515.504392	0.070246
515.721638	0.070273
515.938866	0.071041
516.156075	0.070258
516.373267	0.070284
516.590440	0.069838
516.807594	0.069471
517.024731	0.070015
517.241850	0.069973
517.458950	0.070431
517.676032	0.070263
517.893095	0.070568
518.110141	0.070712
518.327168	0.072290
518.544177	0.072736
518.761168	0.073318
518.978141	0.073422
519.195095	0.074120
519.412031	0.073867
519.628949	0.074045
519.845849	0.073759
520.062731	0.073600
520.279594	0.072748
520.496439	0.072842
520.713266	0.073172
520.930074	0.073193
521.146865	0.072865
521.363637	0.072366
521.580391	0.072145
521.797127	0.071709
522.013844	0.071989
522.230543	0.072399
522.447224	0.071919
522.663887	0.071878
522.880532	0.072399
523.097158	0.072719
523.313766	0.072778
523.530356	0.073110
523.746928	0.073407
523.963481	0.073221
524.180017	0.072424
524.396534	0.072610
524.613032	0.073078
524.829513	0.072739
525.045975	0.072573
525.262420	0.072907
525.478845	0.073226
525.695253	0.073787
525.911643	0.074374
526.128014	0.074591
526.344367	0.074658
526.560702	0.074570
526.777018	0.074767
526.993316	0.075000
527.209597	0.074600
527.425858	0.074264
527.642102	0.073907
527.858328	0.073897
528.074535	0.074156
528.290724	0.074041
528.506894	0.073874
528.723047	0.073978
528.939181	0.074074
529.155297	0.074243
529.371395	0.074366
529.587475	0.073731
529.803536	0.073884
530.019579	0.073954
530.235604	0.074302
530.451611	0.073978
530.667600	0.073732
530.883570	0.074325
531.099522	0.074354
531.315456	0.073980
531.531372	0.074489
531.747269	0.074222
531.963148	0.073818
532.179009	0.074069
532.394852	0.074399
532.610676	0.074622
532.826482	0.073230
533.042271	0.073049
533.258040	0.073614
533.473792	0.074115
533.689525	0.073890
533.905240	0.074216
534.120937	0.073830
534.336616	0.073509
534.552277	0.073506
534.767919	0.074676
534.983543	0.075203
535.199149	0.075569
535.414736	0.075675
535.630306	0.075898
535.845857	0.076237
536.061390	0.076774
536.276904	0.076488
536.492401	0.076228
536.707879	0.076286
536.923339	0.076304
537.138781	0.075839
537.354204	0.075376
537.569610	0.074943
537.784997	0.074404
538.000366	0.074234
538.215716	0.075147
538.431049	0.075336
538.646363	0.074700
538.861659	0.074611
539.076937	0.074828
539.292196	0.074342
539.507438	0.074748
539.722661	0.075298
539.937866	0.074776
540.153052	0.074683
540.368221	0.074722
540.583371	0.074820
540.798503	0.074607
541.013617	0.074503
541.228712	0.074671
541.443789	0.074613
541.658848	0.074677
541.873889	0.075284
542.088912	0.075044
542.303916	0.074700
542.518902	0.074718
542.733870	0.075081
542.948820	0.074882
543.163752	0.075290
543.378665	0.074945
543.593560	0.074295
543.808437	0.073937
544.023295	0.073877
544.238136	0.073667
544.452958	0.074060
544.667762	0.073703
544.882548	0.073976
545.097315	0.073874
545.312064	0.074362
545.526795	0.075092
545.741508	0.075192
545.956203	0.075333
546.170879	0.076025
546.385537	0.076158
546.600177	0.076482
546.814799	0.076466
547.029402	0.076678
547.243988	0.076446
547.458555	0.075995
547.673103	0.076366
547.887634	0.076263
548.102146	0.076388
548.316640	0.075841
548.531116	0.075768
548.745574	0.075508
548.960013	0.075382
549.174435	0.075592
549.388838	0.075880
549.603222	0.075464
549.817589	0.075690
550.031937	0.075328
550.246267	0.075273
550.460579	0.075439
550.674873	0.075674
550.889148	0.075588
551.103405	0.075830
551.317644	0.075696
551.531865	0.075650
551.746068	0.075309
551.960252	0.075176
552.174418	0.075282
552.388566	0.075229
552.602696	0.075140
552.816807	0.075127
553.030900	0.074681
553.244975	0.074894
553.459032	0.075003
553.673070	0.075130
553.887091	0.075260
554.101093	0.075446
554.315077	0.075642
554.529042	0.075805
554.742990	0.075815
554.956919	0.075921
555.170830	0.075887
555.384722	0.076086
555.598597	0.076056
555.812453	0.076238
556.026291	0.076014
556.240111	0.075620
556.453913	0.075465
556.667696	0.075567
556.881461	0.075967
557.095208	0.076089
557.308937	0.076190
557.522647	0.076416
557.736339	0.076184
557.950013	0.076210
558.163669	0.076196
558.377307	0.076239
558.590926	0.076391
558.804527	0.076094
559.018110	0.075644
559.231675	0.075164
559.445221	0.074991
559.658749	0.075356
559.872259	0.075216
560.085751	0.075190
560.299225	0.075417
560.512680	0.075270
560.726117	0.075542
560.939536	0.075652
561.152937	0.076048
561.366319	0.076104
561.579683	0.076249
561.793029	0.076490
562.006357	0.076939
562.219667	0.076647
562.432958	0.076792
562.646231	0.076432
562.859486	0.076473
563.072723	0.076659
563.285941	0.076573
563.499141	0.076491
563.712323	0.076964
563.925487	0.076989
564.138632	0.077307
564.351760	0.077181
564.564869	0.077085
564.777960	0.077382
564.991032	0.077562
565.204087	0.077750
565.417123	0.077731
565.630141	0.077391
565.843140	0.077289
566.056122	0.077244
566.269085	0.077117
566.482030	0.077791
566.694957	0.077322
566.907866	0.077160
567.120756	0.076994
567.333628	0.077266
567.546482	0.077496
567.759318	0.077480
567.972135	0.077451
568.184935	0.077518
568.397716	0.077519
568.610478	0.077576
568.823223	0.077301
569.035949	0.077631
569.248657	0.077529
569.461347	0.077616
569.674019	0.077382
569.886672	0.077635
570.099308	0.077709
570.311925	0.077112
570.524523	0.077531
570.737104	0.077571
570.949666	0.077598
571.162210	0.077753
571.374736	0.077985
571.587244	0.078325
571.799733	0.077865
572.012205	0.077871
572.224658	0.078371
572.437092	0.078329
572.649509	0.078680
572.861907	0.078724
573.074287	0.078393
573.286649	0.078066
573.498993	0.078293
573.711318	0.078968
573.923625	0.079220
574.135914	0.079478
574.348185	0.079538
574.560438	0.079408
574.772672	0.079183
574.984888	0.079310
575.197086	0.079622
575.409266	0.079595
575.621427	0.079269
575.833570	0.079348
576.045695	0.079152
576.257802	0.079423
576.469890	0.079274
576.681961	0.079622
576.894013	0.079580
577.106046	0.079407
577.318062	0.079602
577.530059	0.079769
577.742039	0.079634
577.954000	0.079580
578.165942	0.079641
578.377867	0.079979
578.589773	0.080184
578.801661	0.080608
579.013531	0.080622
579.225382	0.080160
579.437216	0.080526
579.649031	0.080978
579.860828	0.081145
580.072606	0.081179
580.284367	0.081631
580.496109	0.081637
580.707833	0.081422
580.919539	0.081356
581.131227	0.081826
581.342896	0.081886
581.554547	0.082043
581.766180	0.082345
581.977795	0.082482
582.189391	0.082231
582.400969	0.082257
582.612529	0.082611
582.824071	0.082543
583.035595	0.082498
583.247100	0.082377
583.458587	0.081980
583.670056	0.081958
583.881506	0.081721
584.092939	0.081813
584.304353	0.081993
584.515749	0.082104
584.727127	0.082528
584.938486	0.082577
585.149828	0.082714
585.361151	0.082791
585.572456	0.083111
585.783742	0.083309
585.995011	0.083452
586.206261	0.083468
586.417493	0.083555
586.628706	0.083856
586.839902	0.083822
587.051079	0.083999
587.262238	0.084169
587.473379	0.084128
587.684502	0.084158
587.895606	0.084393
588.106692	0.084304
588.317760	0.084358
588.528810	0.084053
588.739841	0.084210
588.950855	0.083793
589.161850	0.084123
589.372827	0.083970
589.583785	0.084322
589.794726	0.084234
590.005648	0.084320
590.216552	0.084566
590.427437	0.084704
590.638305	0.084883
590.849154	0.085379
591.059985	0.085307
591.270798	0.085460
591.481592	0.085256
591.692369	0.085406
591.903127	0.085403
592.113867	0.084903
592.324588	0.084939
592.535292	0.084958
592.745977	0.084865
592.956644	0.085044
593.167293	0.084860
593.377923	0.084947
593.588536	0.084387
593.799130	0.084583
594.009706	0.084717
594.220263	0.084535
594.430803	0.084603
594.641324	0.084711
594.851827	0.084865
595.062312	0.085116
595.272778	0.084975
595.483227	0.085191
595.693657	0.085170
595.904069	0.085077
596.114462	0.085305
596.324838	0.085254
596.535195	0.084924
596.745534	0.084849
596.955855	0.084645
597.166157	0.084901
597.376441	0.085182
597.586707	0.085194
597.796955	0.085371
598.007185	0.085685
598.217396	0.085844
598.427589	0.086417
598.637764	0.086187
598.847921	0.086311
599.058060	0.086287
599.268180	0.086394
599.478282	0.086224
599.688366	0.086314
599.898431	0.085995
600.108479	0.085818
600.318508	0.085484
600.528519	0.085359
600.738511	0.085470
600.948486	0.085207
601.158442	0.084926
601.368380	0.085051
601.578300	0.084990
601.788202	0.085030
601.998085	0.085066
602.207950	0.084772
602.417797	0.085069
602.627626	0.084803
602.837436	0.085248
603.047228	0.085399
603.257002	0.085531
603.466758	0.085690
603.676496	0.085806
603.886215	0.086172
604.095916	0.086528
604.305599	0.086747
604.515264	0.086934
604.724910	0.086920
604.934538	0.086965
605.144148	0.086945
605.353740	0.086597
605.563314	0.086629
605.772869	0.086383
605.982406	0.086451
606.191925	0.086371
606.401425	0.086399
606.610908	0.086251
606.820372	0.086250
607.029818	0.086393
607.239246	0.086606
607.448655	0.086885
607.658047	0.086913
607.867420	0.087194
608.076775	0.087247
608.286111	0.087435
608.495430	0.087435
608.704730	0.087590
608.914012	0.087550
609.123275	0.087669
609.332521	0.087584
609.541748	0.087533
609.750957	0.087332
609.960148	0.087168
610.169321	0.087256
610.378475	0.087225
610.587611	0.087352
610.796729	0.087579
611.005829	0.087774
611.214910	0.087875
611.423974	0.088057
611.633019	0.087983
611.842045	0.088026
612.051054	0.087823
612.260044	0.088011
612.469017	0.087864
612.677970	0.087459
612.886906	0.087155
613.095824	0.086941
613.304723	0.086792
613.513604	0.086959
613.722467	0.086868
613.931311	0.087099
614.140138	0.087188
614.348946	0.087171
614.557736	0.087483
614.766507	0.087768
614.975261	0.087749
615.183996	0.087879
615.392713	0.087561
615.601412	0.087811
615.810092	0.087544
616.018754	0.087574
616.227399	0.087759
616.436024	0.087876
616.644632	0.087843
616.853222	0.088017
617.061793	0.088216
617.270346	0.088659
617.478880	0.088865
617.687397	0.089391
617.895895	0.089551
618.104375	0.089451
618.312837	0.089451
618.521281	0.089735
618.729706	0.089825
618.938113	0.089835
619.146502	0.089795
619.354873	0.089749
619.563226	0.089562
619.771560	0.089349
619.979876	0.089424
620.188174	0.089151
620.396453	0.089043
620.604715	0.089019
620.812958	0.088758
621.021183	0.088646
621.229390	0.088555
621.437578	0.088507
621.645748	0.088651
621.853900	0.088635
622.062034	0.088803
622.270150	0.088758
622.478247	0.088743
622.686326	0.088930
622.894387	0.089159
623.102430	0.089325
623.310454	0.089126
623.518461	0.089016
623.726449	0.089206
623.934418	0.089341
624.142370	0.089422
624.350303	0.089613
624.558218	0.089813
624.766115	0.089625
624.973994	0.089495
625.181855	0.089676
625.389697	0.089742
625.597521	0.089412
625.805327	0.089315
626.013114	0.089259
626.220883	0.089107
626.428634	0.089001
626.636367	0.088949
626.844082	0.088909
627.051778	0.089041
627.259457	0.088966
627.467117	0.089181
627.674758	0.089151
627.882382	0.089164
628.089987	0.089359
628.297574	0.089356
628.505143	0.089712
628.712694	0.090012
628.920226	0.090243
629.127740	0.090578
629.335236	0.090785
629.542714	0.091046
629.750174	0.091217
629.957615	0.091299
630.165038	0.091302
630.372443	0.091254
630.579829	0.090916
630.787198	0.090640
630.994548	0.090477
631.201880	0.090529
631.409194	0.090545
631.616489	0.090434
631.823766	0.090346
632.031025	0.090468
632.238266	0.090263
632.445489	0.090708
632.652693	0.090736
632.859879	0.091050
633.067047	0.090830
633.274197	0.090721
633.481329	0.090817
633.688442	0.090759
633.895537	0.090701
634.102614	0.090878
634.309672	0.090518
634.516713	0.090584
634.723735	0.090275
634.930739	0.090488
635.137724	0.090662
635.344692	0.090602
635.551641	0.090730
635.758572	0.090730
635.965485	0.090774
636.172379	0.091048
636.379256	0.090960
636.586114	0.091205
636.792954	0.091045
636.999775	0.091167
637.206579	0.091190
637.413364	0.091170
637.620131	0.091285
637.826880	0.091333
638.033610	0.091446
638.240323	0.091679
638.447017	0.091769
638.653692	0.092152
638.860350	0.092310
639.066990	0.092622
639.273611	0.092863
639.480214	0.093017
639.686798	0.093199
639.893365	0.093340
640.099913	0.093433
640.306443	0.093352
640.512955	0.093094
640.719449	0.092966
640.925924	0.093048
641.132381	0.092941
641.338820	0.093116
641.545241	0.093166
641.751644	0.093271
641.958028	0.093533
642.164394	0.093721
642.370742	0.093960
642.577071	0.094076
642.783383	0.093933
642.989676	0.094087
643.195951	0.094080
643.402207	0.094222
643.608446	0.094243
643.814666	0.094235
644.020868	0.094306
644.227052	0.094381
644.433218	0.094468
644.639365	0.094769
644.845494	0.094933
645.051605	0.094898
645.257698	0.094969
645.463772	0.094772
645.669828	0.094501
645.875866	0.094485
646.081886	0.094486
646.287888	0.094385
646.493871	0.094372
646.699836	0.094278
646.905783	0.094384
647.111712	0.094011
647.317622	0.093895
647.523514	0.094073
647.729388	0.094060
647.935244	0.093872
648.141082	0.093937
648.346901	0.093867
648.552702	0.093963
648.758485	0.093930
648.964250	0.093934
649.169996	0.094100
649.375724	0.094391
649.581434	0.094195
649.787126	0.094411
649.992800	0.094269
650.198455	0.094196
650.404092	0.094150
650.609711	0.093917
650.815311	0.093964
651.020894	0.093918
651.226458	0.093712
651.432004	0.094037
651.637532	0.094041
651.843041	0.094087
652.048532	0.093906
652.254006	0.093659
652.459460	0.093782
652.664897	0.094032
652.870315	0.094198
653.075716	0.094463
653.281097	0.094308
653.486461	0.094320
653.691807	0.094569
653.897134	0.094865
654.102443	0.095072
654.307734	0.095371
654.513006	0.095539
654.718261	0.095757
654.923497	0.095799
655.128715	0.096047
655.333915	0.096294
655.539096	0.096307
655.744259	0.096507
655.949404	0.096668
656.154531	0.096563
656.359640	0.096578
656.564730	0.096540
656.769802	0.096391
656.974856	0.096172
657.179892	0.096130
657.384909	0.096222
657.589908	0.096423
657.794889	0.096383
657.999852	0.096592
658.204797	0.096704
658.409723	0.096899
658.614631	0.097110
658.819521	0.097323
659.024393	0.097380
659.229246	0.097401
659.434081	0.097270
659.638898	0.097289
659.843697	0.097189
660.048478	0.096948
660.253240	0.096794
660.457984	0.096579
660.662710	0.096485
660.867417	0.096606
661.072107	0.096557
661.276778	0.096600
661.481431	0.096695
661.686066	0.096870
661.890682	0.097076
662.095281	0.097143
662.299861	0.097349
662.504422	0.097619
662.708966	0.097510
662.913491	0.097568
663.117999	0.097509
663.322488	0.097849
663.526958	0.097634
663.731411	0.097591
663.935845	0.097469
664.140261	0.097415
664.344659	0.097496
664.549038	0.097657
664.753400	0.097737
664.957743	0.097882
665.162068	0.097893
665.366375	0.098180
665.570663	0.098390
665.774933	0.098605
665.979185	0.098735
666.183419	0.098696
666.387635	0.098671
666.591832	0.098575
666.796011	0.098490
667.000172	0.098331
667.204315	0.098307
667.408439	0.098377
667.612545	0.098473
667.816634	0.098646
668.020703	0.098664
668.224755	0.098877
668.428788	0.099015
668.632803	0.099062
668.836800	0.099018
669.040779	0.098977
669.244739	0.098858
669.448681	0.098806
669.652605	0.098728
669.856511	0.098703
670.060399	0.098478
670.264268	0.098488
670.468119	0.098535
670.671952	0.098542
670.875767	0.098544
671.079563	0.098808
671.283341	0.099052
671.487101	0.099069
671.690843	0.099092
671.894567	0.099252
672.098272	0.099221
672.301959	0.099239
672.505628	0.099247
672.709278	0.099518
672.912911	0.099364
673.116525	0.099180
673.320121	0.099154
673.523699	0.099058
673.727258	0.099142
673.930799	0.099212
674.134322	0.099498
674.337827	0.099592
674.541314	0.099458
674.744782	0.099476
674.948232	0.099387
675.151664	0.099422
675.355078	0.099564
675.558474	0.099595
675.761851	0.099755
675.965210	0.099572
676.168551	0.099694
676.371873	0.099624
676.575178	0.099605
676.778464	0.099522
676.981732	0.099511
677.184981	0.099605
677.388213	0.099486
677.591426	0.099571
677.794621	0.099558
677.997798	0.099537
678.200956	0.099742
678.404097	0.099741
678.607219	0.100207
678.810323	0.100466
679.013408	0.100698
679.216476	0.100989
679.419525	0.101053
679.622556	0.101278
679.825569	0.101467
680.028563	0.101430
680.231540	0.101722
680.434498	0.101797
680.637438	0.101857
680.840359	0.101784
681.043263	0.101831
681.246148	0.101922
681.449015	0.101810
681.651864	0.101795
681.854694	0.101742
682.057506	0.101676
682.260301	0.101655
682.463076	0.101548
682.665834	0.101522
682.868573	0.101392
683.071295	0.101374
683.273998	0.101500
683.476682	0.101656
683.679349	0.101751
683.881997	0.101845
684.084627	0.101808
684.287239	0.101875
684.489833	0.102028
684.692408	0.101956
684.894965	0.101664
685.097504	0.101450
685.300025	0.101268
685.502527	0.101375
685.705012	0.101436
685.907478	0.101281
686.109925	0.101340
686.312355	0.101141
686.514766	0.101247
686.717159	0.101452
686.919534	0.101627
687.121891	0.101583
687.324230	0.101516
687.526550	0.101380
687.728852	0.101377
687.931136	0.101196
688.133401	0.101240
688.335649	0.101165
688.537878	0.101100
688.740089	0.101022
688.942281	0.101095
689.144456	0.101195
689.346612	0.101308
689.548750	0.101356
689.750870	0.101336
689.952971	0.101485
690.155055	0.101567
690.357120	0.101699
690.559167	0.101875
690.761195	0.101889
690.963206	0.101863
691.165198	0.101887
691.367172	0.101946
691.569128	0.102066
691.771065	0.102121
691.972984	0.102070
692.174885	0.102014
692.376768	0.101881
692.578633	0.101914
692.780479	0.101954
692.982308	0.101972
693.184118	0.102034
693.385909	0.101962
