sample name	sample
index	846
start time	 04-08-2021  10:29:45 AM
880	0.416558
Peak Time (s)	92.536
Peak Height 	0.4166
calc peak height	90,93
Baseline Time (s)	9.535
Baseline Value 	-0.005341
subtract baseline	10,4
Abs	0.294067
Peak Time (s)	92.536
Peak Height 	0.2941
calc peak height	90,93
Baseline Time (s)	10.035
Baseline Value 	0.001615
subtract baseline	10,3
PK_550	0.155690
Peak Time (s)	92.536
Peak Height 	0.1557
calc peak height	90,93
Baseline Time (s)	8.537
Baseline Value 	2.45E-4
subtract baseline	10,2
PK_880	0.265841
Peak Time (s)	91.535
Peak Height 	0.2658
calc peak height	90,93
Baseline Time (s)	11.036
Baseline Value 	0.003039
subtract baseline	10,1


Time (s)	A880-A510	A880-A775	A880-A975	A880	I510	I775	I975	I880	
0.035000	0.000780	0.000649	0.000473	0.001179	6858.289051	42608.839328	3804.058325	22604.177932
0.535000	-0.003617	-0.000888	-0.005491	0.003858	6791.057982	42223.433715	3781.703612	22481.672468
1.035500	-0.002975	-0.000107	-0.002913	0.006337	6773.786862	42069.304348	3781.955449	22368.991818
1.535500	0.000136	0.000211	0.001181	0.000634	6857.338729	42618.622797	3807.337634	22629.182332
2.036500	0.000071	0.000742	0.004164	0.000330	6859.638593	42695.465847	3815.981718	22643.156739
2.536500	-0.001008	-0.000485	0.004302	-0.000294	6855.278446	42639.984803	3817.993319	22671.848963
3.036500	-0.002369	0.000069	-0.000145	-0.000582	6845.018632	42717.403981	3807.048529	22685.087782
3.537000	-0.000550	0.000693	0.006464	0.000776	6849.424483	42649.928362	3820.885766	22622.673305
4.040000	0.000938	0.000599	0.002502	0.001408	6857.614774	42583.185280	3808.770646	22593.677685
4.537500	-0.000008	-0.000326	-0.002908	-0.000091	6862.907506	42635.846590	3798.556219	22662.479361
5.034500	0.000388	0.000198	-0.001717	0.000120	6864.676427	42664.671974	3801.106060	22652.779981
5.534500	0.000254	-0.000721	-0.002633	-0.000263	6867.074220	42615.433461	3799.717770	22670.400043
6.036000	-0.000925	0.000151	0.004449	0.000093	6852.367596	42662.850465	3817.359267	22654.041053
6.535500	0.000124	0.000496	0.002044	0.000423	6859.246241	42664.170170	3810.152637	22638.854308
7.036000	-0.001223	0.000287	0.002572	0.000349	6847.073036	42651.835987	3811.737250	22642.279825
7.536500	-0.001182	-0.000054	0.001048	-0.000141	6852.141651	42665.490535	3809.019334	22664.801735
8.039500	0.001710	0.000692	0.000356	0.000589	6872.877934	42667.076898	3805.295014	22631.262770
8.537000	0.000817	0.000000	-0.001195	0.000013	6869.820490	42656.283779	3802.746739	22657.694675
9.037500	-0.001233	-0.000440	-0.003905	-0.000742	6857.411112	42685.321530	3797.657333	22692.479101
9.535000	-0.000320	-0.000004	0.001416	0.000000	6859.042579	42657.144967	3809.614311	22658.311390
10.035000	0.001203	0.000257	0.000000	0.000154	6872.181028	42666.982562	3805.500047	22651.210347
10.535500	0.000163	-0.000304	0.001368	-0.000040	6864.063268	42633.239515	3809.593413	22660.154549
11.035500	0.000000	0.000808	0.000509	-0.000053	6862.626471	42736.769776	3807.376555	22660.771472
11.536000	-0.001414	0.000423	-0.000904	0.000029	6848.301429	42693.784982	3803.465311	22656.970726
12.036000	-0.001286	0.000814	0.005433	0.000694	6843.171399	42668.544133	3818.370559	22626.409078
12.539500	0.000844	0.000186	0.000278	0.000015	6870.073510	42673.253676	3806.592175	22657.638752
13.037000	0.002948	0.000092	0.002927	-0.001567	6905.628228	42810.360044	3817.724492	22730.519786
13.537000	0.000140	0.000134	0.003336	-0.000932	6872.401192	42755.654146	3817.126589	22701.205218
14.034500	-0.000942	-0.000222	0.005402	0.001813	6835.775003	42470.812756	3815.332346	22575.082953
14.535000	-0.001241	0.000018	0.004975	0.002398	6827.362917	42439.183971	3812.665365	22548.312098
15.035000	0.001114	0.000442	0.001716	-0.000007	6872.881442	42698.808224	3810.421757	22658.643329
15.567000	-0.001609	0.000255	0.003719	-0.000973	6856.021450	42770.613622	3818.249219	22703.114259
16.036000	-0.002909	-0.000170	0.004140	0.001286	6822.085452	42523.860018	3813.396331	22599.251598
16.539000	0.002681	0.000762	0.002058	-0.000770	6895.332692	42798.670416	3813.328784	22693.746970
17.039500	0.000182	-0.000419	-0.002236	-0.001568	6878.923009	42763.250148	3804.156822	22730.536451
17.537000	0.002649	0.000835	0.008559	-0.000226	6889.773698	42755.272369	3829.126239	22668.727768
18.037000	-0.001863	0.000287	-0.002137	0.001395	6830.989992	42555.730634	3796.698871	22594.237065
18.537500	0.001663	0.000180	0.002690	0.001176	6866.777917	42565.995746	3809.871037	22604.282820
19.035000	0.000086	0.000550	0.000470	0.001283	6850.658163	42590.208359	3803.778688	22599.413103
19.535000	-0.000218	0.000734	0.005834	0.001589	6844.823914	42579.014327	3817.067683	22585.372546
20.035500	-0.000907	0.000397	-0.001577	0.001853	6835.731177	42523.841031	3796.964083	22573.252311
20.536000	-0.000581	0.000217	0.004152	0.000930	6847.656154	42592.031187	3814.366895	22615.598430
21.036000	0.000226	-0.000122	0.003243	0.000633	6858.207823	42588.155952	3812.753345	22629.211241
21.536000	-0.001502	0.000522	0.001547	0.001165	6836.616330	42598.412147	3806.903744	22604.798253
22.036500	0.000810	0.000590	0.000646	0.001177	6858.594642	42603.572005	3804.515127	22604.236436
22.537000	-0.000410	0.001207	0.003879	0.001290	6845.851461	42649.874822	3812.699396	22599.071740
23.037000	-0.000844	0.000676	-0.000344	0.001296	6841.645073	42600.573118	3801.620580	22598.805920
23.537500	-0.001962	0.000817	0.001654	0.001207	6831.844807	42621.731327	3807.075727	22602.892495
24.035000	-0.001792	-0.000477	0.001976	0.000513	6840.071661	42566.563377	3809.738577	22634.741383
24.535000	-0.000994	0.000588	0.005583	0.001210	6841.037398	42600.371024	3817.404729	22602.737100
25.035500	0.000712	0.001422	0.003078	0.001859	6851.129569	42617.345260	3809.098517	22572.986576
25.535500	0.000769	0.000905	0.003890	0.001618	6853.984488	42591.973582	3811.865131	22584.040483
26.036000	-0.000328	-0.000461	-0.000242	0.000857	6850.770468	42536.452144	3803.030371	22618.929109
26.536500	-0.001186	0.000193	0.001807	0.001128	6839.991471	42571.655247	3807.683029	22606.517751
27.036000	-0.001365	0.000294	-0.000738	0.001452	6835.187882	42551.131833	3800.188928	22591.641676
27.537000	-0.001853	0.000040	0.002661	0.000692	6837.781579	42597.568648	3811.066998	22626.490296
28.037500	0.003792	0.001019	0.007283	-0.001158	6909.842620	42858.249353	3828.207144	22711.638804
28.537500	0.002016	0.000529	0.005816	-0.000671	6887.951613	42768.041558	3823.003835	22689.189183
29.035500	0.000289	0.001020	-0.000782	-0.000482	6869.504473	42795.857328	3805.117024	22680.471124
29.535500	0.000600	0.000953	0.002776	-0.000689	6874.489786	42808.828320	3815.008452	22690.041733
30.035500	-0.002087	0.000462	0.005962	0.002223	6821.002913	42495.934440	3815.729571	22556.354334
30.536000	0.000121	0.000907	0.002727	0.002302	6841.256722	42529.454682	3807.015548	22552.705433
31.039000	0.000816	0.000518	0.003333	-0.001124	6880.756013	42808.790581	3817.626976	22710.090495
31.542500	0.001410	0.000603	0.002573	-0.000744	6882.817383	42781.632531	3814.617234	22692.579841
32.036500	0.000324	0.000420	0.008833	0.002599	6840.356994	42457.635825	3822.332446	22539.122164
32.549500	-0.001081	0.000489	0.000292	0.002060	6832.113886	42513.317902	3801.288716	22563.816407
33.037500	0.001310	0.000232	0.004118	-0.000940	6883.745718	42765.434356	3819.215497	22701.587275
33.540500	0.001457	-0.000312	-0.001306	-0.001683	6892.320852	42783.705703	3806.890232	22735.840328
34.035500	0.000616	0.000485	-0.000477	0.000943	6858.978793	42615.421962	3802.194659	22614.971975
34.535500	-0.001112	-0.000013	0.003927	0.002210	6830.384738	42453.583983	3810.405903	22556.915310
35.036000	0.001427	0.001314	0.006400	-0.000667	6882.236339	42840.137822	3824.548030	22689.020521
35.538500	-0.000995	-0.000075	0.000627	0.001177	6841.344571	42542.585178	3804.466980	22604.262610
36.036500	-0.000289	0.000721	0.005496	0.001323	6846.684685	42602.159885	3816.873839	22597.538836
36.537000	-0.000390	0.000996	0.001587	0.002533	6834.176985	42516.404423	3803.431503	22542.140334
37.036500	-0.001934	0.000362	0.000259	0.001226	6831.929987	42578.098867	3803.375145	22602.001596
37.537500	-0.001249	0.000333	0.001194	0.001563	6835.237686	42544.576299	3804.938810	22586.544877
38.035000	-0.001326	0.000962	0.001499	0.002196	6828.483600	42544.212393	3804.081099	22557.557047
38.535000	-0.001041	-0.000066	0.003817	0.002680	6826.584487	42405.787436	3808.881314	22535.421135
39.035500	-0.000990	0.000213	-0.000878	0.001175	6841.407418	42569.072910	3800.542499	22604.325689
39.536000	-0.000132	0.000868	0.004601	0.001867	6842.996196	42565.780303	3813.080096	22572.628165
40.035500	0.000463	0.000641	0.001073	0.001497	6852.205536	42578.872529	3804.795298	22589.570808
40.536500	-0.002427	-0.000420	0.001472	0.002391	6816.179808	42399.904600	3803.503026	22548.655952
41.037000	-0.001305	-0.000785	0.001207	0.000656	6843.354704	42525.245936	3807.346207	22628.172499
41.537000	-0.002132	-0.000151	-0.000731	0.001364	6828.733458	42518.444434	3800.436255	22595.679371
42.037000	0.000435	-0.000245	0.004384	0.001307	6853.762199	42515.085047	3813.983492	22598.295000
42.573000	-0.000552	0.000859	0.003863	0.002544	6832.532178	42502.818907	3809.359908	22541.650380
43.035000	-0.000329	0.000445	-0.000381	0.001580	6843.854322	42553.330891	3800.784955	22585.796802
43.535000	-0.001950	0.000768	0.005749	0.002015	6824.276322	42543.036866	3815.716196	22565.861284
44.035000	-0.001363	0.000451	0.002536	0.001425	6835.472623	42568.081973	3808.813388	22592.877452
44.536000	-0.001198	0.000189	0.004714	0.002039	6831.200966	42487.820117	3812.927204	22564.778230
45.036000	-0.000110	0.000689	0.005135	0.002179	6840.225963	42520.723692	3813.664400	22558.348138
45.536500	-0.000030	-0.000551	0.005801	-0.001768	6878.806899	42769.555045	3825.882235	22739.769187
46.036000	-0.001136	0.000373	0.004199	0.002521	6827.200808	42460.432653	3810.303722	22542.697126
46.548000	0.000599	0.000777	0.004244	-0.000977	6877.254782	42819.194379	3819.647958	22703.303673
47.037000	0.000302	0.000936	0.002513	-0.000636	6871.122353	42802.341542	3814.175753	22687.602671
47.537500	0.003456	0.001203	0.007435	0.000021	6895.183824	42766.370526	3825.471343	22657.355785
48.035000	-0.000619	0.000650	-0.002296	0.003627	6821.599273	42384.675993	3790.511020	22492.177374
48.535500	-0.001231	0.000524	0.003801	0.004612	6806.465613	42283.356765	3803.782061	22447.309112
49.035500	0.000563	0.000640	0.004772	0.002286	6845.627345	42506.399579	3812.425766	22553.440424
49.538500	-0.001105	-0.000051	0.003711	0.001804	6834.316811	42487.290847	3810.904638	22575.525470
50.036000	-0.000861	0.000540	0.001954	0.006075	6796.140926	42151.767679	3795.170374	22380.855046
50.536500	-0.001900	0.001042	0.004983	0.004244	6803.624281	42364.150418	3807.840655	22464.082368
51.037000	0.000632	0.000338	0.004543	-0.001047	6878.245223	42785.141901	3820.626561	22706.528922
51.537000	0.001953	0.001557	0.005591	-0.001461	6894.972455	42936.055051	3824.506562	22725.630090
52.034500	-0.000403	0.000069	-0.001512	0.004752	6812.978042	42229.156425	3789.629950	22440.939808
52.535000	-0.000888	-0.000240	0.000401	0.004940	6806.609737	42184.002621	3794.088988	22432.389090
53.035000	-0.026820	-0.006685	0.005070	0.019228	6443.232213	40344.310761	3769.454741	21793.308765
53.538000	-0.066236	-0.019049	0.024708	0.231613	4795.522741	25144.774261	3375.221941	14402.541283
54.038500	-0.063990	-0.018458	0.005072	0.085438	5649.947598	34160.418796	3613.927609	19091.344644
54.536000	-0.049826	-0.025821	-0.010515	-0.156610	8022.750462	56691.796206	4260.335834	31330.764671
55.036000	-0.035712	-0.118006	-0.002617	-0.314692	10613.639121	65535.000000	5000.825005	43908.277319
55.539500	-0.016933	-0.117958	0.001268	-0.314645	10962.509582	65535.000000	5021.516903	43903.777050
56.034000	-0.007562	-0.071216	0.003198	-0.266356	10254.154835	65311.666962	4783.390737	39566.288646
56.539000	-0.005047	-0.030786	0.009184	-0.203061	9267.375061	62101.755396	4522.070306	34564.509018
57.035000	-0.003066	-0.020722	0.013373	-0.179687	8951.623579	60309.401638	4442.012421	32894.065665
57.535000	0.011005	-0.010704	0.018223	-0.161731	8895.928940	59266.254410	4389.322845	31670.504033
58.038000	0.028581	0.001255	0.033781	-0.130542	8704.687893	56817.268262	4328.525411	29661.940710
58.538500	0.044295	0.011773	0.046086	-0.103225	8546.335386	54764.577271	4272.156375	28017.310507
59.036000	0.064544	0.024338	0.055985	-0.070160	8376.291702	52365.205206	4188.911428	26160.259609
59.539000	0.077442	0.033726	0.069034	-0.031143	8044.878087	49091.199105	4100.725165	24143.187285
60.036500	0.087255	0.040846	0.083544	0.014311	7623.618759	45173.635115	4002.297588	22010.857670
60.539500	0.097015	0.047692	0.093531	0.045772	7383.561372	42834.467408	3938.003332	20660.388487
61.035500	0.098304	0.051169	0.108377	0.100655	6839.630492	38356.609293	3826.290356	18526.448051
61.537000	0.111609	0.057224	0.113106	0.070493	7275.578261	41455.829696	3923.060592	19665.750837
62.036000	0.122711	0.063023	0.130732	0.051298	7606.292845	43750.421339	4033.973627	20433.104527
62.538000	0.128145	0.069498	0.143430	0.111283	7026.955079	38994.074303	3893.211847	18143.464989
63.035000	0.138089	0.077922	0.156296	0.156277	6691.342832	36064.854230	3805.953252	16622.113681
63.536000	0.144009	0.082079	0.169380	0.178461	6544.564205	34709.081777	3782.389563	15928.070665
64.036000	0.157342	0.091283	0.174834	0.214203	6351.142665	32812.978635	3707.421083	14881.817882
64.536000	0.160228	0.093705	0.179518	0.239917	6164.089331	31241.568609	3658.360032	14180.607644
65.036500	0.168616	0.096206	0.179417	0.245433	6187.094401	31044.281853	3645.654067	14035.542853
65.543500	0.174847	0.099679	0.183261	0.252160	6183.101605	30832.819555	3639.195443	13861.068986
66.037000	0.175816	0.102084	0.191956	0.262306	6110.248842	30336.213283	3635.961733	13603.011731
66.537500	0.175544	0.103236	0.190232	0.271556	6036.249853	29826.070843	3611.846963	13372.920887
67.038000	0.183767	0.105099	0.196441	0.272023	6096.401283	29913.367460	3624.389071	13361.440678
67.536000	0.186255	0.107235	0.196354	0.278626	6064.353430	29635.081751	3609.793137	13200.348477
68.038500	0.189517	0.108434	0.194794	0.283301	6053.417759	29420.537363	3596.388275	13087.751001
68.541500	0.189343	0.108987	0.196066	0.294003	5970.444119	28803.809123	3576.481308	12834.535225
69.036000	0.194691	0.110695	0.204813	0.294035	6010.740418	28904.638705	3594.863238	12833.782758
69.536500	0.197283	0.111704	0.214825	0.298439	5996.947406	28700.785885	3606.890310	12731.390586
70.037000	0.198010	0.112634	0.210642	0.305718	5947.562275	28323.795567	3582.476055	12564.425114
70.537000	0.195376	0.113730	0.210589	0.315273	5857.630690	27829.903506	3562.499802	12349.424879
71.037500	0.202565	0.114773	0.215751	0.315202	5910.891074	27894.401461	3573.324302	12351.007450
71.537500	0.203682	0.115465	0.215962	0.320685	5878.759375	27618.240211	3562.420843	12229.749823
72.035000	0.203598	0.117481	0.218514	0.328776	5819.442700	27272.343897	3551.103615	12053.560307
72.538000	0.207515	0.117618	0.220664	0.336354	5793.244461	26855.281520	3540.154177	11891.511966
73.035500	0.209428	0.120146	0.227258	0.337942	5795.559000	26907.574474	3550.246352	11857.900382
73.536000	0.210010	0.120718	0.226060	0.342352	5768.382869	26694.756307	3538.946339	11765.227471
74.061000	0.206715	0.120971	0.231817	0.349212	5697.432579	26332.812862	3536.742030	11622.931482
74.535500	0.210247	0.123165	0.234805	0.355763	5676.650149	26097.106145	3529.655448	11489.112577
75.053500	0.214415	0.124126	0.238280	0.356553	5699.910116	26106.332402	3534.991441	11473.123248
75.537500	0.217017	0.125473	0.236304	0.360696	5689.280086	25956.276795	3522.882018	11389.680217
76.037500	0.216364	0.126634	0.241786	0.368041	5634.701237	25627.737740	3519.229825	11243.696886
76.535000	0.218718	0.127003	0.247429	0.375189	5602.462815	25272.933519	3516.289214	11103.978866
77.038000	0.224953	0.130153	0.250468	0.374608	5648.400274	25467.535894	3523.377672	11115.253508
77.535000	0.226452	0.130234	0.248617	0.377644	5637.979191	25313.318215	3513.822532	11056.525655
78.035500	0.228408	0.130443	0.254324	0.381843	5622.840145	25106.708924	3516.760440	10975.982999
78.536000	0.230235	0.132821	0.250810	0.383543	5623.692095	25141.632808	3506.648728	10943.583697
79.039000	0.232987	0.134286	0.253001	0.387450	5615.926223	25015.950856	3503.348005	10869.631524
79.537000	0.232727	0.134612	0.254218	0.389694	5599.146223	24917.722233	3501.378474	10827.440015
80.037000	0.233556	0.136283	0.258685	0.393441	5579.723711	24811.845441	3502.759862	10757.496299
80.537000	0.235934	0.136834	0.257932	0.393924	5592.325584	24815.312696	3500.391609	10748.521624
81.037500	0.241185	0.138274	0.265719	0.396330	5611.344725	24766.230996	3510.749237	10703.966588
81.535500	0.241617	0.140176	0.268420	0.397957	5603.338184	24780.191350	3512.832740	10673.985828
82.035000	0.242429	0.139527	0.262146	0.399974	5595.291375	24645.165496	3496.885250	10636.966080
82.559500	0.244658	0.140953	0.265506	0.403125	5589.149510	24558.259592	3497.283904	10579.478121
83.035500	0.245694	0.142753	0.264988	0.401625	5606.082379	24724.844377	3499.158759	10606.803934
83.536500	0.247340	0.142952	0.273537	0.402161	5613.522007	24707.768753	3514.606688	10597.027130
84.036500	0.247809	0.143769	0.269042	0.405261	5595.913131	24592.478844	3499.957495	10540.751179
84.536500	0.246512	0.144383	0.267436	0.407062	5575.321418	24532.836698	3493.468368	10508.245990
85.037000	0.251292	0.145650	0.279887	0.404092	5627.120399	24746.644356	3523.250548	10561.932601
85.537000	0.251672	0.146162	0.273807	0.404737	5625.331121	24739.907839	3510.132846	10550.243419
86.037500	0.255080	0.147328	0.275762	0.407943	5626.689113	24636.676501	3507.712521	10492.378580
86.541500	0.253989	0.148230	0.269905	0.411248	5597.201309	24515.802622	3490.217152	10433.197411
87.038000	0.258817	0.150249	0.279546	0.408642	5647.251824	24749.147682	3513.689693	10479.833785
87.545500	0.254927	0.150018	0.283703	0.408068	5624.822758	24766.524662	3522.936345	10490.143619
88.036000	0.256873	0.150294	0.276913	0.408754	5633.321259	24745.750612	3508.371740	10477.824851
88.536000	0.257239	0.150822	0.282381	0.413215	5605.778863	24547.178867	3510.317602	10398.185666
89.036000	0.259905	0.151466	0.283998	0.410453	5642.341315	24718.994554	3518.837110	10447.387254
89.537000	0.264054	0.153201	0.285399	0.411833	5661.171222	24736.973974	3518.879025	10422.761809
90.037000	0.261379	0.153589	0.280967	0.412581	5637.914911	24718.787552	3508.809159	10409.458742
90.537500	0.261627	0.153982	0.290381	0.414840	5624.331638	24624.441928	3522.749490	10369.369537
91.037500	0.265706	0.153785	0.283466	0.413065	5664.042891	24704.184402	3512.712450	10400.849695
91.535500	0.265841	0.154485	0.284914	0.413561	5661.574444	24714.470572	3514.562363	10392.034928
92.035500	0.264630	0.155525	0.283040	0.414664	5645.830688	24711.314928	3508.788882	10372.490403
92.536000	0.265475	0.155690	0.294067	0.416558	5638.719231	24623.926006	3526.625428	10339.030877
93.036000	0.266806	0.154341	0.287741	0.414267	5663.346182	24671.511376	3518.699090	10379.518201
93.536500	0.267238	0.156223	0.289186	0.415496	5657.908239	24704.536754	3519.120810	10357.775772
94.036500	0.268790	0.155451	0.287671	0.415645	5667.486166	24658.002820	3515.873277	10355.152651
94.537000	0.268390	0.155595	0.286047	0.417638	5651.173323	24564.808406	3508.853416	10320.035956
95.037000	0.273591	0.157571	0.293342	0.417625	5686.839358	24665.030074	3523.097569	10320.260656
95.538000	0.273156	0.158132	0.294202	0.417018	5688.020813	24724.143975	3525.985747	10330.939401
96.037500	0.273687	0.159128	0.296549	0.418372	5682.358060	24706.003714	3527.945053	10307.133651
96.535000	0.269777	0.157756	0.293523	0.420247	5642.872110	24542.270543	3518.312761	10274.299563
97.035500	0.274604	0.160174	0.292799	0.420039	5677.209206	24674.582718	3517.305153	10277.935137
97.536000	0.276932	0.159078	0.296125	0.419800	5694.866354	24631.331284	3524.292635	10282.111684
