sample name	sample
index	749
start time	 03-25-2021  04:10:19 PM


Wavelength (nm)	Absorbance
494.344910	-0.033798
494.563924	-0.033798
494.782919	-0.033798
495.001897	0.239038
495.220856	0.041994
495.439797	0.019058
495.658719	0.047652
495.877624	0.008076
496.096510	0.018283
496.315378	0.046755
496.534227	0.013384
496.753059	0.040691
496.971872	0.026676
497.190667	0.160181
497.409444	0.168939
497.628203	0.168840
497.846943	0.174088
498.065665	0.172034
498.284369	0.173153
498.503055	0.173395
498.721723	0.172849
498.940372	0.173385
499.159003	0.173022
499.377616	0.173436
499.596210	0.174453
499.814787	0.173714
500.033345	0.174914
500.251885	0.172983
500.470406	0.173855
500.688910	0.173851
500.907395	0.173202
501.125862	0.172843
501.344311	0.172583
501.562742	0.172119
501.781154	0.171904
501.999548	0.171515
502.217924	0.173132
502.436282	0.172597
502.654621	0.172196
502.872942	0.173289
503.091245	0.174857
503.309530	0.173886
503.527797	0.174224
503.746045	0.174854
503.964275	0.175055
504.182487	0.175216
504.400681	0.176380
504.618856	0.177522
504.837013	0.177810
505.055152	0.177298
505.273273	0.178899
505.491376	0.178121
505.709460	0.178791
505.927526	0.179016
506.145574	0.179540
506.363604	0.180009
506.581615	0.180033
506.799608	0.179579
507.017583	0.179763
507.235540	0.179105
507.453478	0.179376
507.671399	0.178860
507.889301	0.179093
508.107185	0.178989
508.325050	0.178480
508.542898	0.178349
508.760727	0.178478
508.978538	0.179042
509.196330	0.180211
509.414105	0.180640
509.631861	0.180774
509.849599	0.181208
510.067319	0.180980
510.285021	0.181129
510.502704	0.180666
510.720369	0.180964
510.938016	0.179810
511.155645	0.179879
511.373255	0.180572
511.590848	0.180488
511.808422	0.180188
512.025977	0.180808
512.243515	0.179880
512.461034	0.180513
512.678536	0.180384
512.896018	0.180448
513.113483	0.181187
513.330930	0.182109
513.548358	0.182073
513.765768	0.184005
513.983160	0.183888
514.200533	0.185784
514.417889	0.186420
514.635226	0.186581
514.852545	0.188187
515.069845	0.188513
515.287128	0.187650
515.504392	0.188049
515.721638	0.186762
515.938866	0.187822
516.156075	0.187556
516.373267	0.187304
516.590440	0.187589
516.807594	0.186853
517.024731	0.186307
517.241850	0.187071
517.458950	0.188274
517.676032	0.187772
517.893095	0.187568
518.110141	0.187900
518.327168	0.189016
518.544177	0.189534
518.761168	0.190108
518.978141	0.190749
519.195095	0.191405
519.412031	0.191225
519.628949	0.192240
519.845849	0.191925
520.062731	0.192377
520.279594	0.192412
520.496439	0.193117
520.713266	0.193445
520.930074	0.193171
521.146865	0.192691
521.363637	0.193114
521.580391	0.193094
521.797127	0.194172
522.013844	0.193734
522.230543	0.193217
522.447224	0.192951
522.663887	0.192998
522.880532	0.193661
523.097158	0.194986
523.313766	0.195043
523.530356	0.195406
523.746928	0.194961
523.963481	0.195093
524.180017	0.196042
524.396534	0.196338
524.613032	0.196900
524.829513	0.198127
525.045975	0.197243
525.262420	0.197482
525.478845	0.198361
525.695253	0.198699
525.911643	0.199216
526.128014	0.199407
526.344367	0.199748
526.560702	0.200519
526.777018	0.199744
526.993316	0.200013
527.209597	0.200104
527.425858	0.199913
527.642102	0.200531
527.858328	0.200763
528.074535	0.201506
528.290724	0.201873
528.506894	0.201669
528.723047	0.202142
528.939181	0.202887
529.155297	0.203320
529.371395	0.204237
529.587475	0.204842
529.803536	0.205512
530.019579	0.204997
530.235604	0.205393
530.451611	0.205253
530.667600	0.206167
530.883570	0.206643
531.099522	0.206930
531.315456	0.206600
531.531372	0.206505
531.747269	0.207051
531.963148	0.207878
532.179009	0.207912
532.394852	0.208706
532.610676	0.208207
532.826482	0.207983
533.042271	0.208491
533.258040	0.209235
533.473792	0.209693
533.689525	0.210188
533.905240	0.210313
534.120937	0.211046
534.336616	0.211010
534.552277	0.211368
534.767919	0.211700
534.983543	0.211999
535.199149	0.212544
535.414736	0.212872
535.630306	0.212974
535.845857	0.213514
536.061390	0.214360
536.276904	0.214902
536.492401	0.215896
536.707879	0.216657
536.923339	0.217172
537.138781	0.217550
537.354204	0.218085
537.569610	0.217842
537.784997	0.217895
538.000366	0.217140
538.215716	0.217677
538.431049	0.217791
538.646363	0.218002
538.861659	0.218162
539.076937	0.218229
539.292196	0.218291
539.507438	0.219181
539.722661	0.219712
539.937866	0.220439
540.153052	0.220924
540.368221	0.220913
540.583371	0.221391
540.798503	0.221692
541.013617	0.222076
541.228712	0.222215
541.443789	0.221706
541.658848	0.221862
541.873889	0.222432
542.088912	0.222518
542.303916	0.223073
542.518902	0.223214
542.733870	0.223659
542.948820	0.224289
543.163752	0.225073
543.378665	0.226143
543.593560	0.226543
543.808437	0.226984
544.023295	0.227162
544.238136	0.227461
544.452958	0.227875
544.667762	0.228507
544.882548	0.227937
545.097315	0.227823
545.312064	0.228033
545.526795	0.228377
545.741508	0.228098
545.956203	0.228263
546.170879	0.228319
546.385537	0.228024
546.600177	0.227665
546.814799	0.227889
547.029402	0.228147
547.243988	0.228215
547.458555	0.228448
547.673103	0.229262
547.887634	0.229750
548.102146	0.230293
548.316640	0.231228
548.531116	0.231641
548.745574	0.232991
548.960013	0.233449
549.174435	0.234094
549.388838	0.234211
549.603222	0.234416
549.817589	0.234799
550.031937	0.235025
550.246267	0.235201
550.460579	0.235268
550.674873	0.234975
550.889148	0.235489
551.103405	0.235605
551.317644	0.236114
551.531865	0.236116
551.746068	0.236297
551.960252	0.236982
552.174418	0.237320
552.388566	0.237688
552.602696	0.237683
552.816807	0.237371
553.030900	0.237434
553.244975	0.237927
553.459032	0.238260
553.673070	0.238657
553.887091	0.238193
554.101093	0.238173
554.315077	0.238798
554.529042	0.239236
554.742990	0.239651
554.956919	0.239901
555.170830	0.239815
555.384722	0.240387
555.598597	0.240568
555.812453	0.240827
556.026291	0.240990
556.240111	0.241055
556.453913	0.241321
556.667696	0.241490
556.881461	0.242176
557.095208	0.242317
557.308937	0.242131
557.522647	0.242388
557.736339	0.242950
557.950013	0.243347
558.163669	0.243464
558.377307	0.243411
558.590926	0.243588
558.804527	0.243207
559.018110	0.243990
559.231675	0.244245
559.445221	0.244003
559.658749	0.243838
559.872259	0.243850
560.085751	0.243949
560.299225	0.244449
560.512680	0.244679
560.726117	0.245117
560.939536	0.244939
561.152937	0.245124
561.366319	0.245626
561.579683	0.246042
561.793029	0.245874
562.006357	0.246630
562.219667	0.246983
562.432958	0.247291
562.646231	0.247747
562.859486	0.248132
563.072723	0.248415
563.285941	0.248432
563.499141	0.248641
563.712323	0.249357
563.925487	0.249225
564.138632	0.248989
564.351760	0.248924
564.564869	0.249322
564.777960	0.249291
564.991032	0.249849
565.204087	0.250533
565.417123	0.250457
565.630141	0.250725
565.843140	0.250864
566.056122	0.251237
566.269085	0.252462
566.482030	0.252311
566.694957	0.252362
566.907866	0.252366
567.120756	0.252470
567.333628	0.252797
567.546482	0.253284
567.759318	0.253431
567.972135	0.253682
568.184935	0.253097
568.397716	0.252978
568.610478	0.253332
568.823223	0.253287
569.035949	0.253298
569.248657	0.253233
569.461347	0.253500
569.674019	0.253995
569.886672	0.254254
570.099308	0.254306
570.311925	0.254676
570.524523	0.254555
570.737104	0.254509
570.949666	0.254458
571.162210	0.254934
571.374736	0.254491
571.587244	0.254113
571.799733	0.254035
572.012205	0.254660
572.224658	0.255241
572.437092	0.255514
572.649509	0.256355
572.861907	0.257249
573.074287	0.257393
573.286649	0.258673
573.498993	0.258924
573.711318	0.259246
573.923625	0.259561
574.135914	0.259564
574.348185	0.259704
574.560438	0.259121
574.772672	0.258691
574.984888	0.258828
575.197086	0.258131
575.409266	0.258888
575.621427	0.258834
575.833570	0.259116
576.045695	0.259224
576.257802	0.259228
576.469890	0.259495
576.681961	0.259892
576.894013	0.260383
577.106046	0.260726
577.318062	0.260698
577.530059	0.261115
577.742039	0.261380
577.954000	0.261565
578.165942	0.262068
578.377867	0.262664
578.589773	0.262651
578.801661	0.262882
579.013531	0.262673
579.225382	0.262815
579.437216	0.262879
579.649031	0.262844
579.860828	0.262920
580.072606	0.263488
580.284367	0.263521
580.496109	0.263853
580.707833	0.264134
580.919539	0.264872
581.131227	0.265381
581.342896	0.266166
581.554547	0.266476
581.766180	0.266691
581.977795	0.266929
582.189391	0.267092
582.400969	0.267453
582.612529	0.267709
582.824071	0.267731
583.035595	0.267617
583.247100	0.267460
583.458587	0.267172
583.670056	0.267478
583.881506	0.267544
584.092939	0.268151
584.304353	0.268425
584.515749	0.268414
584.727127	0.268633
584.938486	0.269068
585.149828	0.269588
585.361151	0.269871
585.572456	0.270398
585.783742	0.270433
585.995011	0.270532
586.206261	0.270655
586.417493	0.270821
586.628706	0.271225
586.839902	0.271459
587.051079	0.271132
587.262238	0.271507
587.473379	0.271721
587.684502	0.272123
587.895606	0.272332
588.106692	0.272462
588.317760	0.272483
588.528810	0.272876
588.739841	0.273167
588.950855	0.273802
589.161850	0.274013
589.372827	0.273778
589.583785	0.274005
589.794726	0.274217
590.005648	0.274404
590.216552	0.275209
590.427437	0.275056
590.638305	0.274711
590.849154	0.275056
591.059985	0.275066
591.270798	0.275398
591.481592	0.275648
591.692369	0.275736
591.903127	0.276160
592.113867	0.275915
592.324588	0.276079
592.535292	0.276718
592.745977	0.276801
592.956644	0.277392
593.167293	0.277902
593.377923	0.278066
593.588536	0.277985
593.799130	0.278183
594.009706	0.278637
594.220263	0.278758
594.430803	0.279069
594.641324	0.279151
594.851827	0.279527
595.062312	0.279653
595.272778	0.279936
595.483227	0.280770
595.693657	0.280728
595.904069	0.280945
596.114462	0.281287
596.324838	0.281397
596.535195	0.281610
596.745534	0.281598
596.955855	0.281502
597.166157	0.281807
597.376441	0.281603
597.586707	0.282265
597.796955	0.282248
598.007185	0.282581
598.217396	0.282558
598.427589	0.282940
598.637764	0.282909
598.847921	0.282986
599.058060	0.282550
599.268180	0.283082
599.478282	0.282982
599.688366	0.283443
599.898431	0.283390
600.108479	0.283643
600.318508	0.283709
600.528519	0.283773
600.738511	0.284079
600.948486	0.284438
601.158442	0.284344
601.368380	0.284385
601.578300	0.284406
601.788202	0.284880
601.998085	0.285338
602.207950	0.285798
602.417797	0.286277
602.627626	0.286685
602.837436	0.286857
603.047228	0.287109
603.257002	0.287337
603.466758	0.288027
603.676496	0.288021
603.886215	0.288189
604.095916	0.288114
604.305599	0.288210
604.515264	0.288307
604.724910	0.288637
604.934538	0.288693
605.144148	0.288960
605.353740	0.288506
605.563314	0.288590
605.772869	0.288930
605.982406	0.289200
606.191925	0.289404
606.401425	0.289546
606.610908	0.289985
606.820372	0.290360
607.029818	0.290729
607.239246	0.291213
607.448655	0.291551
607.658047	0.291250
607.867420	0.291001
608.076775	0.291494
608.286111	0.291487
608.495430	0.291349
608.704730	0.291475
608.914012	0.291468
609.123275	0.291955
609.332521	0.292021
609.541748	0.292370
609.750957	0.292851
609.960148	0.292749
610.169321	0.293029
610.378475	0.293500
610.587611	0.293748
610.796729	0.294087
611.005829	0.294010
611.214910	0.294430
611.423974	0.294548
611.633019	0.294713
611.842045	0.294888
612.051054	0.295277
612.260044	0.295096
612.469017	0.295467
612.677970	0.295443
612.886906	0.295261
613.095824	0.295403
613.304723	0.295512
613.513604	0.295870
613.722467	0.295846
613.931311	0.295967
614.140138	0.296196
614.348946	0.296295
614.557736	0.296247
614.766507	0.296481
614.975261	0.296415
615.183996	0.296819
615.392713	0.296988
615.601412	0.297403
615.810092	0.297662
616.018754	0.297681
616.227399	0.297690
616.436024	0.297909
616.644632	0.298107
616.853222	0.298347
617.061793	0.298601
617.270346	0.298630
617.478880	0.298646
617.687397	0.298385
617.895895	0.298984
618.104375	0.299147
618.312837	0.299596
618.521281	0.299471
618.729706	0.299559
618.938113	0.299774
619.146502	0.300144
619.354873	0.300450
619.563226	0.300974
619.771560	0.300771
619.979876	0.300923
620.188174	0.300906
620.396453	0.301318
620.604715	0.301505
620.812958	0.301706
621.021183	0.301607
621.229390	0.301694
621.437578	0.301932
621.645748	0.302495
621.853900	0.302658
622.062034	0.302993
622.270150	0.303411
622.478247	0.303484
622.686326	0.303477
622.894387	0.303777
623.102430	0.304203
623.310454	0.304251
623.518461	0.304334
623.726449	0.304612
623.934418	0.304977
624.142370	0.305117
624.350303	0.305684
624.558218	0.305973
624.766115	0.306113
624.973994	0.306021
625.181855	0.306301
625.389697	0.306421
625.597521	0.306242
625.805327	0.305967
626.013114	0.305953
626.220883	0.305677
626.428634	0.305696
626.636367	0.306014
626.844082	0.306220
627.051778	0.306418
627.259457	0.306381
627.467117	0.306851
627.674758	0.307397
627.882382	0.307680
628.089987	0.308050
628.297574	0.308009
628.505143	0.307859
628.712694	0.308227
628.920226	0.308267
629.127740	0.308697
629.335236	0.308710
629.542714	0.308993
629.750174	0.309233
629.957615	0.309405
630.165038	0.309894
630.372443	0.310104
630.579829	0.310010
630.787198	0.310447
630.994548	0.310634
631.201880	0.310750
631.409194	0.310569
631.616489	0.310674
631.823766	0.310883
632.031025	0.310874
632.238266	0.311128
632.445489	0.311580
632.652693	0.311649
632.859879	0.311812
633.067047	0.312154
633.274197	0.312497
633.481329	0.312707
633.688442	0.313059
633.895537	0.313342
634.102614	0.313488
634.309672	0.313351
634.516713	0.313645
634.723735	0.313954
634.930739	0.314238
635.137724	0.314377
635.344692	0.314748
635.551641	0.314843
635.758572	0.315136
635.965485	0.315299
636.172379	0.315541
636.379256	0.315832
636.586114	0.315769
636.792954	0.316096
636.999775	0.316261
637.206579	0.316087
637.413364	0.316459
637.620131	0.316569
637.826880	0.316760
638.033610	0.317094
638.240323	0.317082
638.447017	0.317339
638.653692	0.317333
638.860350	0.317636
639.066990	0.317957
639.273611	0.317970
639.480214	0.318163
639.686798	0.318264
639.893365	0.318643
640.099913	0.318746
640.306443	0.319067
640.512955	0.319086
640.719449	0.319156
640.925924	0.319385
641.132381	0.319447
641.338820	0.319340
641.545241	0.319688
641.751644	0.319593
641.958028	0.319723
642.164394	0.319886
642.370742	0.320539
642.577071	0.320744
642.783383	0.321030
642.989676	0.321285
643.195951	0.321728
643.402207	0.321856
643.608446	0.322199
643.814666	0.322472
644.020868	0.322726
644.227052	0.322690
644.433218	0.322977
644.639365	0.323150
644.845494	0.323309
645.051605	0.323644
645.257698	0.324098
645.463772	0.324483
645.669828	0.324862
645.875866	0.325126
646.081886	0.325416
646.287888	0.325843
646.493871	0.326084
646.699836	0.326394
646.905783	0.326620
647.111712	0.326517
647.317622	0.326617
647.523514	0.326580
647.729388	0.326850
647.935244	0.326911
648.141082	0.326748
648.346901	0.326985
648.552702	0.327269
648.758485	0.327681
648.964250	0.328157
649.169996	0.328257
649.375724	0.328676
649.581434	0.328794
649.787126	0.328894
649.992800	0.329173
650.198455	0.329315
650.404092	0.329358
650.609711	0.329206
650.815311	0.329241
651.020894	0.329464
651.226458	0.329513
651.432004	0.329766
651.637532	0.330180
651.843041	0.330647
652.048532	0.330799
652.254006	0.331507
652.459460	0.332067
652.664897	0.332393
652.870315	0.332800
653.075716	0.333214
653.281097	0.333260
653.486461	0.333144
653.691807	0.333175
653.897134	0.333180
654.102443	0.332945
654.307734	0.333200
654.513006	0.333423
654.718261	0.333336
654.923497	0.333405
655.128715	0.333829
655.333915	0.334151
655.539096	0.334435
655.744259	0.334830
655.949404	0.335112
656.154531	0.334910
656.359640	0.335286
656.564730	0.335915
656.769802	0.336437
656.974856	0.336406
657.179892	0.336887
657.384909	0.336945
657.589908	0.337377
657.794889	0.337668
657.999852	0.337904
658.204797	0.337774
658.409723	0.337750
658.614631	0.337666
658.819521	0.337917
659.024393	0.337968
659.229246	0.338342
659.434081	0.338440
659.638898	0.338370
659.843697	0.338727
660.048478	0.339544
660.253240	0.339909
660.457984	0.340175
660.662710	0.340461
660.867417	0.340856
661.072107	0.340993
661.276778	0.341274
661.481431	0.341745
661.686066	0.341857
661.890682	0.341613
662.095281	0.341751
662.299861	0.342183
662.504422	0.342658
662.708966	0.342733
662.913491	0.343138
663.117999	0.343082
663.322488	0.343570
663.526958	0.343718
663.731411	0.344104
663.935845	0.344274
664.140261	0.344566
664.344659	0.344741
664.549038	0.345321
664.753400	0.345465
664.957743	0.346139
665.162068	0.346242
665.366375	0.346651
665.570663	0.346966
665.774933	0.347461
665.979185	0.347347
666.183419	0.347593
666.387635	0.347889
666.591832	0.348149
666.796011	0.348012
667.000172	0.348057
667.204315	0.348240
667.408439	0.348486
667.612545	0.348481
667.816634	0.348949
668.020703	0.349217
668.224755	0.349498
668.428788	0.349648
668.632803	0.350281
668.836800	0.350658
669.040779	0.351033
669.244739	0.351004
669.448681	0.351421
669.652605	0.351763
669.856511	0.351856
670.060399	0.351957
670.264268	0.352194
670.468119	0.352256
670.671952	0.352266
670.875767	0.352353
671.079563	0.352765
671.283341	0.352764
671.487101	0.352884
671.690843	0.353083
671.894567	0.353196
672.098272	0.353502
672.301959	0.353815
672.505628	0.354174
672.709278	0.354442
672.912911	0.354661
673.116525	0.355053
673.320121	0.354858
673.523699	0.355042
673.727258	0.355372
673.930799	0.355574
674.134322	0.355953
674.337827	0.356231
674.541314	0.356798
674.744782	0.357199
674.948232	0.357323
675.151664	0.358059
675.355078	0.358561
675.558474	0.358650
675.761851	0.359200
675.965210	0.359469
676.168551	0.359987
676.371873	0.359847
676.575178	0.360040
676.778464	0.360213
676.981732	0.360465
677.184981	0.360439
677.388213	0.360863
677.591426	0.360977
677.794621	0.360975
677.997798	0.361069
678.200956	0.361604
678.404097	0.361866
678.607219	0.362395
678.810323	0.362699
679.013408	0.363040
679.216476	0.363080
679.419525	0.363340
679.622556	0.363743
679.825569	0.364062
680.028563	0.364440
680.231540	0.364629
680.434498	0.364977
680.637438	0.365184
680.840359	0.365589
681.043263	0.365942
681.246148	0.365962
681.449015	0.365958
681.651864	0.365963
681.854694	0.366056
682.057506	0.366404
682.260301	0.366582
682.463076	0.366725
682.665834	0.366906
682.868573	0.367138
683.071295	0.367593
683.273998	0.368078
683.476682	0.368465
683.679349	0.368460
683.881997	0.368775
684.084627	0.368864
684.287239	0.369144
684.489833	0.369424
684.692408	0.369570
684.894965	0.369732
685.097504	0.370058
685.300025	0.370307
685.502527	0.370449
685.705012	0.370294
685.907478	0.370468
686.109925	0.370592
686.312355	0.370669
686.514766	0.370748
686.717159	0.370865
686.919534	0.370693
687.121891	0.370877
687.324230	0.371259
687.526550	0.371667
687.728852	0.371975
687.931136	0.372188
688.133401	0.372171
688.335649	0.372563
688.537878	0.372967
688.740089	0.373511
688.942281	0.373727
689.144456	0.373788
689.346612	0.373650
689.548750	0.373796
689.750870	0.374066
689.952971	0.374573
690.155055	0.375233
690.357120	0.375422
690.559167	0.375631
690.761195	0.375943
690.963206	0.376068
691.165198	0.376306
691.367172	0.376650
691.569128	0.376834
691.771065	0.377105
691.972984	0.376772
692.174885	0.376965
692.376768	0.377114
692.578633	0.377559
692.780479	0.377784
692.982308	0.378290
693.184118	0.378671
693.385909	0.378864
