sample name	sample
index	529
start time	 03-11-2021  04:19:28 PM


Wavelength (nm)	Absorbance
494.344910	0.453970
494.563924	0.453970
494.782919	0.453970
495.001897	NaN
495.220856	NaN
495.439797	NaN
495.658719	-2.058881
495.877624	-1.336848
496.096510	NaN
496.315378	NaN
496.534227	NaN
496.753059	-0.937330
496.971872	0.167192
497.190667	0.129362
497.409444	0.123561
497.628203	0.121507
497.846943	0.120946
498.065665	0.119642
498.284369	0.116866
498.503055	0.116907
498.721723	0.116475
498.940372	0.117012
499.159003	0.117144
499.377616	0.118280
499.596210	0.118645
499.814787	0.118409
500.033345	0.118233
500.251885	0.119513
500.470406	0.119133
500.688910	0.118788
500.907395	0.118918
501.125862	0.118588
501.344311	0.117951
501.562742	0.117742
501.781154	0.118503
501.999548	0.118398
502.217924	0.119626
502.436282	0.119616
502.654621	0.120377
502.872942	0.120104
503.091245	0.120322
503.309530	0.119649
503.527797	0.120278
503.746045	0.119603
503.964275	0.119608
504.182487	0.119444
504.400681	0.120108
504.618856	0.119150
504.837013	0.120318
505.055152	0.120545
505.273273	0.120685
505.491376	0.119828
505.709460	0.121095
505.927526	0.121852
506.145574	0.121283
506.363604	0.120858
506.581615	0.122021
506.799608	0.122064
507.017583	0.122062
507.235540	0.123084
507.453478	0.123876
507.671399	0.123636
507.889301	0.124031
508.107185	0.124507
508.325050	0.125587
508.542898	0.125762
508.760727	0.125426
508.978538	0.125707
509.196330	0.125977
509.414105	0.125662
509.631861	0.125449
509.849599	0.125209
510.067319	0.124834
510.285021	0.124480
510.502704	0.124634
510.720369	0.124360
510.938016	0.124749
511.155645	0.124388
511.373255	0.124552
511.590848	0.124453
511.808422	0.124196
512.025977	0.125038
512.243515	0.125402
512.461034	0.126174
512.678536	0.126227
512.896018	0.125483
513.113483	0.126482
513.330930	0.126411
513.548358	0.127524
513.765768	0.128098
513.983160	0.127551
514.200533	0.127831
514.417889	0.127261
514.635226	0.127705
514.852545	0.128457
515.069845	0.128073
515.287128	0.128376
515.504392	0.128105
515.721638	0.128726
515.938866	0.129573
516.156075	0.130097
516.373267	0.130376
516.590440	0.130559
516.807594	0.131095
517.024731	0.131097
517.241850	0.131693
517.458950	0.131943
517.676032	0.131552
517.893095	0.131094
518.110141	0.130349
518.327168	0.130636
518.544177	0.130448
518.761168	0.130572
518.978141	0.130830
519.195095	0.130550
519.412031	0.130468
519.628949	0.131290
519.845849	0.131779
520.062731	0.132499
520.279594	0.132821
520.496439	0.133943
520.713266	0.133574
520.930074	0.133721
521.146865	0.134205
521.363637	0.134507
521.580391	0.134304
521.797127	0.134529
522.013844	0.134688
522.230543	0.134764
522.447224	0.134219
522.663887	0.134735
522.880532	0.135405
523.097158	0.136039
523.313766	0.135477
523.530356	0.135100
523.746928	0.134924
523.963481	0.134980
524.180017	0.134390
524.396534	0.135335
524.613032	0.135077
524.829513	0.135744
525.045975	0.135230
525.262420	0.135973
525.478845	0.136534
525.695253	0.137437
525.911643	0.137606
526.128014	0.138693
526.344367	0.138115
526.560702	0.138767
526.777018	0.138603
526.993316	0.139574
527.209597	0.139949
527.425858	0.140421
527.642102	0.140378
527.858328	0.140837
528.074535	0.141597
528.290724	0.142380
528.506894	0.143063
528.723047	0.143234
528.939181	0.143295
529.155297	0.143629
529.371395	0.144451
529.587475	0.145164
529.803536	0.145095
530.019579	0.144630
530.235604	0.144012
530.451611	0.144173
530.667600	0.144706
530.883570	0.144893
531.099522	0.145474
531.315456	0.145408
531.531372	0.145753
531.747269	0.145749
531.963148	0.146083
532.179009	0.147209
532.394852	0.147155
532.610676	0.146692
532.826482	0.147270
533.042271	0.147189
533.258040	0.147100
533.473792	0.147113
533.689525	0.148516
533.905240	0.149117
534.120937	0.148644
534.336616	0.149068
534.552277	0.149537
534.767919	0.149621
534.983543	0.150587
535.199149	0.150557
535.414736	0.150820
535.630306	0.150970
535.845857	0.151070
536.061390	0.151740
536.276904	0.151884
536.492401	0.152350
536.707879	0.152630
536.923339	0.152429
537.138781	0.152735
537.354204	0.152716
537.569610	0.152725
537.784997	0.152499
538.000366	0.152598
538.215716	0.152905
538.431049	0.153028
538.646363	0.152899
538.861659	0.152945
539.076937	0.153166
539.292196	0.154111
539.507438	0.154187
539.722661	0.154447
539.937866	0.154620
540.153052	0.154814
540.368221	0.154941
540.583371	0.155505
540.798503	0.155990
541.013617	0.156329
541.228712	0.155857
541.443789	0.156433
541.658848	0.156919
541.873889	0.157615
542.088912	0.157846
542.303916	0.158465
542.518902	0.158656
542.733870	0.159028
542.948820	0.160051
543.163752	0.160658
543.378665	0.160316
543.593560	0.160298
543.808437	0.160581
544.023295	0.160895
544.238136	0.161019
544.452958	0.161151
544.667762	0.161528
544.882548	0.161550
545.097315	0.161350
545.312064	0.162034
545.526795	0.162232
545.741508	0.162252
545.956203	0.162476
546.170879	0.162479
546.385537	0.162402
546.600177	0.162062
546.814799	0.161838
547.029402	0.162454
547.243988	0.162696
547.458555	0.163580
547.673103	0.163791
547.887634	0.164477
548.102146	0.164585
548.316640	0.165169
548.531116	0.165785
548.745574	0.165955
548.960013	0.165878
549.174435	0.166040
549.388838	0.165923
549.603222	0.166505
549.817589	0.166292
550.031937	0.166424
550.246267	0.166764
550.460579	0.166730
550.674873	0.167432
550.889148	0.168142
551.103405	0.168085
551.317644	0.168036
551.531865	0.167992
551.746068	0.168053
551.960252	0.168937
552.174418	0.168844
552.388566	0.169009
552.602696	0.168978
552.816807	0.168796
553.030900	0.169122
553.244975	0.169604
553.459032	0.169676
553.673070	0.169761
553.887091	0.169584
554.101093	0.169818
554.315077	0.169810
554.529042	0.170017
554.742990	0.170163
554.956919	0.170157
555.170830	0.170097
555.384722	0.170588
555.598597	0.170869
555.812453	0.170842
556.026291	0.171180
556.240111	0.171425
556.453913	0.171286
556.667696	0.171748
556.881461	0.172319
557.095208	0.172620
557.308937	0.172856
557.522647	0.173156
557.736339	0.173646
557.950013	0.173690
558.163669	0.174073
558.377307	0.174775
558.590926	0.174759
558.804527	0.174757
559.018110	0.175183
559.231675	0.175096
559.445221	0.175166
559.658749	0.175620
559.872259	0.176028
560.085751	0.176457
560.299225	0.176570
560.512680	0.176613
560.726117	0.176842
560.939536	0.176884
561.152937	0.177218
561.366319	0.177408
561.579683	0.177277
561.793029	0.177168
562.006357	0.177114
562.219667	0.177140
562.432958	0.177084
562.646231	0.176965
562.859486	0.177003
563.072723	0.176726
563.285941	0.176999
563.499141	0.176858
563.712323	0.177167
563.925487	0.177228
564.138632	0.177395
564.351760	0.178074
564.564869	0.178470
564.777960	0.178998
564.991032	0.179395
565.204087	0.179752
565.417123	0.180229
565.630141	0.180555
565.843140	0.180318
566.056122	0.180069
566.269085	0.180199
566.482030	0.180546
566.694957	0.180415
566.907866	0.180756
567.120756	0.180408
567.333628	0.180345
567.546482	0.180261
567.759318	0.180975
567.972135	0.181567
568.184935	0.181433
568.397716	0.181249
568.610478	0.181130
568.823223	0.180788
569.035949	0.181527
569.248657	0.181560
569.461347	0.181905
569.674019	0.181911
569.886672	0.182204
570.099308	0.182739
570.311925	0.182891
570.524523	0.183330
570.737104	0.184014
570.949666	0.184168
571.162210	0.184535
571.374736	0.184298
571.587244	0.184684
571.799733	0.185051
572.012205	0.185109
572.224658	0.185621
572.437092	0.185861
572.649509	0.185751
572.861907	0.185964
573.074287	0.186355
573.286649	0.186866
573.498993	0.187134
573.711318	0.187107
573.923625	0.187137
574.135914	0.186807
574.348185	0.186867
574.560438	0.187034
574.772672	0.186732
574.984888	0.186635
575.197086	0.186655
575.409266	0.186478
575.621427	0.186429
575.833570	0.186612
576.045695	0.187103
576.257802	0.186861
576.469890	0.186924
576.681961	0.187062
576.894013	0.187241
577.106046	0.187435
577.318062	0.187643
577.530059	0.187569
577.742039	0.187607
577.954000	0.187644
578.165942	0.188002
578.377867	0.188301
578.589773	0.188915
578.801661	0.188922
579.013531	0.188909
579.225382	0.189412
579.437216	0.189717
579.649031	0.190034
579.860828	0.190017
580.072606	0.190466
580.284367	0.190944
580.496109	0.190949
580.707833	0.191549
580.919539	0.191846
581.131227	0.191921
581.342896	0.192137
581.554547	0.192068
581.766180	0.192524
581.977795	0.192726
582.189391	0.192881
582.400969	0.192823
582.612529	0.192723
582.824071	0.193046
583.035595	0.193180
583.247100	0.193244
583.458587	0.193792
583.670056	0.194140
583.881506	0.194474
584.092939	0.194433
584.304353	0.194681
584.515749	0.194761
584.727127	0.194746
584.938486	0.194639
585.149828	0.195044
585.361151	0.195136
585.572456	0.195019
585.783742	0.195110
585.995011	0.195243
586.206261	0.195533
586.417493	0.195904
586.628706	0.196158
586.839902	0.196200
587.051079	0.196630
587.262238	0.196486
587.473379	0.196549
587.684502	0.196915
587.895606	0.197251
588.106692	0.197400
588.317760	0.197261
588.528810	0.197381
588.739841	0.197650
588.950855	0.197558
589.161850	0.198245
589.372827	0.198732
589.583785	0.198544
589.794726	0.198780
590.005648	0.199010
590.216552	0.199701
590.427437	0.200440
590.638305	0.200756
590.849154	0.200684
591.059985	0.200708
591.270798	0.201030
591.481592	0.201430
591.692369	0.201720
591.903127	0.201672
592.113867	0.201235
592.324588	0.200966
592.535292	0.201015
592.745977	0.201531
592.956644	0.201505
593.167293	0.201529
593.377923	0.201441
593.588536	0.201466
593.799130	0.202006
594.009706	0.202308
594.220263	0.202715
594.430803	0.202831
594.641324	0.202927
594.851827	0.203043
595.062312	0.203090
595.272778	0.203332
595.483227	0.203150
595.693657	0.203227
595.904069	0.203416
596.114462	0.203716
596.324838	0.204022
596.535195	0.204009
596.745534	0.204432
596.955855	0.204551
597.166157	0.204828
597.376441	0.205331
597.586707	0.205163
597.796955	0.205490
598.007185	0.205646
598.217396	0.205683
598.427589	0.206032
598.637764	0.206311
598.847921	0.206345
599.058060	0.206396
599.268180	0.206685
599.478282	0.206896
599.688366	0.207139
599.898431	0.206736
600.108479	0.206973
600.318508	0.207040
600.528519	0.206996
600.738511	0.207243
600.948486	0.207293
601.158442	0.207054
601.368380	0.207447
601.578300	0.207569
601.788202	0.207675
601.998085	0.207976
602.207950	0.207968
602.417797	0.207873
602.627626	0.208267
602.837436	0.208645
603.047228	0.209193
603.257002	0.209236
603.466758	0.209118
603.676496	0.209497
603.886215	0.209544
604.095916	0.209879
604.305599	0.210249
604.515264	0.210326
604.724910	0.210383
604.934538	0.210431
605.144148	0.210636
605.353740	0.211251
605.563314	0.211306
605.772869	0.211531
605.982406	0.211616
606.191925	0.211524
606.401425	0.211618
606.610908	0.211518
606.820372	0.211554
607.029818	0.211921
607.239246	0.211911
607.448655	0.212154
607.658047	0.212160
607.867420	0.212459
608.076775	0.212787
608.286111	0.212782
608.495430	0.213018
608.704730	0.212912
608.914012	0.212694
609.123275	0.212912
609.332521	0.213157
609.541748	0.213586
609.750957	0.213619
609.960148	0.213707
610.169321	0.213902
610.378475	0.214374
610.587611	0.214336
610.796729	0.214401
611.005829	0.214231
611.214910	0.214308
611.423974	0.213997
611.633019	0.214372
611.842045	0.214403
612.051054	0.214600
612.260044	0.214358
612.469017	0.214458
612.677970	0.214672
612.886906	0.214769
613.095824	0.215109
613.304723	0.215568
613.513604	0.215342
613.722467	0.215603
613.931311	0.215514
614.140138	0.215553
614.348946	0.215962
614.557736	0.216136
614.766507	0.216414
614.975261	0.216357
615.183996	0.216586
615.392713	0.216706
615.601412	0.216844
615.810092	0.217246
616.018754	0.217321
616.227399	0.217494
616.436024	0.217436
616.644632	0.217450
616.853222	0.217497
617.061793	0.217546
617.270346	0.217898
617.478880	0.218199
617.687397	0.218189
617.895895	0.218810
618.104375	0.218749
618.312837	0.219097
618.521281	0.219547
618.729706	0.219779
618.938113	0.220004
619.146502	0.219892
619.354873	0.219979
619.563226	0.220488
619.771560	0.220214
619.979876	0.220376
620.188174	0.220582
620.396453	0.220511
620.604715	0.220663
620.812958	0.220631
621.021183	0.221019
621.229390	0.220941
621.437578	0.220758
621.645748	0.221413
621.853900	0.221726
622.062034	0.221767
622.270150	0.222070
622.478247	0.222164
622.686326	0.222141
622.894387	0.222174
623.102430	0.222634
623.310454	0.222826
623.518461	0.222481
623.726449	0.222693
623.934418	0.222802
624.142370	0.222477
624.350303	0.222382
624.558218	0.222521
624.766115	0.222571
624.973994	0.222567
625.181855	0.222633
625.389697	0.222896
625.597521	0.223151
625.805327	0.223387
626.013114	0.223866
626.220883	0.224229
626.428634	0.224578
626.636367	0.224898
626.844082	0.225098
627.051778	0.225207
627.259457	0.225193
627.467117	0.225273
627.674758	0.225583
627.882382	0.225853
628.089987	0.225917
628.297574	0.225811
628.505143	0.225986
628.712694	0.226014
628.920226	0.226364
629.127740	0.226865
629.335236	0.226907
629.542714	0.226983
629.750174	0.226906
629.957615	0.227205
630.165038	0.227602
630.372443	0.227691
630.579829	0.227821
630.787198	0.227873
630.994548	0.227983
631.201880	0.227979
631.409194	0.227852
631.616489	0.227913
631.823766	0.228009
632.031025	0.227998
632.238266	0.227762
632.445489	0.227706
632.652693	0.227816
632.859879	0.227984
633.067047	0.228236
633.274197	0.228412
633.481329	0.228936
633.688442	0.229291
633.895537	0.229523
634.102614	0.230171
634.309672	0.230719
634.516713	0.230618
634.723735	0.230629
634.930739	0.230839
635.137724	0.231061
635.344692	0.231184
635.551641	0.231043
635.758572	0.231159
635.965485	0.231001
636.172379	0.230977
636.379256	0.231548
636.586114	0.231721
636.792954	0.231677
636.999775	0.231759
637.206579	0.231687
637.413364	0.231876
637.620131	0.232070
637.826880	0.232697
638.033610	0.232880
638.240323	0.232963
638.447017	0.233289
638.653692	0.233534
638.860350	0.233705
639.066990	0.234006
639.273611	0.234057
639.480214	0.234229
639.686798	0.234084
639.893365	0.234279
640.099913	0.234392
640.306443	0.234281
640.512955	0.234443
640.719449	0.234470
640.925924	0.234413
641.132381	0.234754
641.338820	0.234988
641.545241	0.235254
641.751644	0.235186
641.958028	0.235265
642.164394	0.235462
642.370742	0.235779
642.577071	0.235906
642.783383	0.236071
642.989676	0.236112
643.195951	0.235993
643.402207	0.235882
643.608446	0.236285
643.814666	0.236497
644.020868	0.236653
644.227052	0.236633
644.433218	0.237131
644.639365	0.237448
644.845494	0.237808
645.051605	0.238073
645.257698	0.238623
645.463772	0.238805
645.669828	0.239244
645.875866	0.239347
646.081886	0.239665
646.287888	0.239499
646.493871	0.239515
646.699836	0.239405
646.905783	0.239617
647.111712	0.239478
647.317622	0.239623
647.523514	0.239553
647.729388	0.239843
647.935244	0.240087
648.141082	0.240297
648.346901	0.240688
648.552702	0.240948
648.758485	0.241249
648.964250	0.241448
649.169996	0.241891
649.375724	0.241869
649.581434	0.241852
649.787126	0.241882
649.992800	0.242457
650.198455	0.242311
650.404092	0.242587
650.609711	0.242473
650.815311	0.242556
651.020894	0.242169
651.226458	0.242706
651.432004	0.243054
651.637532	0.243273
651.843041	0.243047
652.048532	0.243305
652.254006	0.243270
652.459460	0.243647
652.664897	0.243722
652.870315	0.243823
653.075716	0.243686
653.281097	0.243785
653.486461	0.243776
653.691807	0.244115
653.897134	0.244478
654.102443	0.244805
654.307734	0.245020
654.513006	0.245531
654.718261	0.246135
654.923497	0.246381
655.128715	0.246588
655.333915	0.247063
655.539096	0.247142
655.744259	0.247387
655.949404	0.247599
656.154531	0.247629
656.359640	0.247604
656.564730	0.247875
656.769802	0.248015
656.974856	0.247981
657.179892	0.248046
657.384909	0.248638
657.589908	0.248816
657.794889	0.249032
657.999852	0.249316
658.204797	0.249661
658.409723	0.249696
658.614631	0.249988
658.819521	0.250326
659.024393	0.250585
659.229246	0.250617
659.434081	0.250441
659.638898	0.250544
659.843697	0.250947
660.048478	0.251158
660.253240	0.251391
660.457984	0.251661
660.662710	0.252040
660.867417	0.252207
661.072107	0.252348
661.276778	0.252605
661.481431	0.252948
661.686066	0.252861
661.890682	0.252835
662.095281	0.252933
662.299861	0.253213
662.504422	0.253581
662.708966	0.253645
662.913491	0.253855
663.117999	0.254159
663.322488	0.254063
663.526958	0.254348
663.731411	0.254731
663.935845	0.254829
664.140261	0.254878
664.344659	0.254804
664.549038	0.255074
664.753400	0.255239
664.957743	0.255629
665.162068	0.255956
665.366375	0.256175
665.570663	0.255965
665.774933	0.256168
665.979185	0.256565
666.183419	0.256736
666.387635	0.257009
666.591832	0.257049
666.796011	0.257287
667.000172	0.257474
667.204315	0.257561
667.408439	0.258020
667.612545	0.258294
667.816634	0.258220
668.020703	0.258434
668.224755	0.258349
668.428788	0.258628
668.632803	0.258729
668.836800	0.258946
669.040779	0.259080
669.244739	0.259495
669.448681	0.259581
669.652605	0.260016
669.856511	0.260409
670.060399	0.260926
670.264268	0.260989
670.468119	0.261043
670.671952	0.261322
670.875767	0.261505
671.079563	0.261532
671.283341	0.261723
671.487101	0.261727
671.690843	0.261879
671.894567	0.261964
672.098272	0.262407
672.301959	0.262880
672.505628	0.263036
672.709278	0.263593
672.912911	0.264026
673.116525	0.264405
673.320121	0.264684
673.523699	0.264701
673.727258	0.264749
673.930799	0.265161
674.134322	0.265363
674.337827	0.265710
674.541314	0.265717
674.744782	0.265610
674.948232	0.265822
675.151664	0.266117
675.355078	0.266598
675.558474	0.267211
675.761851	0.267154
675.965210	0.267053
676.168551	0.266968
676.371873	0.267260
676.575178	0.267496
676.778464	0.267897
676.981732	0.268037
677.184981	0.268086
677.388213	0.268008
677.591426	0.268268
677.794621	0.268796
677.997798	0.269135
678.200956	0.269345
678.404097	0.269578
678.607219	0.269626
678.810323	0.269834
679.013408	0.270014
679.216476	0.270418
679.419525	0.270527
679.622556	0.270707
679.825569	0.271099
680.028563	0.271440
680.231540	0.271629
680.434498	0.271966
680.637438	0.272120
680.840359	0.272451
681.043263	0.272750
681.246148	0.272781
681.449015	0.272882
681.651864	0.272751
681.854694	0.272829
682.057506	0.273066
682.260301	0.273335
682.463076	0.273686
682.665834	0.273766
682.868573	0.273904
683.071295	0.274174
683.273998	0.274380
683.476682	0.274812
683.679349	0.274988
683.881997	0.275360
684.084627	0.275427
684.287239	0.275367
684.489833	0.275704
684.692408	0.275829
684.894965	0.276401
685.097504	0.276551
685.300025	0.276724
685.502527	0.276806
685.705012	0.276874
685.907478	0.276824
686.109925	0.276976
686.312355	0.277012
686.514766	0.277077
686.717159	0.276985
686.919534	0.277238
687.121891	0.277488
687.324230	0.277958
687.526550	0.278141
687.728852	0.278562
687.931136	0.278881
688.133401	0.279033
688.335649	0.279320
688.537878	0.279536
688.740089	0.279692
688.942281	0.279750
689.144456	0.279727
689.346612	0.280012
689.548750	0.279986
689.750870	0.280180
689.952971	0.280465
690.155055	0.280566
690.357120	0.280568
690.559167	0.280697
690.761195	0.280852
690.963206	0.281052
691.165198	0.281223
691.367172	0.281468
691.569128	0.281684
691.771065	0.281832
691.972984	0.281915
692.174885	0.282389
692.376768	0.282782
692.578633	0.282992
692.780479	0.283084
692.982308	0.283296
693.184118	0.283308
693.385909	0.283487
693.587683	0.283618
