sample name	sample
index	1440
start time	 05-10-2021  01:00:00 PM


Wavelength (nm)	Absorbance
494.344910	0.010591
494.563924	0.010591
494.782919	0.010591
495.001897	0.031219
495.220856	0.009256
495.439797	0.011372
495.658719	0.016714
495.877624	0.010762
496.096510	0.006856
496.315378	0.000260
496.534227	0.004309
496.753059	0.010972
496.971872	-0.001144
497.190667	0.049661
497.409444	0.069672
497.628203	0.073548
497.846943	0.076924
498.065665	0.079995
498.284369	0.081346
498.503055	0.081032
498.721723	0.082188
498.940372	0.083948
499.159003	0.084562
499.377616	0.083549
499.596210	0.084178
499.814787	0.084481
500.033345	0.084559
500.251885	0.085330
500.470406	0.086398
500.688910	0.086355
500.907395	0.086540
501.125862	0.085492
501.344311	0.085525
501.562742	0.085873
501.781154	0.087005
501.999548	0.086435
502.217924	0.085737
502.436282	0.086339
502.654621	0.086288
502.872942	0.086591
503.091245	0.087279
503.309530	0.087992
503.527797	0.087873
503.746045	0.087776
503.964275	0.088319
504.182487	0.088690
504.400681	0.089033
504.618856	0.088530
504.837013	0.088656
505.055152	0.089155
505.273273	0.088843
505.491376	0.088353
505.709460	0.088215
505.927526	0.089004
506.145574	0.089333
506.363604	0.089616
506.581615	0.089769
506.799608	0.089497
507.017583	0.089197
507.235540	0.089657
507.453478	0.089617
507.671399	0.089377
507.889301	0.088679
508.107185	0.088588
508.325050	0.087583
508.542898	0.087980
508.760727	0.088572
508.978538	0.088554
509.196330	0.088242
509.414105	0.088085
509.631861	0.088284
509.849599	0.088010
510.067319	0.087757
510.285021	0.087225
510.502704	0.086550
510.720369	0.086296
510.938016	0.086430
511.155645	0.086492
511.373255	0.086794
511.590848	0.087197
511.808422	0.088049
512.025977	0.087904
512.243515	0.088570
512.461034	0.089104
512.678536	0.089157
512.896018	0.088446
513.113483	0.088019
513.330930	0.088338
513.548358	0.088524
513.765768	0.086822
513.983160	0.087793
514.200533	0.087279
514.417889	0.087317
514.635226	0.086714
514.852545	0.087499
515.069845	0.087850
515.287128	0.087117
515.504392	0.086790
515.721638	0.088133
515.938866	0.087385
516.156075	0.088327
516.373267	0.087942
516.590440	0.088981
516.807594	0.088766
517.024731	0.089668
517.241850	0.090778
517.458950	0.090594
517.676032	0.090403
517.893095	0.090883
518.110141	0.090784
518.327168	0.092817
518.544177	0.092221
518.761168	0.091980
518.978141	0.091851
519.195095	0.091560
519.412031	0.091986
519.628949	0.093018
519.845849	0.093165
520.062731	0.092869
520.279594	0.091833
520.496439	0.091998
520.713266	0.092354
520.930074	0.092293
521.146865	0.092831
521.363637	0.092523
521.580391	0.092210
521.797127	0.092278
522.013844	0.092615
522.230543	0.092848
522.447224	0.093687
522.663887	0.093873
522.880532	0.093485
523.097158	0.092934
523.313766	0.093497
523.530356	0.093386
523.746928	0.093259
523.963481	0.093645
524.180017	0.093558
524.396534	0.092934
524.613032	0.092919
524.829513	0.094066
525.045975	0.094200
525.262420	0.093700
525.478845	0.093624
525.695253	0.093933
525.911643	0.093300
526.128014	0.093289
526.344367	0.094164
526.560702	0.094735
526.777018	0.094139
526.993316	0.095081
527.209597	0.095374
527.425858	0.096184
527.642102	0.095924
527.858328	0.096867
528.074535	0.097212
528.290724	0.097213
528.506894	0.096804
528.723047	0.096777
528.939181	0.096047
529.155297	0.096300
529.371395	0.095832
529.587475	0.096247
529.803536	0.096319
530.019579	0.096012
530.235604	0.096100
530.451611	0.095987
530.667600	0.096379
530.883570	0.096497
531.099522	0.096362
531.315456	0.096661
531.531372	0.097025
531.747269	0.096651
531.963148	0.097355
532.179009	0.097401
532.394852	0.097811
532.610676	0.097693
532.826482	0.097850
533.042271	0.097938
533.258040	0.097648
533.473792	0.097973
533.689525	0.097821
533.905240	0.098026
534.120937	0.097738
534.336616	0.097573
534.552277	0.097548
534.767919	0.098121
534.983543	0.098720
535.199149	0.099074
535.414736	0.099005
535.630306	0.099781
535.845857	0.099968
536.061390	0.100650
536.276904	0.100939
536.492401	0.101107
536.707879	0.101171
536.923339	0.101138
537.138781	0.100906
537.354204	0.100853
537.569610	0.100958
537.784997	0.100628
538.000366	0.100212
538.215716	0.100440
538.431049	0.100793
538.646363	0.100695
538.861659	0.100772
539.076937	0.101070
539.292196	0.100940
539.507438	0.100887
539.722661	0.100884
539.937866	0.101258
540.153052	0.101110
540.368221	0.100810
540.583371	0.100893
540.798503	0.101077
541.013617	0.100992
541.228712	0.101219
541.443789	0.101278
541.658848	0.101538
541.873889	0.101279
542.088912	0.101512
542.303916	0.101997
542.518902	0.102398
542.733870	0.101933
542.948820	0.102411
543.163752	0.102710
543.378665	0.102752
543.593560	0.102649
543.808437	0.103122
544.023295	0.102712
544.238136	0.102387
544.452958	0.102238
544.667762	0.103062
544.882548	0.102829
545.097315	0.102674
545.312064	0.102833
545.526795	0.103012
545.741508	0.103263
545.956203	0.104356
546.170879	0.104555
546.385537	0.104982
546.600177	0.104862
546.814799	0.105189
547.029402	0.105419
547.243988	0.105738
547.458555	0.106030
547.673103	0.106152
547.887634	0.105801
548.102146	0.106782
548.316640	0.106479
548.531116	0.106449
548.745574	0.106710
548.960013	0.106460
549.174435	0.106371
549.388838	0.106229
549.603222	0.105936
549.817589	0.106059
550.031937	0.105441
550.246267	0.105860
550.460579	0.105752
550.674873	0.105982
550.889148	0.106559
551.103405	0.106639
551.317644	0.106667
551.531865	0.106791
551.746068	0.106769
551.960252	0.106826
552.174418	0.106683
552.388566	0.107216
552.602696	0.106971
552.816807	0.106749
553.030900	0.106795
553.244975	0.107187
553.459032	0.107398
553.673070	0.107515
553.887091	0.107545
554.101093	0.108036
554.315077	0.108241
554.529042	0.108562
554.742990	0.108815
554.956919	0.108595
555.170830	0.108839
555.384722	0.109302
555.598597	0.109391
555.812453	0.109631
556.026291	0.109351
556.240111	0.109279
556.453913	0.109090
556.667696	0.109191
556.881461	0.109575
557.095208	0.109557
557.308937	0.109205
557.522647	0.109578
557.736339	0.109721
557.950013	0.109529
558.163669	0.109429
558.377307	0.109663
558.590926	0.109445
558.804527	0.109495
559.018110	0.109515
559.231675	0.109775
559.445221	0.109314
559.658749	0.109271
559.872259	0.109550
560.085751	0.109439
560.299225	0.109307
560.512680	0.109656
560.726117	0.109400
560.939536	0.109321
561.152937	0.109093
561.366319	0.109217
561.579683	0.109142
561.793029	0.109273
562.006357	0.109427
562.219667	0.109762
562.432958	0.109330
562.646231	0.109684
562.859486	0.109363
563.072723	0.109343
563.285941	0.109718
563.499141	0.110004
563.712323	0.110313
563.925487	0.110354
564.138632	0.110493
564.351760	0.111044
564.564869	0.111171
564.777960	0.111279
564.991032	0.111715
565.204087	0.111444
565.417123	0.111579
565.630141	0.111129
565.843140	0.111260
566.056122	0.111128
566.269085	0.110913
566.482030	0.111036
566.694957	0.111642
566.907866	0.111510
567.120756	0.111402
567.333628	0.111439
567.546482	0.111510
567.759318	0.111743
567.972135	0.111630
568.184935	0.112244
568.397716	0.112165
568.610478	0.111766
568.823223	0.112229
569.035949	0.112696
569.248657	0.112758
569.461347	0.113156
569.674019	0.113188
569.886672	0.113436
570.099308	0.113096
570.311925	0.113274
570.524523	0.113544
570.737104	0.113079
570.949666	0.112751
571.162210	0.112988
571.374736	0.112761
571.587244	0.112780
571.799733	0.112333
572.012205	0.112464
572.224658	0.112436
572.437092	0.112599
572.649509	0.113129
572.861907	0.113594
573.074287	0.113482
573.286649	0.113828
573.498993	0.114129
573.711318	0.114514
573.923625	0.114621
574.135914	0.115138
574.348185	0.115322
574.560438	0.115096
574.772672	0.115077
574.984888	0.115012
575.197086	0.114697
575.409266	0.114480
575.621427	0.114856
575.833570	0.114991
576.045695	0.114578
576.257802	0.114659
576.469890	0.115007
576.681961	0.115591
576.894013	0.115595
577.106046	0.115836
577.318062	0.116162
577.530059	0.116109
577.742039	0.116021
577.954000	0.116467
578.165942	0.116431
578.377867	0.116344
578.589773	0.116138
578.801661	0.116371
579.013531	0.116456
579.225382	0.116317
579.437216	0.116512
579.649031	0.116849
579.860828	0.116790
580.072606	0.116884
580.284367	0.116597
580.496109	0.116629
580.707833	0.116701
580.919539	0.116903
581.131227	0.117110
581.342896	0.117133
581.554547	0.117086
581.766180	0.117021
581.977795	0.117137
582.189391	0.117349
582.400969	0.117380
582.612529	0.117452
582.824071	0.117761
583.035595	0.117646
583.247100	0.117939
583.458587	0.117940
583.670056	0.118282
583.881506	0.118628
584.092939	0.118918
584.304353	0.119296
584.515749	0.119242
584.727127	0.119621
584.938486	0.119819
585.149828	0.120037
585.361151	0.120184
585.572456	0.120402
585.783742	0.120632
585.995011	0.120910
586.206261	0.121223
586.417493	0.121836
586.628706	0.121567
586.839902	0.121688
587.051079	0.121595
587.262238	0.121611
587.473379	0.121230
587.684502	0.120885
587.895606	0.120590
588.106692	0.120171
588.317760	0.120164
588.528810	0.120392
588.739841	0.120573
588.950855	0.120971
589.161850	0.121383
589.372827	0.122047
589.583785	0.122337
589.794726	0.122732
590.005648	0.123165
590.216552	0.123195
590.427437	0.123297
590.638305	0.123259
590.849154	0.122880
591.059985	0.122837
591.270798	0.122657
591.481592	0.122398
591.692369	0.122706
591.903127	0.122568
592.113867	0.122833
592.324588	0.122963
592.535292	0.122947
592.745977	0.123188
592.956644	0.122745
593.167293	0.122641
593.377923	0.123171
593.588536	0.122535
593.799130	0.122369
594.009706	0.122095
594.220263	0.122004
594.430803	0.122371
594.641324	0.122593
594.851827	0.122934
595.062312	0.123038
595.272778	0.123292
595.483227	0.123911
595.693657	0.124268
595.904069	0.124616
596.114462	0.124643
596.324838	0.124508
596.535195	0.124501
596.745534	0.124877
596.955855	0.125295
597.166157	0.124548
597.376441	0.123934
597.586707	0.123548
597.796955	0.123577
598.007185	0.123557
598.217396	0.123668
598.427589	0.123349
598.637764	0.123562
598.847921	0.123460
599.058060	0.123830
599.268180	0.124317
599.478282	0.124838
599.688366	0.124677
599.898431	0.124879
600.108479	0.124926
600.318508	0.125617
600.528519	0.125481
600.738511	0.125326
600.948486	0.125223
601.158442	0.125158
601.368380	0.125230
601.578300	0.125392
601.788202	0.125600
601.998085	0.125588
602.207950	0.125237
602.417797	0.125048
602.627626	0.125053
602.837436	0.125272
603.047228	0.125478
603.257002	0.125231
603.466758	0.125018
603.676496	0.124966
603.886215	0.125332
604.095916	0.125485
604.305599	0.125681
604.515264	0.126059
604.724910	0.126190
604.934538	0.126177
605.144148	0.126461
605.353740	0.126599
605.563314	0.126619
605.772869	0.126354
605.982406	0.126776
606.191925	0.126864
606.401425	0.126603
606.610908	0.126503
606.820372	0.126602
607.029818	0.126496
607.239246	0.126821
607.448655	0.127002
607.658047	0.127322
607.867420	0.127217
608.076775	0.127425
608.286111	0.127662
608.495430	0.127818
608.704730	0.127943
608.914012	0.128261
609.123275	0.128140
609.332521	0.128336
609.541748	0.128546
609.750957	0.128532
609.960148	0.128686
610.169321	0.128803
610.378475	0.129043
610.587611	0.129232
610.796729	0.129023
611.005829	0.129285
611.214910	0.129106
611.423974	0.128910
611.633019	0.128952
611.842045	0.128821
612.051054	0.128963
612.260044	0.129004
612.469017	0.128857
612.677970	0.129063
612.886906	0.128920
613.095824	0.128894
613.304723	0.128997
613.513604	0.129182
613.722467	0.129437
613.931311	0.129571
614.140138	0.129641
614.348946	0.129910
614.557736	0.130122
614.766507	0.130424
614.975261	0.130594
615.183996	0.130840
615.392713	0.130833
615.601412	0.130887
615.810092	0.130674
616.018754	0.130706
616.227399	0.130533
616.436024	0.130606
616.644632	0.130586
616.853222	0.130700
617.061793	0.130936
617.270346	0.131117
617.478880	0.130975
617.687397	0.131241
617.895895	0.131093
618.104375	0.131514
618.312837	0.131576
618.521281	0.131778
618.729706	0.131915
618.938113	0.131767
619.146502	0.131651
619.354873	0.131734
619.563226	0.131747
619.771560	0.131920
619.979876	0.131708
620.188174	0.131832
620.396453	0.131890
620.604715	0.131808
620.812958	0.131767
621.021183	0.131824
621.229390	0.131806
621.437578	0.131692
621.645748	0.131619
621.853900	0.131755
622.062034	0.131692
622.270150	0.131576
622.478247	0.131748
622.686326	0.131796
622.894387	0.131926
623.102430	0.132040
623.310454	0.132216
623.518461	0.132431
623.726449	0.132611
623.934418	0.132547
624.142370	0.132626
624.350303	0.132683
624.558218	0.132671
624.766115	0.132704
624.973994	0.132772
625.181855	0.132841
625.389697	0.132715
625.597521	0.132488
625.805327	0.132624
626.013114	0.132498
626.220883	0.132223
626.428634	0.132393
626.636367	0.132337
626.844082	0.132451
627.051778	0.132402
627.259457	0.132501
627.467117	0.132579
627.674758	0.132749
627.882382	0.132871
628.089987	0.133159
628.297574	0.133215
628.505143	0.133164
628.712694	0.133242
628.920226	0.133317
629.127740	0.133699
629.335236	0.134078
629.542714	0.134027
629.750174	0.133968
629.957615	0.133944
630.165038	0.134116
630.372443	0.134315
630.579829	0.134318
630.787198	0.134266
630.994548	0.134170
631.201880	0.133971
631.409194	0.133997
631.616489	0.134313
631.823766	0.134531
632.031025	0.134455
632.238266	0.134643
632.445489	0.134493
632.652693	0.134755
632.859879	0.134938
633.067047	0.135143
633.274197	0.135301
633.481329	0.135285
633.688442	0.135144
633.895537	0.135387
634.102614	0.135514
634.309672	0.135986
634.516713	0.136099
634.723735	0.135965
634.930739	0.135930
635.137724	0.135764
635.344692	0.135812
635.551641	0.136022
635.758572	0.135996
635.965485	0.135991
636.172379	0.135791
636.379256	0.135914
636.586114	0.136266
636.792954	0.136409
636.999775	0.136698
637.206579	0.136862
637.413364	0.136849
637.620131	0.137012
637.826880	0.137087
638.033610	0.137528
638.240323	0.137340
638.447017	0.137258
638.653692	0.137410
638.860350	0.137527
639.066990	0.137657
639.273611	0.137948
639.480214	0.138077
639.686798	0.137907
639.893365	0.137925
640.099913	0.138161
640.306443	0.138382
640.512955	0.138205
640.719449	0.138526
640.925924	0.138739
641.132381	0.138801
641.338820	0.138838
641.545241	0.139026
641.751644	0.138954
641.958028	0.139302
642.164394	0.139119
642.370742	0.139402
642.577071	0.139193
642.783383	0.139096
642.989676	0.139040
643.195951	0.138978
643.402207	0.139051
643.608446	0.139017
643.814666	0.138981
644.020868	0.139301
644.227052	0.139511
644.433218	0.139655
644.639365	0.139661
644.845494	0.139835
645.051605	0.139972
645.257698	0.140129
645.463772	0.140295
645.669828	0.140307
645.875866	0.140392
646.081886	0.140450
646.287888	0.140398
646.493871	0.140674
646.699836	0.140758
646.905783	0.140775
647.111712	0.141023
647.317622	0.141062
647.523514	0.141144
647.729388	0.141291
647.935244	0.140985
648.141082	0.140889
648.346901	0.140771
648.552702	0.140801
648.758485	0.140682
648.964250	0.140467
649.169996	0.140617
649.375724	0.140518
649.581434	0.140275
649.787126	0.140509
649.992800	0.140734
650.198455	0.140923
650.404092	0.140943
650.609711	0.141100
650.815311	0.141107
651.020894	0.141019
651.226458	0.141077
651.432004	0.141298
651.637532	0.141492
651.843041	0.141542
652.048532	0.141486
652.254006	0.141288
652.459460	0.141462
652.664897	0.141745
652.870315	0.141904
653.075716	0.142049
653.281097	0.142211
653.486461	0.142337
653.691807	0.142594
653.897134	0.142678
654.102443	0.143079
654.307734	0.143191
654.513006	0.143375
654.718261	0.143519
654.923497	0.143679
655.128715	0.143780
655.333915	0.143783
655.539096	0.143811
655.744259	0.144044
655.949404	0.144098
656.154531	0.143882
656.359640	0.143616
656.564730	0.143869
656.769802	0.144033
656.974856	0.144006
657.179892	0.144019
657.384909	0.143991
657.589908	0.144015
657.794889	0.144170
657.999852	0.144494
658.204797	0.144936
658.409723	0.144767
658.614631	0.144845
658.819521	0.144952
659.024393	0.145069
659.229246	0.145149
659.434081	0.145185
659.638898	0.145276
659.843697	0.145358
660.048478	0.145390
660.253240	0.145450
660.457984	0.145283
660.662710	0.145213
660.867417	0.145454
661.072107	0.145780
661.276778	0.146009
661.481431	0.146063
661.686066	0.146132
661.890682	0.146122
662.095281	0.146337
662.299861	0.146565
662.504422	0.146804
662.708966	0.146750
662.913491	0.146713
663.117999	0.146504
663.322488	0.146370
663.526958	0.146369
663.731411	0.146378
663.935845	0.146336
664.140261	0.146185
664.344659	0.146294
664.549038	0.146478
664.753400	0.146482
664.957743	0.146683
665.162068	0.146854
665.366375	0.146959
665.570663	0.146919
665.774933	0.146919
665.979185	0.147210
666.183419	0.147109
666.387635	0.147052
666.591832	0.146969
666.796011	0.147075
667.000172	0.147171
667.204315	0.147402
667.408439	0.147613
667.612545	0.147990
667.816634	0.148113
668.020703	0.148383
668.224755	0.148673
668.428788	0.148845
668.632803	0.149134
668.836800	0.149257
669.040779	0.149426
669.244739	0.149512
669.448681	0.149400
669.652605	0.149537
669.856511	0.149535
670.060399	0.149246
670.264268	0.149496
670.468119	0.149380
670.671952	0.149471
670.875767	0.149442
671.079563	0.149654
671.283341	0.149802
671.487101	0.149836
671.690843	0.150049
671.894567	0.150410
672.098272	0.150450
672.301959	0.150548
672.505628	0.150583
672.709278	0.150514
672.912911	0.150321
673.116525	0.150451
673.320121	0.150390
673.523699	0.150270
673.727258	0.150330
673.930799	0.150324
674.134322	0.150379
674.337827	0.150367
674.541314	0.150650
674.744782	0.150840
674.948232	0.150723
675.151664	0.151071
675.355078	0.151320
675.558474	0.151216
675.761851	0.151464
675.965210	0.151615
676.168551	0.151826
676.371873	0.151833
676.575178	0.151944
676.778464	0.152145
676.981732	0.152018
677.184981	0.151923
677.388213	0.151923
677.591426	0.151779
677.794621	0.151950
677.997798	0.151856
678.200956	0.151767
678.404097	0.152012
678.607219	0.151995
678.810323	0.152115
679.013408	0.152319
679.216476	0.152630
679.419525	0.152998
679.622556	0.153071
679.825569	0.153460
680.028563	0.153755
680.231540	0.153875
680.434498	0.154219
680.637438	0.154485
680.840359	0.154652
681.043263	0.154825
681.246148	0.154864
681.449015	0.154750
681.651864	0.154787
681.854694	0.154874
682.057506	0.154642
682.260301	0.154498
682.463076	0.154349
682.665834	0.154319
682.868573	0.154299
683.071295	0.154363
683.273998	0.154545
683.476682	0.154659
683.679349	0.154729
683.881997	0.154887
684.084627	0.155094
684.287239	0.155082
684.489833	0.155206
684.692408	0.155272
684.894965	0.155072
685.097504	0.155126
685.300025	0.155028
685.502527	0.155065
685.705012	0.155031
685.907478	0.155061
686.109925	0.155160
686.312355	0.155174
686.514766	0.155271
686.717159	0.155529
686.919534	0.155462
687.121891	0.155473
687.324230	0.155506
687.526550	0.155713
687.728852	0.155566
687.931136	0.155647
688.133401	0.155672
688.335649	0.155688
688.537878	0.155650
688.740089	0.155861
688.942281	0.155955
689.144456	0.155883
689.346612	0.155887
689.548750	0.156163
689.750870	0.156429
689.952971	0.156355
690.155055	0.156370
690.357120	0.156499
690.559167	0.156385
690.761195	0.156573
690.963206	0.156900
691.165198	0.156995
691.367172	0.157115
691.569128	0.156884
691.771065	0.157196
691.972984	0.157304
692.174885	0.157463
692.376768	0.157570
692.578633	0.157640
692.780479	0.157636
692.982308	0.157609
693.184118	0.157648
693.385909	0.157828
