sample name	sample
index	1028
start time	 04-19-2021  12:30:50 PM


Wavelength (nm)	Absorbance
494.344910	-0.100226
494.563924	-0.100226
494.782919	-0.100226
495.001897	0.045953
495.220856	-0.037768
495.439797	-0.027944
495.658719	-0.011562
495.877624	-0.000571
496.096510	0.002279
496.315378	0.003682
496.534227	0.000346
496.753059	0.016021
496.971872	0.003006
497.190667	0.065378
497.409444	0.085757
497.628203	0.094019
497.846943	0.099053
498.065665	0.102272
498.284369	0.104034
498.503055	0.105916
498.721723	0.107277
498.940372	0.107696
499.159003	0.107135
499.377616	0.107912
499.596210	0.108652
499.814787	0.108695
500.033345	0.107752
500.251885	0.107618
500.470406	0.106765
500.688910	0.105395
500.907395	0.106510
501.125862	0.106673
501.344311	0.106555
501.562742	0.105262
501.781154	0.105424
501.999548	0.105585
502.217924	0.106272
502.436282	0.106140
502.654621	0.105538
502.872942	0.105415
503.091245	0.105387
503.309530	0.105095
503.527797	0.105564
503.746045	0.105095
503.964275	0.104767
504.182487	0.104532
504.400681	0.105283
504.618856	0.106130
504.837013	0.106569
505.055152	0.106350
505.273273	0.106304
505.491376	0.106066
505.709460	0.106292
505.927526	0.106942
506.145574	0.105991
506.363604	0.106076
506.581615	0.105848
506.799608	0.104999
507.017583	0.104815
507.235540	0.105578
507.453478	0.105501
507.671399	0.105796
507.889301	0.106314
508.107185	0.106913
508.325050	0.107170
508.542898	0.108178
508.760727	0.109396
508.978538	0.109818
509.196330	0.109951
509.414105	0.110294
509.631861	0.110718
509.849599	0.110072
510.067319	0.109949
510.285021	0.109282
510.502704	0.108584
510.720369	0.108249
510.938016	0.107490
511.155645	0.107517
511.373255	0.108449
511.590848	0.107870
511.808422	0.108106
512.025977	0.108329
512.243515	0.108858
512.461034	0.109695
512.678536	0.109336
512.896018	0.110371
513.113483	0.110009
513.330930	0.109193
513.548358	0.109032
513.765768	0.108894
513.983160	0.109868
514.200533	0.110036
514.417889	0.109603
514.635226	0.110379
514.852545	0.110677
515.069845	0.110889
515.287128	0.111296
515.504392	0.111641
515.721638	0.111728
515.938866	0.110821
516.156075	0.110788
516.373267	0.111152
516.590440	0.110972
516.807594	0.110900
517.024731	0.110825
517.241850	0.110558
517.458950	0.110679
517.676032	0.111346
517.893095	0.111698
518.110141	0.112223
518.327168	0.112088
518.544177	0.112216
518.761168	0.112269
518.978141	0.111976
519.195095	0.112335
519.412031	0.112672
519.628949	0.111886
519.845849	0.111854
520.062731	0.112342
520.279594	0.112834
520.496439	0.112775
520.713266	0.113045
520.930074	0.114204
521.146865	0.113843
521.363637	0.114297
521.580391	0.114708
521.797127	0.115424
522.013844	0.114851
522.230543	0.114539
522.447224	0.114630
522.663887	0.114198
522.880532	0.114104
523.097158	0.114755
523.313766	0.113907
523.530356	0.114051
523.746928	0.113992
523.963481	0.114628
524.180017	0.114666
524.396534	0.115209
524.613032	0.115742
524.829513	0.115981
525.045975	0.116410
525.262420	0.117062
525.478845	0.117645
525.695253	0.117491
525.911643	0.117147
526.128014	0.117900
526.344367	0.117819
526.560702	0.117957
526.777018	0.118222
526.993316	0.118163
527.209597	0.117985
527.425858	0.117816
527.642102	0.118319
527.858328	0.118469
528.074535	0.118158
528.290724	0.118224
528.506894	0.118289
528.723047	0.118083
528.939181	0.118216
529.155297	0.118415
529.371395	0.118446
529.587475	0.118247
529.803536	0.118491
530.019579	0.119111
530.235604	0.119890
530.451611	0.120709
530.667600	0.120846
530.883570	0.120670
531.099522	0.121395
531.315456	0.121835
531.531372	0.122253
531.747269	0.122148
531.963148	0.121207
532.179009	0.120422
532.394852	0.120285
532.610676	0.120973
532.826482	0.121191
533.042271	0.121057
533.258040	0.121581
533.473792	0.121834
533.689525	0.121987
533.905240	0.122561
534.120937	0.122891
534.336616	0.122715
534.552277	0.122873
534.767919	0.123007
534.983543	0.123321
535.199149	0.122848
535.414736	0.122930
535.630306	0.123443
535.845857	0.123762
536.061390	0.123920
536.276904	0.124433
536.492401	0.124076
536.707879	0.124407
536.923339	0.124012
537.138781	0.124147
537.354204	0.124224
537.569610	0.124506
537.784997	0.124504
538.000366	0.124874
538.215716	0.124516
538.431049	0.124721
538.646363	0.124571
538.861659	0.125030
539.076937	0.125040
539.292196	0.125128
539.507438	0.124873
539.722661	0.125367
539.937866	0.125534
540.153052	0.126059
540.368221	0.126269
540.583371	0.125855
540.798503	0.126059
541.013617	0.126528
541.228712	0.126565
541.443789	0.126757
541.658848	0.126706
541.873889	0.126594
542.088912	0.126384
542.303916	0.126081
542.518902	0.126986
542.733870	0.127188
542.948820	0.127164
543.163752	0.127276
543.378665	0.127010
543.593560	0.127044
543.808437	0.127411
544.023295	0.127679
544.238136	0.127605
544.452958	0.127625
544.667762	0.127306
544.882548	0.127115
545.097315	0.126907
545.312064	0.127187
545.526795	0.127082
545.741508	0.127010
545.956203	0.127427
546.170879	0.127526
546.385537	0.127783
546.600177	0.127987
546.814799	0.128392
547.029402	0.128816
547.243988	0.129070
547.458555	0.129801
547.673103	0.129533
547.887634	0.129113
548.102146	0.129348
548.316640	0.129422
548.531116	0.129739
548.745574	0.129603
548.960013	0.129606
549.174435	0.129826
549.388838	0.129449
549.603222	0.129866
549.817589	0.130336
550.031937	0.130930
550.246267	0.130653
550.460579	0.130799
550.674873	0.130920
550.889148	0.130884
551.103405	0.130876
551.317644	0.131097
551.531865	0.131111
551.746068	0.130826
551.960252	0.130758
552.174418	0.130915
552.388566	0.131003
552.602696	0.130911
552.816807	0.131094
553.030900	0.131367
553.244975	0.131200
553.459032	0.131048
553.673070	0.131607
553.887091	0.131991
554.101093	0.131881
554.315077	0.131538
554.529042	0.131818
554.742990	0.131753
554.956919	0.131694
555.170830	0.131892
555.384722	0.131874
555.598597	0.131326
555.812453	0.131216
556.026291	0.131654
556.240111	0.131947
556.453913	0.132264
556.667696	0.132812
556.881461	0.132822
557.095208	0.132812
557.308937	0.133184
557.522647	0.133277
557.736339	0.133077
557.950013	0.132879
558.163669	0.132879
558.377307	0.132780
558.590926	0.132863
558.804527	0.132769
559.018110	0.132603
559.231675	0.132643
559.445221	0.132849
559.658749	0.133228
559.872259	0.133422
560.085751	0.133529
560.299225	0.133361
560.512680	0.133144
560.726117	0.132733
560.939536	0.132930
561.152937	0.132959
561.366319	0.132807
561.579683	0.132725
561.793029	0.132612
562.006357	0.132782
562.219667	0.133232
562.432958	0.133385
562.646231	0.134198
562.859486	0.134074
563.072723	0.134134
563.285941	0.134511
563.499141	0.134318
563.712323	0.134428
563.925487	0.134055
564.138632	0.133948
564.351760	0.133576
564.564869	0.133282
564.777960	0.133472
564.991032	0.133523
565.204087	0.133294
565.417123	0.133350
565.630141	0.133502
565.843140	0.133576
566.056122	0.133623
566.269085	0.133755
566.482030	0.133867
566.694957	0.133484
566.907866	0.133473
567.120756	0.133661
567.333628	0.133496
567.546482	0.133568
567.759318	0.133466
567.972135	0.133015
568.184935	0.133205
568.397716	0.133112
568.610478	0.133742
568.823223	0.133830
569.035949	0.134069
569.248657	0.134340
569.461347	0.134343
569.674019	0.134260
569.886672	0.134530
570.099308	0.134584
570.311925	0.134604
570.524523	0.134619
570.737104	0.134454
570.949666	0.134132
571.162210	0.134316
571.374736	0.133835
571.587244	0.134619
571.799733	0.134690
572.012205	0.134680
572.224658	0.134633
572.437092	0.134380
572.649509	0.134574
572.861907	0.134799
573.074287	0.134588
573.286649	0.135099
573.498993	0.134878
573.711318	0.134644
573.923625	0.134747
574.135914	0.135027
574.348185	0.135353
574.560438	0.135133
574.772672	0.135264
574.984888	0.135009
575.197086	0.135239
575.409266	0.135426
575.621427	0.135606
575.833570	0.135472
576.045695	0.135500
576.257802	0.135525
576.469890	0.135678
576.681961	0.135881
576.894013	0.136350
577.106046	0.135979
577.318062	0.135735
577.530059	0.135941
577.742039	0.135881
577.954000	0.136203
578.165942	0.136214
578.377867	0.136442
578.589773	0.136131
578.801661	0.136225
579.013531	0.136574
579.225382	0.136545
579.437216	0.136496
579.649031	0.136933
579.860828	0.136699
580.072606	0.136867
580.284367	0.137130
580.496109	0.137142
580.707833	0.137285
580.919539	0.137153
581.131227	0.137230
581.342896	0.137163
581.554547	0.136889
581.766180	0.136872
581.977795	0.136796
582.189391	0.136567
582.400969	0.136869
582.612529	0.136710
582.824071	0.136838
583.035595	0.137230
583.247100	0.137361
583.458587	0.137469
583.670056	0.137326
583.881506	0.137417
584.092939	0.137713
584.304353	0.137708
584.515749	0.137588
584.727127	0.137874
584.938486	0.137715
585.149828	0.138192
585.361151	0.138546
585.572456	0.139079
585.783742	0.139349
585.995011	0.139353
586.206261	0.139463
586.417493	0.139710
586.628706	0.139274
586.839902	0.139481
587.051079	0.139634
587.262238	0.139758
587.473379	0.139757
587.684502	0.139607
587.895606	0.139821
588.106692	0.140220
588.317760	0.140426
588.528810	0.140805
588.739841	0.141092
588.950855	0.140982
589.161850	0.141120
589.372827	0.141416
589.583785	0.141461
589.794726	0.141465
590.005648	0.141305
590.216552	0.141529
590.427437	0.141912
590.638305	0.141797
590.849154	0.141995
591.059985	0.141584
591.270798	0.141620
591.481592	0.141849
591.692369	0.142073
591.903127	0.141932
592.113867	0.141878
592.324588	0.141888
592.535292	0.141905
592.745977	0.141829
592.956644	0.142090
593.167293	0.141954
593.377923	0.142072
593.588536	0.141724
593.799130	0.142093
594.009706	0.142179
594.220263	0.142335
594.430803	0.142182
594.641324	0.142260
594.851827	0.142237
595.062312	0.141859
595.272778	0.141691
595.483227	0.141962
595.693657	0.141735
595.904069	0.141571
596.114462	0.141958
596.324838	0.142535
596.535195	0.142609
596.745534	0.142901
596.955855	0.143714
597.166157	0.143842
597.376441	0.143891
597.586707	0.144017
597.796955	0.144254
598.007185	0.143871
598.217396	0.143919
598.427589	0.143923
598.637764	0.143910
598.847921	0.143331
599.058060	0.143406
599.268180	0.143415
599.478282	0.143565
599.688366	0.143666
599.898431	0.143794
600.108479	0.143568
600.318508	0.143714
600.528519	0.143934
600.738511	0.144460
600.948486	0.144856
601.158442	0.145138
601.368380	0.145550
601.578300	0.145503
601.788202	0.145396
601.998085	0.145677
602.207950	0.146130
602.417797	0.146222
602.627626	0.146272
602.837436	0.146189
603.047228	0.146207
603.257002	0.145905
603.466758	0.146312
603.676496	0.146566
603.886215	0.146508
604.095916	0.146459
604.305599	0.146085
604.515264	0.145775
604.724910	0.145627
604.934538	0.145401
605.144148	0.145429
605.353740	0.145043
605.563314	0.144654
605.772869	0.144644
605.982406	0.144100
606.191925	0.144243
606.401425	0.144305
606.610908	0.144492
606.820372	0.144758
607.029818	0.144843
607.239246	0.145032
607.448655	0.145119
607.658047	0.145175
607.867420	0.145587
608.076775	0.145711
608.286111	0.145911
608.495430	0.145906
608.704730	0.145825
608.914012	0.145841
609.123275	0.145844
609.332521	0.146118
609.541748	0.146160
609.750957	0.145869
609.960148	0.145955
610.169321	0.145932
610.378475	0.145822
610.587611	0.146004
610.796729	0.145894
611.005829	0.146015
611.214910	0.145785
611.423974	0.145920
611.633019	0.146115
611.842045	0.146035
612.051054	0.146066
612.260044	0.146086
612.469017	0.146075
612.677970	0.146190
612.886906	0.146169
613.095824	0.146408
613.304723	0.146154
613.513604	0.146233
613.722467	0.146299
613.931311	0.146523
614.140138	0.146442
614.348946	0.146416
614.557736	0.146383
614.766507	0.146686
614.975261	0.146873
615.183996	0.147162
615.392713	0.147084
615.601412	0.147117
615.810092	0.147301
616.018754	0.147583
616.227399	0.147692
616.436024	0.147888
616.644632	0.147747
616.853222	0.147710
617.061793	0.148021
617.270346	0.148008
617.478880	0.148273
617.687397	0.148136
617.895895	0.148223
618.104375	0.148171
618.312837	0.148268
618.521281	0.148217
618.729706	0.148392
618.938113	0.147944
619.146502	0.148352
619.354873	0.148148
619.563226	0.148221
619.771560	0.147952
619.979876	0.147982
620.188174	0.148086
620.396453	0.147996
620.604715	0.147871
620.812958	0.148091
621.021183	0.148016
621.229390	0.148109
621.437578	0.148030
621.645748	0.148234
621.853900	0.148324
622.062034	0.148565
622.270150	0.148895
622.478247	0.149092
622.686326	0.149108
622.894387	0.149222
623.102430	0.149699
623.310454	0.149799
623.518461	0.150072
623.726449	0.150432
623.934418	0.150267
624.142370	0.150188
624.350303	0.150033
624.558218	0.150131
624.766115	0.150189
624.973994	0.149935
625.181855	0.149929
625.389697	0.149955
625.597521	0.149887
625.805327	0.149737
626.013114	0.149784
626.220883	0.149832
626.428634	0.149802
626.636367	0.149708
626.844082	0.149823
627.051778	0.149847
627.259457	0.149888
627.467117	0.149763
627.674758	0.149694
627.882382	0.149975
628.089987	0.150023
628.297574	0.150085
628.505143	0.150436
628.712694	0.150369
628.920226	0.150625
629.127740	0.150743
629.335236	0.150866
629.542714	0.151210
629.750174	0.151165
629.957615	0.151230
630.165038	0.151462
630.372443	0.151406
630.579829	0.151615
630.787198	0.151901
630.994548	0.151936
631.201880	0.152289
631.409194	0.152302
631.616489	0.152374
631.823766	0.152674
632.031025	0.152848
632.238266	0.152904
632.445489	0.153107
632.652693	0.153014
632.859879	0.153134
633.067047	0.153157
633.274197	0.153470
633.481329	0.153446
633.688442	0.153767
633.895537	0.153811
634.102614	0.153922
634.309672	0.154061
634.516713	0.154128
634.723735	0.154301
634.930739	0.154373
635.137724	0.154124
635.344692	0.154441
635.551641	0.154506
635.758572	0.154427
635.965485	0.154379
636.172379	0.154363
636.379256	0.154405
636.586114	0.154468
636.792954	0.154420
636.999775	0.154549
637.206579	0.154439
637.413364	0.154133
637.620131	0.154352
637.826880	0.154510
638.033610	0.154158
638.240323	0.154215
638.447017	0.154076
638.653692	0.154075
638.860350	0.154000
639.066990	0.154115
639.273611	0.154191
639.480214	0.154298
639.686798	0.154445
639.893365	0.154834
640.099913	0.155027
640.306443	0.155294
640.512955	0.155286
640.719449	0.155781
640.925924	0.155786
641.132381	0.155688
641.338820	0.155452
641.545241	0.155539
641.751644	0.155708
641.958028	0.155783
642.164394	0.155605
642.370742	0.155900
642.577071	0.155722
642.783383	0.155787
642.989676	0.156196
643.195951	0.156459
643.402207	0.156615
643.608446	0.156462
643.814666	0.156513
644.020868	0.156754
644.227052	0.156834
644.433218	0.156956
644.639365	0.157124
644.845494	0.157111
645.051605	0.157185
645.257698	0.157188
645.463772	0.157561
645.669828	0.157529
645.875866	0.157703
646.081886	0.157672
646.287888	0.157695
646.493871	0.157728
646.699836	0.157743
646.905783	0.157718
647.111712	0.157861
647.317622	0.157839
647.523514	0.158055
647.729388	0.158017
647.935244	0.158154
648.141082	0.158345
648.346901	0.158383
648.552702	0.158654
648.758485	0.158991
648.964250	0.158822
649.169996	0.158805
649.375724	0.159010
649.581434	0.159264
649.787126	0.159345
649.992800	0.159333
650.198455	0.159430
650.404092	0.159543
650.609711	0.159378
650.815311	0.159744
651.020894	0.159759
651.226458	0.159692
651.432004	0.159550
651.637532	0.159562
651.843041	0.159701
652.048532	0.159709
652.254006	0.159711
652.459460	0.159916
652.664897	0.159716
652.870315	0.159940
653.075716	0.160016
653.281097	0.160191
653.486461	0.160321
653.691807	0.160571
653.897134	0.160876
654.102443	0.160803
654.307734	0.160811
654.513006	0.161004
654.718261	0.161107
654.923497	0.161124
655.128715	0.161107
655.333915	0.161314
655.539096	0.161136
655.744259	0.161199
655.949404	0.161468
656.154531	0.161714
656.359640	0.161927
656.564730	0.161805
656.769802	0.161952
656.974856	0.162332
657.179892	0.162315
657.384909	0.162685
657.589908	0.162719
657.794889	0.162964
657.999852	0.163087
658.204797	0.163106
658.409723	0.163378
658.614631	0.163613
658.819521	0.163462
659.024393	0.163583
659.229246	0.163515
659.434081	0.163658
659.638898	0.163644
659.843697	0.163649
660.048478	0.163966
660.253240	0.164166
660.457984	0.164075
660.662710	0.164211
660.867417	0.164457
661.072107	0.164583
661.276778	0.164878
661.481431	0.164881
661.686066	0.164851
661.890682	0.164829
662.095281	0.164862
662.299861	0.164952
662.504422	0.164984
662.708966	0.164923
662.913491	0.165098
663.117999	0.164902
663.322488	0.164808
663.526958	0.165059
663.731411	0.164782
663.935845	0.164719
664.140261	0.164973
664.344659	0.165063
664.549038	0.164916
664.753400	0.164961
664.957743	0.165010
665.162068	0.165342
665.366375	0.165344
665.570663	0.165555
665.774933	0.165830
665.979185	0.165577
666.183419	0.165703
666.387635	0.165817
666.591832	0.165792
666.796011	0.165725
667.000172	0.165758
667.204315	0.165634
667.408439	0.165789
667.612545	0.165839
667.816634	0.166307
668.020703	0.166344
668.224755	0.166593
668.428788	0.166830
668.632803	0.167379
668.836800	0.167325
669.040779	0.167593
669.244739	0.167748
669.448681	0.167802
669.652605	0.167529
669.856511	0.167648
670.060399	0.167683
670.264268	0.167701
670.468119	0.167646
670.671952	0.167887
670.875767	0.168002
671.079563	0.168006
671.283341	0.168033
671.487101	0.168282
671.690843	0.168399
671.894567	0.168588
672.098272	0.168479
672.301959	0.168476
672.505628	0.168509
672.709278	0.168699
672.912911	0.168814
673.116525	0.168963
673.320121	0.169071
673.523699	0.169187
673.727258	0.169313
673.930799	0.169385
674.134322	0.169413
674.337827	0.169311
674.541314	0.169098
674.744782	0.169179
674.948232	0.169135
675.151664	0.169241
675.355078	0.169250
675.558474	0.169257
675.761851	0.169371
675.965210	0.169616
676.168551	0.169888
676.371873	0.170201
676.575178	0.170266
676.778464	0.170416
676.981732	0.170363
677.184981	0.170543
677.388213	0.170499
677.591426	0.170705
677.794621	0.170571
677.997798	0.170670
678.200956	0.170682
678.404097	0.170783
678.607219	0.170913
678.810323	0.171196
679.013408	0.171182
679.216476	0.171335
679.419525	0.171419
679.622556	0.171432
679.825569	0.171381
680.028563	0.171347
680.231540	0.171373
680.434498	0.171363
680.637438	0.171268
680.840359	0.171513
681.043263	0.171500
681.246148	0.171629
681.449015	0.171778
681.651864	0.171740
681.854694	0.171982
682.057506	0.171971
682.260301	0.171947
682.463076	0.171995
682.665834	0.171988
682.868573	0.172015
683.071295	0.172011
683.273998	0.172078
683.476682	0.172268
683.679349	0.172195
683.881997	0.172543
684.084627	0.172677
684.287239	0.172725
684.489833	0.172627
684.692408	0.172741
684.894965	0.172950
685.097504	0.173117
685.300025	0.173365
685.502527	0.173461
685.705012	0.173531
685.907478	0.173627
686.109925	0.173857
686.312355	0.173897
686.514766	0.174106
686.717159	0.173943
686.919534	0.173953
687.121891	0.173973
687.324230	0.174251
687.526550	0.174252
687.728852	0.174333
687.931136	0.174318
688.133401	0.174666
688.335649	0.174672
688.537878	0.174765
688.740089	0.174782
688.942281	0.174520
689.144456	0.174466
689.346612	0.174382
689.548750	0.174402
689.750870	0.174605
689.952971	0.174625
690.155055	0.174575
690.357120	0.174568
690.559167	0.174614
690.761195	0.174810
690.963206	0.174543
691.165198	0.174588
691.367172	0.174553
691.569128	0.174223
691.771065	0.174158
691.972984	0.174155
692.174885	0.174225
692.376768	0.174395
692.578633	0.174708
692.780479	0.174988
692.982308	0.175088
693.184118	0.175322
693.385909	0.175521
