sample name	sample
index	328
start time	 02-25-2021  03:42:44 PM


Wavelength (nm)	Absorbance
494.344910	-0.659836
494.563924	-0.659836
494.782919	-0.659836
495.001897	NaN
495.220856	-0.373873
495.439797	-0.245246
495.658719	-0.133481
495.877624	0.182314
496.096510	0.117541
496.315378	0.243290
496.534227	0.727332
496.753059	0.526791
496.971872	0.766757
497.190667	0.159876
497.409444	0.149062
497.628203	0.145886
497.846943	0.144030
498.065665	0.145194
498.284369	0.144706
498.503055	0.146430
498.721723	0.146652
498.940372	0.146878
499.159003	0.147339
499.377616	0.149034
499.596210	0.150868
499.814787	0.151667
500.033345	0.150336
500.251885	0.150772
500.470406	0.149895
500.688910	0.150289
500.907395	0.149935
501.125862	0.150164
501.344311	0.149485
501.562742	0.149656
501.781154	0.149248
501.999548	0.150671
502.217924	0.150566
502.436282	0.151132
502.654621	0.150886
502.872942	0.151443
503.091245	0.150503
503.309530	0.150694
503.527797	0.150025
503.746045	0.150652
503.964275	0.150258
504.182487	0.149761
504.400681	0.149498
504.618856	0.149734
504.837013	0.148685
505.055152	0.149835
505.273273	0.150097
505.491376	0.149471
505.709460	0.149855
505.927526	0.150599
506.145574	0.151453
506.363604	0.150774
506.581615	0.152079
506.799608	0.152498
507.017583	0.151503
507.235540	0.151688
507.453478	0.152588
507.671399	0.151680
507.889301	0.151511
508.107185	0.151647
508.325050	0.152393
508.542898	0.151389
508.760727	0.152931
508.978538	0.154130
509.196330	0.153717
509.414105	0.152982
509.631861	0.154265
509.849599	0.154540
510.067319	0.154530
510.285021	0.154879
510.502704	0.156522
510.720369	0.155775
510.938016	0.157222
511.155645	0.157739
511.373255	0.158579
511.590848	0.158616
511.808422	0.159192
512.025977	0.159380
512.243515	0.159521
512.461034	0.159475
512.678536	0.160876
512.896018	0.159880
513.113483	0.159787
513.330930	0.160575
513.548358	0.160706
513.765768	0.161019
513.983160	0.162557
514.200533	0.162843
514.417889	0.162592
514.635226	0.162224
514.852545	0.162487
515.069845	0.162231
515.287128	0.162188
515.504392	0.161949
515.721638	0.162247
515.938866	0.161596
516.156075	0.161977
516.373267	0.160611
516.590440	0.160188
516.807594	0.159662
517.024731	0.160465
517.241850	0.161162
517.458950	0.161727
517.676032	0.161313
517.893095	0.161873
518.110141	0.161340
518.327168	0.163005
518.544177	0.164322
518.761168	0.165139
518.978141	0.165552
519.195095	0.165502
519.412031	0.166192
519.628949	0.166166
519.845849	0.166488
520.062731	0.167012
520.279594	0.166439
520.496439	0.166242
520.713266	0.166983
520.930074	0.167148
521.146865	0.167275
521.363637	0.167430
521.580391	0.167982
521.797127	0.167855
522.013844	0.167774
522.230543	0.168920
522.447224	0.168901
522.663887	0.167871
522.880532	0.168322
523.097158	0.169099
523.313766	0.169517
523.530356	0.170102
523.746928	0.170102
523.963481	0.171215
524.180017	0.171074
524.396534	0.171759
524.613032	0.173405
524.829513	0.173636
525.045975	0.173507
525.262420	0.173902
525.478845	0.173886
525.695253	0.174728
525.911643	0.174376
526.128014	0.174890
526.344367	0.174830
526.560702	0.174256
526.777018	0.174521
526.993316	0.175112
527.209597	0.175162
527.425858	0.175574
527.642102	0.175324
527.858328	0.176250
528.074535	0.176901
528.290724	0.177291
528.506894	0.177969
528.723047	0.178119
528.939181	0.177580
529.155297	0.177466
529.371395	0.177637
529.587475	0.178281
529.803536	0.178756
530.019579	0.179255
530.235604	0.180025
530.451611	0.180665
530.667600	0.181144
530.883570	0.181608
531.099522	0.181795
531.315456	0.182130
531.531372	0.182244
531.747269	0.182576
531.963148	0.182843
532.179009	0.182581
532.394852	0.182471
532.610676	0.182255
532.826482	0.182513
533.042271	0.182966
533.258040	0.183215
533.473792	0.184154
533.689525	0.184183
533.905240	0.184199
534.120937	0.184677
534.336616	0.185237
534.552277	0.186307
534.767919	0.186605
534.983543	0.186217
535.199149	0.187477
535.414736	0.187130
535.630306	0.187260
535.845857	0.187515
536.061390	0.187583
536.276904	0.187512
536.492401	0.187432
536.707879	0.187874
536.923339	0.189145
537.138781	0.188408
537.354204	0.189171
537.569610	0.189345
537.784997	0.189301
538.000366	0.190177
538.215716	0.190577
538.431049	0.190653
538.646363	0.190619
538.861659	0.190459
539.076937	0.190943
539.292196	0.190357
539.507438	0.190800
539.722661	0.191205
539.937866	0.190776
540.153052	0.191287
540.368221	0.192097
540.583371	0.192911
540.798503	0.193741
541.013617	0.194199
541.228712	0.194507
541.443789	0.194645
541.658848	0.194911
541.873889	0.195655
542.088912	0.195857
542.303916	0.195965
542.518902	0.195988
542.733870	0.195596
542.948820	0.196150
543.163752	0.197171
543.378665	0.197254
543.593560	0.197855
543.808437	0.198291
544.023295	0.198631
544.238136	0.198919
544.452958	0.199384
544.667762	0.200327
544.882548	0.200922
545.097315	0.201068
545.312064	0.202276
545.526795	0.202279
545.741508	0.202424
545.956203	0.202515
546.170879	0.202754
546.385537	0.202942
546.600177	0.202866
546.814799	0.202794
547.029402	0.202985
547.243988	0.202392
547.458555	0.202486
547.673103	0.202388
547.887634	0.202725
548.102146	0.203003
548.316640	0.203257
548.531116	0.203680
548.745574	0.203551
548.960013	0.203428
549.174435	0.204073
549.388838	0.204726
549.603222	0.205014
549.817589	0.205161
550.031937	0.205353
550.246267	0.206096
550.460579	0.205959
550.674873	0.206391
550.889148	0.206938
551.103405	0.206884
551.317644	0.206450
551.531865	0.206809
551.746068	0.207248
551.960252	0.207527
552.174418	0.207095
552.388566	0.207404
552.602696	0.207628
552.816807	0.207910
553.030900	0.208557
553.244975	0.209118
553.459032	0.209222
553.673070	0.209596
553.887091	0.209603
554.101093	0.210174
554.315077	0.210278
554.529042	0.210434
554.742990	0.210676
554.956919	0.210914
555.170830	0.211485
555.384722	0.212106
555.598597	0.211915
555.812453	0.212494
556.026291	0.212311
556.240111	0.212571
556.453913	0.213081
556.667696	0.213113
556.881461	0.212959
557.095208	0.212930
557.308937	0.212927
557.522647	0.213195
557.736339	0.212895
557.950013	0.213240
558.163669	0.213471
558.377307	0.213236
558.590926	0.213883
558.804527	0.214372
559.018110	0.214534
559.231675	0.214750
559.445221	0.214946
559.658749	0.215466
559.872259	0.216038
560.085751	0.216812
560.299225	0.217240
560.512680	0.216871
560.726117	0.217021
560.939536	0.217237
561.152937	0.217509
561.366319	0.218124
561.579683	0.218300
561.793029	0.218229
562.006357	0.217819
562.219667	0.218255
562.432958	0.218999
562.646231	0.218684
562.859486	0.218997
563.072723	0.219264
563.285941	0.219120
563.499141	0.219353
563.712323	0.219559
563.925487	0.220003
564.138632	0.219633
564.351760	0.219149
564.564869	0.219771
564.777960	0.219929
564.991032	0.219699
565.204087	0.220147
565.417123	0.220394
565.630141	0.220963
565.843140	0.221100
566.056122	0.221413
566.269085	0.221930
566.482030	0.222199
566.694957	0.222178
566.907866	0.222696
567.120756	0.222824
567.333628	0.222974
567.546482	0.222849
567.759318	0.223328
567.972135	0.223734
568.184935	0.224096
568.397716	0.224155
568.610478	0.224618
568.823223	0.224876
569.035949	0.224919
569.248657	0.225088
569.461347	0.225103
569.674019	0.224908
569.886672	0.224941
570.099308	0.225213
570.311925	0.225434
570.524523	0.225812
570.737104	0.225864
570.949666	0.226258
571.162210	0.226210
571.374736	0.226652
571.587244	0.227028
571.799733	0.227466
572.012205	0.227740
572.224658	0.227770
572.437092	0.227683
572.649509	0.228136
572.861907	0.228569
573.074287	0.228721
573.286649	0.228989
573.498993	0.229435
573.711318	0.229527
573.923625	0.229583
574.135914	0.230150
574.348185	0.230332
574.560438	0.230527
574.772672	0.230159
574.984888	0.230490
575.197086	0.230429
575.409266	0.230410
575.621427	0.230414
575.833570	0.230591
576.045695	0.230834
576.257802	0.231281
576.469890	0.231262
576.681961	0.231719
576.894013	0.232148
577.106046	0.232321
577.318062	0.232445
577.530059	0.232844
577.742039	0.233185
577.954000	0.233121
578.165942	0.232906
578.377867	0.233234
578.589773	0.233595
578.801661	0.233738
579.013531	0.234160
579.225382	0.234424
579.437216	0.234701
579.649031	0.234835
579.860828	0.235349
580.072606	0.235790
580.284367	0.235875
580.496109	0.236010
580.707833	0.235989
580.919539	0.235919
581.131227	0.236141
581.342896	0.236110
581.554547	0.236097
581.766180	0.236424
581.977795	0.236466
582.189391	0.236503
582.400969	0.236979
582.612529	0.237852
582.824071	0.238346
583.035595	0.238729
583.247100	0.239369
583.458587	0.239837
583.670056	0.239845
583.881506	0.240398
584.092939	0.240891
584.304353	0.240648
584.515749	0.240391
584.727127	0.240627
584.938486	0.240811
585.149828	0.240452
585.361151	0.240774
585.572456	0.240865
585.783742	0.240639
585.995011	0.240779
586.206261	0.241023
586.417493	0.241133
586.628706	0.241481
586.839902	0.241681
587.051079	0.242333
587.262238	0.242209
587.473379	0.242260
587.684502	0.242789
587.895606	0.243075
588.106692	0.243380
588.317760	0.243680
588.528810	0.243699
588.739841	0.243990
588.950855	0.244093
589.161850	0.244917
589.372827	0.245457
589.583785	0.245831
589.794726	0.246040
590.005648	0.246364
590.216552	0.246616
590.427437	0.246920
590.638305	0.246985
590.849154	0.247033
591.059985	0.246981
591.270798	0.246886
591.481592	0.246721
591.692369	0.246826
591.903127	0.247299
592.113867	0.247599
592.324588	0.247870
592.535292	0.247696
592.745977	0.248192
592.956644	0.247778
593.167293	0.248405
593.377923	0.248719
593.588536	0.248823
593.799130	0.248790
594.009706	0.248862
594.220263	0.248932
594.430803	0.249405
594.641324	0.249604
594.851827	0.250548
595.062312	0.250187
595.272778	0.250684
595.483227	0.251005
595.693657	0.250976
595.904069	0.250849
596.114462	0.250792
596.324838	0.251197
596.535195	0.251170
596.745534	0.251135
596.955855	0.251565
597.166157	0.251415
597.376441	0.251579
597.586707	0.251721
597.796955	0.252487
598.007185	0.253145
598.217396	0.253144
598.427589	0.253211
598.637764	0.253337
598.847921	0.253479
599.058060	0.254301
599.268180	0.254403
599.478282	0.254935
599.688366	0.255009
599.898431	0.254953
600.108479	0.255142
600.318508	0.255455
600.528519	0.255565
600.738511	0.255811
600.948486	0.255406
601.158442	0.255502
601.368380	0.255228
601.578300	0.255373
601.788202	0.255520
601.998085	0.255930
602.207950	0.256410
602.417797	0.256560
602.627626	0.256765
602.837436	0.256912
603.047228	0.257179
603.257002	0.257395
603.466758	0.257367
603.676496	0.257318
603.886215	0.257115
604.095916	0.257437
604.305599	0.257673
604.515264	0.257819
604.724910	0.258163
604.934538	0.258302
605.144148	0.258465
605.353740	0.258710
605.563314	0.259335
605.772869	0.259616
605.982406	0.259385
606.191925	0.259672
606.401425	0.259752
606.610908	0.259960
606.820372	0.260141
607.029818	0.260483
607.239246	0.260836
607.448655	0.261083
607.658047	0.261363
607.867420	0.261786
608.076775	0.261932
608.286111	0.262325
608.495430	0.262245
608.704730	0.262351
608.914012	0.262576
609.123275	0.262531
609.332521	0.262376
609.541748	0.262656
609.750957	0.262504
609.960148	0.262452
610.169321	0.262821
610.378475	0.263126
610.587611	0.263396
610.796729	0.263541
611.005829	0.264014
611.214910	0.264163
611.423974	0.264282
611.633019	0.264550
611.842045	0.264716
612.051054	0.264591
612.260044	0.264631
612.469017	0.264880
612.677970	0.264956
612.886906	0.265159
613.095824	0.265389
613.304723	0.265439
613.513604	0.265564
613.722467	0.265902
613.931311	0.265696
614.140138	0.265955
614.348946	0.266129
614.557736	0.266577
614.766507	0.266510
614.975261	0.266705
615.183996	0.267039
615.392713	0.267164
615.601412	0.267541
615.810092	0.267846
616.018754	0.267874
616.227399	0.267999
616.436024	0.268054
616.644632	0.268100
616.853222	0.268249
617.061793	0.268281
617.270346	0.268428
617.478880	0.268519
617.687397	0.268786
617.895895	0.269156
618.104375	0.269373
618.312837	0.269265
618.521281	0.269542
618.729706	0.269803
618.938113	0.269785
619.146502	0.270112
619.354873	0.269983
619.563226	0.270054
619.771560	0.269770
619.979876	0.269538
620.188174	0.269724
620.396453	0.269985
620.604715	0.269929
620.812958	0.270080
621.021183	0.270215
621.229390	0.270258
621.437578	0.270424
621.645748	0.271032
621.853900	0.271486
622.062034	0.271795
622.270150	0.271784
622.478247	0.271952
622.686326	0.272259
622.894387	0.272440
623.102430	0.272562
623.310454	0.272847
623.518461	0.272968
623.726449	0.273158
623.934418	0.273175
624.142370	0.273037
624.350303	0.273298
624.558218	0.273558
624.766115	0.273529
624.973994	0.273813
625.181855	0.273864
625.389697	0.274093
625.597521	0.274185
625.805327	0.274530
626.013114	0.274934
626.220883	0.275208
626.428634	0.275443
626.636367	0.275799
626.844082	0.275832
627.051778	0.276181
627.259457	0.276417
627.467117	0.276368
627.674758	0.276285
627.882382	0.276594
628.089987	0.276585
628.297574	0.276403
628.505143	0.276483
628.712694	0.276656
628.920226	0.277008
629.127740	0.276982
629.335236	0.277241
629.542714	0.277483
629.750174	0.277653
629.957615	0.277810
630.165038	0.278273
630.372443	0.278079
630.579829	0.278345
630.787198	0.278276
630.994548	0.278375
631.201880	0.278711
631.409194	0.278784
631.616489	0.278815
631.823766	0.278893
632.031025	0.279229
632.238266	0.279540
632.445489	0.279900
632.652693	0.280234
632.859879	0.280662
633.067047	0.281027
633.274197	0.281480
633.481329	0.281885
633.688442	0.282427
633.895537	0.282131
634.102614	0.282637
634.309672	0.282706
634.516713	0.282702
634.723735	0.282830
634.930739	0.283168
635.137724	0.283520
635.344692	0.283616
635.551641	0.283455
635.758572	0.283765
635.965485	0.283591
636.172379	0.283797
636.379256	0.283682
636.586114	0.283734
636.792954	0.283477
636.999775	0.283204
637.206579	0.283039
637.413364	0.283362
637.620131	0.283593
637.826880	0.283822
638.033610	0.284169
638.240323	0.284624
638.447017	0.284696
638.653692	0.284800
638.860350	0.285146
639.066990	0.285491
639.273611	0.285774
639.480214	0.285890
639.686798	0.286158
639.893365	0.286345
640.099913	0.286638
640.306443	0.287024
640.512955	0.287365
640.719449	0.287667
640.925924	0.287844
641.132381	0.287969
641.338820	0.288240
641.545241	0.288486
641.751644	0.288252
641.958028	0.288396
642.164394	0.288528
642.370742	0.288712
642.577071	0.288733
642.783383	0.289171
642.989676	0.289062
643.195951	0.289325
643.402207	0.289480
643.608446	0.289884
643.814666	0.290215
644.020868	0.290565
644.227052	0.290687
644.433218	0.290834
644.639365	0.290927
644.845494	0.291331
645.051605	0.291365
645.257698	0.291392
645.463772	0.291592
645.669828	0.291641
645.875866	0.291608
646.081886	0.291873
646.287888	0.292170
646.493871	0.292136
646.699836	0.292282
646.905783	0.292516
647.111712	0.293019
647.317622	0.293195
647.523514	0.293246
647.729388	0.293407
647.935244	0.293795
648.141082	0.293910
648.346901	0.294615
648.552702	0.294840
648.758485	0.295313
648.964250	0.295413
649.169996	0.295722
649.375724	0.295934
649.581434	0.296328
649.787126	0.296223
649.992800	0.296591
650.198455	0.296137
650.404092	0.296163
650.609711	0.295990
650.815311	0.296135
651.020894	0.296084
651.226458	0.296249
651.432004	0.296302
651.637532	0.296531
651.843041	0.296639
652.048532	0.297122
652.254006	0.297351
652.459460	0.297576
652.664897	0.297812
652.870315	0.298336
653.075716	0.298633
653.281097	0.298871
653.486461	0.299377
653.691807	0.299591
653.897134	0.300008
654.102443	0.300587
654.307734	0.300923
654.513006	0.301126
654.718261	0.301338
654.923497	0.301756
655.128715	0.301894
655.333915	0.301960
655.539096	0.302113
655.744259	0.302152
655.949404	0.302128
656.154531	0.302244
656.359640	0.302485
656.564730	0.302696
656.769802	0.302647
656.974856	0.303021
657.179892	0.303140
657.384909	0.303334
657.589908	0.303695
657.794889	0.304122
657.999852	0.304451
658.204797	0.304622
658.409723	0.304708
658.614631	0.304963
658.819521	0.304941
659.024393	0.305364
659.229246	0.305642
659.434081	0.305587
659.638898	0.305535
659.843697	0.305597
660.048478	0.306085
660.253240	0.306081
660.457984	0.306283
660.662710	0.306609
660.867417	0.306615
661.072107	0.306654
661.276778	0.307233
661.481431	0.307423
661.686066	0.307914
661.890682	0.307769
662.095281	0.308398
662.299861	0.308719
662.504422	0.309017
662.708966	0.309306
662.913491	0.309785
663.117999	0.309767
663.322488	0.310030
663.526958	0.310043
663.731411	0.310339
663.935845	0.310423
664.140261	0.310557
664.344659	0.310863
664.549038	0.311196
664.753400	0.311187
664.957743	0.311513
665.162068	0.311988
665.366375	0.312072
665.570663	0.312229
665.774933	0.312415
665.979185	0.312525
666.183419	0.312457
666.387635	0.312615
666.591832	0.312865
666.796011	0.312987
667.000172	0.313064
667.204315	0.313560
667.408439	0.313928
667.612545	0.314089
667.816634	0.314456
668.020703	0.314745
668.224755	0.314852
668.428788	0.315100
668.632803	0.315370
668.836800	0.315456
669.040779	0.315618
669.244739	0.315793
669.448681	0.315961
669.652605	0.315991
669.856511	0.316132
670.060399	0.316491
670.264268	0.316873
670.468119	0.317123
670.671952	0.317388
670.875767	0.317330
671.079563	0.317556
671.283341	0.317820
671.487101	0.318229
671.690843	0.318775
671.894567	0.319033
672.098272	0.319191
672.301959	0.319614
672.505628	0.319953
672.709278	0.320333
672.912911	0.320562
673.116525	0.320786
673.320121	0.320995
673.523699	0.321141
673.727258	0.321058
673.930799	0.321333
674.134322	0.321296
674.337827	0.321284
674.541314	0.321653
674.744782	0.321865
674.948232	0.321989
675.151664	0.322330
675.355078	0.322452
675.558474	0.322802
675.761851	0.323054
675.965210	0.323257
676.168551	0.323813
676.371873	0.323913
676.575178	0.324117
676.778464	0.324434
676.981732	0.324711
677.184981	0.324934
677.388213	0.325264
677.591426	0.325416
677.794621	0.325371
677.997798	0.325302
678.200956	0.325631
678.404097	0.325933
678.607219	0.326305
678.810323	0.326400
679.013408	0.326884
679.216476	0.327294
679.419525	0.327381
679.622556	0.327741
679.825569	0.328217
680.028563	0.328148
680.231540	0.328257
680.434498	0.328439
680.637438	0.328988
680.840359	0.329263
681.043263	0.329127
681.246148	0.329512
681.449015	0.329866
681.651864	0.330200
681.854694	0.330844
682.057506	0.331071
682.260301	0.331262
682.463076	0.331149
682.665834	0.331113
682.868573	0.331468
683.071295	0.331628
683.273998	0.331679
683.476682	0.331478
683.679349	0.331417
683.881997	0.331670
684.084627	0.331960
684.287239	0.332080
684.489833	0.332159
684.692408	0.332206
684.894965	0.332268
685.097504	0.332750
685.300025	0.332993
685.502527	0.333239
685.705012	0.333639
685.907478	0.333790
686.109925	0.333890
686.312355	0.334288
686.514766	0.334706
686.717159	0.335171
686.919534	0.335131
687.121891	0.335286
687.324230	0.335499
687.526550	0.335459
687.728852	0.335576
687.931136	0.336091
688.133401	0.336214
688.335649	0.336197
688.537878	0.336197
688.740089	0.336610
688.942281	0.336989
689.144456	0.337074
689.346612	0.337313
689.548750	0.337370
689.750870	0.337365
689.952971	0.337428
690.155055	0.337782
690.357120	0.337915
690.559167	0.337912
690.761195	0.338197
690.963206	0.338295
691.165198	0.338489
691.367172	0.338764
691.569128	0.338948
691.771065	0.339326
691.972984	0.339595
692.174885	0.339926
692.376768	0.340253
692.578633	0.340317
692.780479	0.340738
692.982308	0.340903
693.184118	0.340960
693.385909	0.341501
