sample name	sample
index	602
start time	 03-16-2021  05:13:01 PM


Wavelength (nm)	Absorbance
494.344910	-0.624746
494.563924	-0.624746
494.782919	-0.624746
495.001897	-0.483185
495.220856	-0.178156
495.439797	-0.090570
495.658719	0.075811
495.877624	0.205648
496.096510	0.174618
496.315378	0.020356
496.534227	-0.005749
496.753059	0.033054
496.971872	0.079226
497.190667	0.071888
497.409444	0.073109
497.628203	0.072652
497.846943	0.072146
498.065665	0.075119
498.284369	0.075249
498.503055	0.075507
498.721723	0.073358
498.940372	0.073330
499.159003	0.074331
499.377616	0.074835
499.596210	0.075094
499.814787	0.074373
500.033345	0.074601
500.251885	0.074341
500.470406	0.073360
500.688910	0.074648
500.907395	0.074067
501.125862	0.072917
501.344311	0.072309
501.562742	0.071694
501.781154	0.072012
501.999548	0.071152
502.217924	0.072165
502.436282	0.071771
502.654621	0.071101
502.872942	0.071089
503.091245	0.072270
503.309530	0.073231
503.527797	0.072905
503.746045	0.073016
503.964275	0.072322
504.182487	0.070689
504.400681	0.072146
504.618856	0.072238
504.837013	0.072147
505.055152	0.071162
505.273273	0.071193
505.491376	0.072018
505.709460	0.072257
505.927526	0.072587
506.145574	0.073733
506.363604	0.073346
506.581615	0.074293
506.799608	0.074686
507.017583	0.075419
507.235540	0.075455
507.453478	0.075273
507.671399	0.075634
507.889301	0.076020
508.107185	0.075944
508.325050	0.076115
508.542898	0.075335
508.760727	0.075144
508.978538	0.073992
509.196330	0.073237
509.414105	0.073641
509.631861	0.074221
509.849599	0.074954
510.067319	0.075007
510.285021	0.075649
510.502704	0.076200
510.720369	0.076577
510.938016	0.076469
511.155645	0.076479
511.373255	0.076241
511.590848	0.076147
511.808422	0.075203
512.025977	0.075329
512.243515	0.074995
512.461034	0.075280
512.678536	0.075554
512.896018	0.077115
513.113483	0.076994
513.330930	0.076386
513.548358	0.076420
513.765768	0.076770
513.983160	0.076017
514.200533	0.075301
514.417889	0.074389
514.635226	0.073959
514.852545	0.072467
515.069845	0.072880
515.287128	0.074477
515.504392	0.074214
515.721638	0.073815
515.938866	0.075206
516.156075	0.076043
516.373267	0.077007
516.590440	0.077412
516.807594	0.078236
517.024731	0.078510
517.241850	0.076739
517.458950	0.076514
517.676032	0.077133
517.893095	0.076888
518.110141	0.077148
518.327168	0.076927
518.544177	0.076999
518.761168	0.077749
518.978141	0.077153
519.195095	0.078417
519.412031	0.078556
519.628949	0.078599
519.845849	0.078923
520.062731	0.078710
520.279594	0.078935
520.496439	0.079225
520.713266	0.079267
520.930074	0.080308
521.146865	0.080511
521.363637	0.080937
521.580391	0.081190
521.797127	0.080911
522.013844	0.080743
522.230543	0.081696
522.447224	0.081403
522.663887	0.081287
522.880532	0.081045
523.097158	0.080634
523.313766	0.081052
523.530356	0.080602
523.746928	0.080488
523.963481	0.080861
524.180017	0.080079
524.396534	0.080157
524.613032	0.080372
524.829513	0.081066
525.045975	0.081801
525.262420	0.082271
525.478845	0.082830
525.695253	0.083785
525.911643	0.083422
526.128014	0.083580
526.344367	0.084039
526.560702	0.084363
526.777018	0.084033
526.993316	0.083437
527.209597	0.083114
527.425858	0.082616
527.642102	0.081443
527.858328	0.082363
528.074535	0.081910
528.290724	0.082142
528.506894	0.081612
528.723047	0.082055
528.939181	0.082641
529.155297	0.082130
529.371395	0.082449
529.587475	0.082672
529.803536	0.081723
530.019579	0.081712
530.235604	0.081656
530.451611	0.081019
530.667600	0.080111
530.883570	0.080064
531.099522	0.080321
531.315456	0.080063
531.531372	0.081321
531.747269	0.082158
531.963148	0.082182
532.179009	0.082073
532.394852	0.082904
532.610676	0.084075
532.826482	0.083951
533.042271	0.084025
533.258040	0.085100
533.473792	0.084995
533.689525	0.085126
533.905240	0.086984
534.120937	0.087324
534.336616	0.087674
534.552277	0.087637
534.767919	0.087894
534.983543	0.087785
535.199149	0.087111
535.414736	0.086942
535.630306	0.086621
535.845857	0.085917
536.061390	0.085625
536.276904	0.085581
536.492401	0.084871
536.707879	0.085055
536.923339	0.085340
537.138781	0.086324
537.354204	0.086527
537.569610	0.086947
537.784997	0.087327
538.000366	0.088028
538.215716	0.088827
538.431049	0.089770
538.646363	0.090213
538.861659	0.090709
539.076937	0.090063
539.292196	0.089921
539.507438	0.090279
539.722661	0.090377
539.937866	0.090846
540.153052	0.090191
540.368221	0.090515
540.583371	0.090305
540.798503	0.090436
541.013617	0.091197
541.228712	0.091618
541.443789	0.091527
541.658848	0.091212
541.873889	0.090954
542.088912	0.091888
542.303916	0.091946
542.518902	0.092577
542.733870	0.092719
542.948820	0.092689
543.163752	0.092730
543.378665	0.092444
543.593560	0.093034
543.808437	0.092480
544.023295	0.092034
544.238136	0.091921
544.452958	0.091850
544.667762	0.091752
544.882548	0.091676
545.097315	0.092111
545.312064	0.092626
545.526795	0.092660
545.741508	0.093345
545.956203	0.093327
546.170879	0.093187
546.385537	0.092990
546.600177	0.094191
546.814799	0.094686
547.029402	0.094679
547.243988	0.094999
547.458555	0.094793
547.673103	0.094897
547.887634	0.095344
548.102146	0.095470
548.316640	0.095628
548.531116	0.094901
548.745574	0.095080
548.960013	0.095300
549.174435	0.094899
549.388838	0.094876
549.603222	0.095169
549.817589	0.095544
550.031937	0.095594
550.246267	0.095940
550.460579	0.096149
550.674873	0.096039
550.889148	0.095421
551.103405	0.096518
551.317644	0.096858
551.531865	0.096857
551.746068	0.096635
551.960252	0.096659
552.174418	0.097243
552.388566	0.097568
552.602696	0.098123
552.816807	0.098859
553.030900	0.098687
553.244975	0.099226
553.459032	0.099539
553.673070	0.099891
553.887091	0.099934
554.101093	0.099207
554.315077	0.098716
554.529042	0.098838
554.742990	0.099355
554.956919	0.099166
555.170830	0.098739
555.384722	0.098747
555.598597	0.098585
555.812453	0.098984
556.026291	0.099147
556.240111	0.100072
556.453913	0.099724
556.667696	0.099042
556.881461	0.098924
557.095208	0.099141
557.308937	0.099224
557.522647	0.099017
557.736339	0.099159
557.950013	0.099414
558.163669	0.098751
558.377307	0.098560
558.590926	0.098712
558.804527	0.098816
559.018110	0.099309
559.231675	0.098939
559.445221	0.099458
559.658749	0.099664
559.872259	0.099619
560.085751	0.099604
560.299225	0.099496
560.512680	0.099444
560.726117	0.100027
560.939536	0.099734
561.152937	0.099906
561.366319	0.099977
561.579683	0.099843
561.793029	0.099971
562.006357	0.099777
562.219667	0.099689
562.432958	0.100184
562.646231	0.099462
562.859486	0.099052
563.072723	0.099376
563.285941	0.099040
563.499141	0.099346
563.712323	0.099157
563.925487	0.099879
564.138632	0.100423
564.351760	0.100271
564.564869	0.100665
564.777960	0.101285
564.991032	0.101334
565.204087	0.101520
565.417123	0.101621
565.630141	0.101951
565.843140	0.101934
566.056122	0.102038
566.269085	0.102048
566.482030	0.101829
566.694957	0.102049
566.907866	0.102112
567.120756	0.102301
567.333628	0.102022
567.546482	0.102286
567.759318	0.102402
567.972135	0.102391
568.184935	0.102280
568.397716	0.102537
568.610478	0.102012
568.823223	0.101811
569.035949	0.101952
569.248657	0.102523
569.461347	0.102306
569.674019	0.101538
569.886672	0.101485
570.099308	0.101890
570.311925	0.102111
570.524523	0.102297
570.737104	0.102479
570.949666	0.102214
571.162210	0.101740
571.374736	0.102073
571.587244	0.102775
571.799733	0.103204
572.012205	0.103053
572.224658	0.102847
572.437092	0.102914
572.649509	0.103041
572.861907	0.103532
573.074287	0.103480
573.286649	0.103360
573.498993	0.103312
573.711318	0.103361
573.923625	0.103577
574.135914	0.103723
574.348185	0.104207
574.560438	0.104234
574.772672	0.104506
574.984888	0.104646
575.197086	0.104360
575.409266	0.104783
575.621427	0.104273
575.833570	0.104136
576.045695	0.104239
576.257802	0.103977
576.469890	0.103822
576.681961	0.103153
576.894013	0.103286
577.106046	0.103621
577.318062	0.103465
577.530059	0.103836
577.742039	0.104429
577.954000	0.104645
578.165942	0.104532
578.377867	0.105038
578.589773	0.105467
578.801661	0.105223
579.013531	0.105718
579.225382	0.105478
579.437216	0.105471
579.649031	0.105423
579.860828	0.105114
580.072606	0.105306
580.284367	0.105594
580.496109	0.105356
580.707833	0.105786
580.919539	0.105296
581.131227	0.105847
581.342896	0.106004
581.554547	0.105659
581.766180	0.105398
581.977795	0.105190
582.189391	0.104768
582.400969	0.105146
582.612529	0.104916
582.824071	0.105311
583.035595	0.105093
583.247100	0.105254
583.458587	0.105468
583.670056	0.106221
583.881506	0.106348
584.092939	0.106231
584.304353	0.105969
584.515749	0.106315
584.727127	0.105906
584.938486	0.105723
585.149828	0.105637
585.361151	0.105841
585.572456	0.105547
585.783742	0.105562
585.995011	0.105816
586.206261	0.106225
586.417493	0.106254
586.628706	0.106893
586.839902	0.107114
587.051079	0.107550
587.262238	0.107441
587.473379	0.107688
587.684502	0.108012
587.895606	0.107910
588.106692	0.107779
588.317760	0.107824
588.528810	0.107700
588.739841	0.108073
588.950855	0.107481
589.161850	0.107631
589.372827	0.107740
589.583785	0.107560
589.794726	0.108164
590.005648	0.108282
590.216552	0.108534
590.427437	0.108661
590.638305	0.108607
590.849154	0.109061
591.059985	0.108770
591.270798	0.108877
591.481592	0.109272
591.692369	0.108887
591.903127	0.109414
592.113867	0.109384
592.324588	0.109212
592.535292	0.108885
592.745977	0.108987
592.956644	0.108933
593.167293	0.108821
593.377923	0.108547
593.588536	0.108802
593.799130	0.108178
594.009706	0.107840
594.220263	0.107765
594.430803	0.107887
594.641324	0.107939
594.851827	0.108529
595.062312	0.108892
595.272778	0.109310
595.483227	0.109364
595.693657	0.109563
595.904069	0.109978
596.114462	0.110040
596.324838	0.110385
596.535195	0.110470
596.745534	0.110363
596.955855	0.110301
597.166157	0.110429
597.376441	0.110379
597.586707	0.110309
597.796955	0.109810
598.007185	0.110081
598.217396	0.110256
598.427589	0.110226
598.637764	0.110385
598.847921	0.110534
599.058060	0.110297
599.268180	0.110289
599.478282	0.110704
599.688366	0.111109
599.898431	0.111155
600.108479	0.110775
600.318508	0.110936
600.528519	0.110614
600.738511	0.110487
600.948486	0.110640
601.158442	0.111089
601.368380	0.111163
601.578300	0.111061
601.788202	0.111222
601.998085	0.111583
602.207950	0.111372
602.417797	0.111799
602.627626	0.111737
602.837436	0.111669
603.047228	0.111581
603.257002	0.111515
603.466758	0.111844
603.676496	0.111720
603.886215	0.111769
604.095916	0.112362
604.305599	0.112299
604.515264	0.112676
604.724910	0.113081
604.934538	0.112770
605.144148	0.112994
605.353740	0.113154
605.563314	0.113548
605.772869	0.113717
605.982406	0.113424
606.191925	0.113369
606.401425	0.113496
606.610908	0.113598
606.820372	0.113725
607.029818	0.113328
607.239246	0.113671
607.448655	0.113674
607.658047	0.113880
607.867420	0.113595
608.076775	0.113746
608.286111	0.113686
608.495430	0.113754
608.704730	0.113833
608.914012	0.114332
609.123275	0.114154
609.332521	0.114133
609.541748	0.114109
609.750957	0.114495
609.960148	0.114873
610.169321	0.114919
610.378475	0.114569
610.587611	0.114575
610.796729	0.114658
611.005829	0.114603
611.214910	0.114933
611.423974	0.114673
611.633019	0.114781
611.842045	0.114640
612.051054	0.114798
612.260044	0.115061
612.469017	0.115016
612.677970	0.114693
612.886906	0.114492
613.095824	0.114168
613.304723	0.114365
613.513604	0.114060
613.722467	0.114147
613.931311	0.114082
614.140138	0.114191
614.348946	0.114698
614.557736	0.114858
614.766507	0.115440
614.975261	0.115593
615.183996	0.115692
615.392713	0.116095
615.601412	0.116176
615.810092	0.116390
616.018754	0.116260
616.227399	0.116021
616.436024	0.116140
616.644632	0.115771
616.853222	0.115613
617.061793	0.115925
617.270346	0.115988
617.478880	0.115869
617.687397	0.115725
617.895895	0.115902
618.104375	0.115927
618.312837	0.115992
618.521281	0.116337
618.729706	0.116705
618.938113	0.116501
619.146502	0.116605
619.354873	0.116776
619.563226	0.116777
619.771560	0.117011
619.979876	0.117279
620.188174	0.117618
620.396453	0.117741
620.604715	0.117779
620.812958	0.118111
621.021183	0.118239
621.229390	0.118044
621.437578	0.118108
621.645748	0.118084
621.853900	0.118239
622.062034	0.118080
622.270150	0.118147
622.478247	0.118202
622.686326	0.118124
622.894387	0.117913
623.102430	0.118344
623.310454	0.118459
623.518461	0.118207
623.726449	0.118280
623.934418	0.118483
624.142370	0.118914
624.350303	0.118748
624.558218	0.118806
624.766115	0.119383
624.973994	0.119428
625.181855	0.119502
625.389697	0.120156
625.597521	0.120005
625.805327	0.120040
626.013114	0.119720
626.220883	0.119967
626.428634	0.119852
626.636367	0.119159
626.844082	0.119179
627.051778	0.119240
627.259457	0.118958
627.467117	0.118922
627.674758	0.119078
627.882382	0.118991
628.089987	0.119283
628.297574	0.119426
628.505143	0.119782
628.712694	0.119552
628.920226	0.119578
629.127740	0.119752
629.335236	0.120107
629.542714	0.120020
629.750174	0.119935
629.957615	0.119765
630.165038	0.119875
630.372443	0.120025
630.579829	0.120315
630.787198	0.120486
630.994548	0.120499
631.201880	0.120624
631.409194	0.120402
631.616489	0.120717
631.823766	0.120863
632.031025	0.121030
632.238266	0.121279
632.445489	0.121215
632.652693	0.121472
632.859879	0.121698
633.067047	0.121619
633.274197	0.122273
633.481329	0.122269
633.688442	0.122388
633.895537	0.122316
634.102614	0.122181
634.309672	0.122309
634.516713	0.122171
634.723735	0.122079
634.930739	0.122278
635.137724	0.122362
635.344692	0.122438
635.551641	0.122387
635.758572	0.122660
635.965485	0.122995
636.172379	0.123231
636.379256	0.123307
636.586114	0.123316
636.792954	0.123425
636.999775	0.123110
637.206579	0.123455
637.413364	0.123787
637.620131	0.123555
637.826880	0.123582
638.033610	0.123342
638.240323	0.123585
638.447017	0.123960
638.653692	0.123726
638.860350	0.124072
639.066990	0.123977
639.273611	0.124110
639.480214	0.124498
639.686798	0.124457
639.893365	0.124779
640.099913	0.124939
640.306443	0.124794
640.512955	0.125257
640.719449	0.125221
640.925924	0.125181
641.132381	0.124970
641.338820	0.124995
641.545241	0.125048
641.751644	0.125337
641.958028	0.125101
642.164394	0.125063
642.370742	0.125063
642.577071	0.125218
642.783383	0.125461
642.989676	0.125395
643.195951	0.125623
643.402207	0.125733
643.608446	0.125477
643.814666	0.125628
644.020868	0.125874
644.227052	0.126002
644.433218	0.126090
644.639365	0.126262
644.845494	0.126732
645.051605	0.126856
645.257698	0.127139
645.463772	0.127348
645.669828	0.127601
645.875866	0.127615
646.081886	0.127653
646.287888	0.127502
646.493871	0.127470
646.699836	0.127493
646.905783	0.127435
647.111712	0.127312
647.317622	0.127307
647.523514	0.127024
647.729388	0.127348
647.935244	0.127298
648.141082	0.127565
648.346901	0.127756
648.552702	0.127601
648.758485	0.127590
648.964250	0.127573
649.169996	0.127621
649.375724	0.127984
649.581434	0.127822
649.787126	0.127857
649.992800	0.127693
650.198455	0.127646
650.404092	0.127851
650.609711	0.127855
650.815311	0.127972
651.020894	0.128174
651.226458	0.128296
651.432004	0.128305
651.637532	0.128557
651.843041	0.129049
652.048532	0.129000
652.254006	0.129235
652.459460	0.129454
652.664897	0.129698
652.870315	0.129841
653.075716	0.129705
653.281097	0.129984
653.486461	0.130102
653.691807	0.130047
653.897134	0.130484
654.102443	0.130412
654.307734	0.130604
654.513006	0.130690
654.718261	0.130712
654.923497	0.130944
655.128715	0.131067
655.333915	0.130917
655.539096	0.130709
655.744259	0.130553
655.949404	0.130516
656.154531	0.130419
656.359640	0.130186
656.564730	0.130171
656.769802	0.130297
656.974856	0.130166
657.179892	0.130320
657.384909	0.130575
657.589908	0.130711
657.794889	0.130798
657.999852	0.130602
658.204797	0.130959
658.409723	0.131333
658.614631	0.131444
658.819521	0.131309
659.024393	0.131236
659.229246	0.131331
659.434081	0.131432
659.638898	0.131620
659.843697	0.132146
660.048478	0.132215
660.253240	0.132052
660.457984	0.132122
660.662710	0.132620
660.867417	0.132948
661.072107	0.133071
661.276778	0.133139
661.481431	0.133466
661.686066	0.133373
661.890682	0.133542
662.095281	0.133955
662.299861	0.134081
662.504422	0.134016
662.708966	0.134045
662.913491	0.134333
663.117999	0.134712
663.322488	0.134649
663.526958	0.134742
663.731411	0.134816
663.935845	0.134663
664.140261	0.134788
664.344659	0.134887
664.549038	0.135267
664.753400	0.135222
664.957743	0.135026
665.162068	0.135209
665.366375	0.135360
665.570663	0.135470
665.774933	0.135793
665.979185	0.136167
666.183419	0.136405
666.387635	0.136230
666.591832	0.136221
666.796011	0.136493
667.000172	0.136526
667.204315	0.136926
667.408439	0.137124
667.612545	0.137092
667.816634	0.136632
668.020703	0.136805
668.224755	0.137005
668.428788	0.137167
668.632803	0.137114
668.836800	0.137274
669.040779	0.137062
669.244739	0.137065
669.448681	0.137063
669.652605	0.137578
669.856511	0.137666
670.060399	0.137865
670.264268	0.137807
670.468119	0.138002
670.671952	0.137667
670.875767	0.137826
671.079563	0.137931
671.283341	0.138048
671.487101	0.138075
671.690843	0.138087
671.894567	0.138082
672.098272	0.138479
672.301959	0.138491
672.505628	0.139160
672.709278	0.139284
672.912911	0.139329
673.116525	0.139266
673.320121	0.139309
673.523699	0.139495
673.727258	0.139580
673.930799	0.139551
674.134322	0.139652
674.337827	0.139679
674.541314	0.139579
674.744782	0.139727
674.948232	0.140028
675.151664	0.140170
675.355078	0.140145
675.558474	0.140368
675.761851	0.140515
675.965210	0.140602
676.168551	0.140556
676.371873	0.140671
676.575178	0.140553
676.778464	0.140562
676.981732	0.140656
677.184981	0.140966
677.388213	0.141018
677.591426	0.141104
677.794621	0.141356
677.997798	0.141344
678.200956	0.141622
678.404097	0.141951
678.607219	0.142239
678.810323	0.142426
679.013408	0.142290
679.216476	0.142432
679.419525	0.142571
679.622556	0.142837
679.825569	0.143054
680.028563	0.143408
680.231540	0.143626
680.434498	0.143528
680.637438	0.143556
680.840359	0.143836
681.043263	0.143886
681.246148	0.143997
681.449015	0.144017
681.651864	0.144355
681.854694	0.144389
682.057506	0.144438
682.260301	0.144815
682.463076	0.145034
682.665834	0.145139
682.868573	0.145298
683.071295	0.145428
683.273998	0.145464
683.476682	0.145441
683.679349	0.145403
683.881997	0.145579
684.084627	0.145446
684.287239	0.145281
684.489833	0.145584
684.692408	0.145583
684.894965	0.145660
685.097504	0.145708
685.300025	0.145740
685.502527	0.145742
685.705012	0.145774
685.907478	0.145989
686.109925	0.146268
686.312355	0.145951
686.514766	0.146006
686.717159	0.146027
686.919534	0.146122
687.121891	0.146240
687.324230	0.146415
687.526550	0.146537
687.728852	0.146906
687.931136	0.146935
688.133401	0.147189
688.335649	0.147356
688.537878	0.147609
688.740089	0.147737
688.942281	0.147856
689.144456	0.147960
689.346612	0.147993
689.548750	0.147817
689.750870	0.147994
689.952971	0.147946
690.155055	0.148106
690.357120	0.148087
690.559167	0.148297
690.761195	0.148341
690.963206	0.148477
691.165198	0.148630
691.367172	0.148777
691.569128	0.148840
691.771065	0.149109
691.972984	0.149280
692.174885	0.149552
692.376768	0.149581
692.578633	0.149605
692.780479	0.149564
692.982308	0.149654
693.184118	0.149824
693.385909	0.149837
