sample name	sample
index	33
start time	 02-11-2021  12:52:01 PM
880	0.061325
Peak Time (s)	82.038
Peak Height 	0.06133
calc peak height	80,83
Baseline Time (s)	10.036
Baseline Value 	-0.001775
subtract baseline	10,4
Abs	0.054654
Peak Time (s)	82.537
Peak Height 	0.05465
calc peak height	80,83
Baseline Time (s)	9.536
Baseline Value 	1.5714E-5
subtract baseline	10,3
PK_550	0.028337
Peak Time (s)	81.035
Peak Height 	0.02834
calc peak height	80,83
Baseline Time (s)	11.537
Baseline Value 	4.8198E-4
subtract baseline	10,2
PK_880	0.054782
Peak Time (s)	81.035
Peak Height 	0.05478
calc peak height	80,83
Baseline Time (s)	11.037
Baseline Value 	-3.2229E-4
subtract baseline	10,1


Time (s)	A880-A510	A880-A775	A880-A975	A880	I510	I775	I975	I880	
0.035000	0.000787	0.000702	-0.004784	0.003563	4565.581142	19528.462551	3270.643401	10482.271427
0.536000	-0.000348	-0.000423	-0.001145	0.003307	4562.263957	19495.311105	3274.060730	10486.719691
1.037000	0.001525	-0.000823	0.001922	-0.000344	4583.204543	19619.551346	3280.029640	10550.643975
1.536000	-0.004167	0.000161	-0.003695	0.004291	4544.273203	19480.127286	3270.957983	10469.585855
2.037000	0.000594	-0.000393	-0.002231	-0.000012	4578.393099	19623.288703	3276.034393	10544.808121
2.536500	0.003136	0.000643	0.003457	0.002771	4577.477313	19556.413490	3278.617146	10496.077051
3.034000	-0.000041	-0.000921	-0.007403	0.002142	4567.821963	19520.757638	3269.597923	10507.065808
3.537500	-0.002752	-0.001780	-0.007596	0.002785	4555.195682	19463.591132	3268.869522	10495.833761
4.035000	0.002057	0.000751	-0.000902	0.003557	4570.402220	19530.554986	3274.054878	10482.368135
4.535000	0.001098	-0.000369	0.010369	0.002488	4570.818437	19528.593583	3285.088766	10501.011328
5.035500	0.000628	-0.000308	0.000596	0.001821	4571.564752	19556.375734	3276.916822	10512.676626
5.536000	0.000654	0.000545	0.000452	-0.001933	4585.946910	19733.309293	3280.135952	10578.628854
6.035500	0.000880	-0.000293	-0.001662	-0.000635	4581.854111	19651.068876	3277.092489	10555.758041
6.539000	-0.002202	-0.000302	-0.004028	0.001526	4561.992507	19567.914080	3273.090769	10517.843935
7.036500	0.000651	-0.000720	0.003686	0.001393	4573.277842	19557.027832	3280.053532	10520.173169
7.536500	-0.002655	-0.000328	-0.004516	-0.001103	4570.208095	19667.709786	3274.978328	10563.998749
8.065000	0.003247	-0.000400	0.001438	-0.000659	4590.991859	19647.839276	3279.877797	10556.177095
8.535000	0.002536	-0.000492	0.000645	-0.001202	4590.350438	19665.193935	3279.654276	10565.732086
9.034500	-0.000767	0.000776	-0.002021	-0.000696	4575.820302	19694.509936	3276.827414	10556.828731
9.535500	-0.001195	-0.000579	0.000000	-0.001200	4576.111614	19661.777749	3279.076135	10565.706638
10.036000	-0.002098	-0.001654	0.003384	0.000000	4568.140746	19574.541337	3281.031085	10544.596925
10.535500	0.001460	0.000084	-0.004793	0.000810	4578.561730	19610.072275	3273.047270	10530.380940
11.036500	0.000000	0.000197	0.001899	0.000599	4573.816641	19622.492334	3279.165164	10534.076408
11.537000	0.002876	0.000000	-0.001863	0.001418	4581.638296	19583.577877	3275.095158	10519.730804
12.037000	-0.003196	-0.000547	0.008809	0.001867	4556.973695	19545.506204	3284.237890	10511.872208
12.537000	0.001154	0.000219	-0.001977	0.000687	4577.867788	19619.990693	3275.640696	10532.545964
13.034500	0.003105	0.000877	-0.005042	0.001270	4583.078453	19622.861405	3272.425543	10522.327874
13.535000	0.000477	0.000379	-0.000113	0.000730	4575.131252	19624.427883	3277.255899	10531.780200
14.035000	-0.000020	0.000252	-0.007111	0.000929	4572.492544	19611.956974	3270.911850	10528.304176
14.535000	0.002970	-0.000095	0.005533	0.000575	4585.213145	19612.195856	3282.446281	10534.496272
15.036000	0.002439	-0.001069	-0.001884	-0.000159	4585.989846	19603.044307	3276.472414	10547.393612
15.536500	-0.001328	-0.000494	-0.007876	-0.000320	4572.267291	19631.233596	3271.334173	10550.218062
16.039000	-0.000642	0.000231	-0.001443	0.001883	4566.527165	19574.618828	3275.054585	10511.590685
16.537000	0.000442	-0.000115	0.002762	0.000063	4577.531366	19631.102876	3280.417173	10543.494051
17.037000	-0.003330	-0.001960	0.005607	-0.000826	4566.606713	19594.436750	3283.778007	10559.121960
17.537500	0.001179	-0.001934	-0.002711	-0.000901	4584.008814	19598.312461	3276.396536	10560.435939
18.037500	-0.003709	-0.001126	-0.009709	0.000927	4558.578235	19559.324834	3268.648412	10528.338133
18.535000	0.001683	-0.000729	-0.004002	0.000521	4580.512771	19590.004503	3273.998072	10535.450670
19.035500	0.001035	-0.000192	0.003275	0.000337	4578.743306	19617.632589	3280.631605	10538.677088
19.535500	-0.000763	-0.000000	0.008236	-0.000500	4575.093108	19657.128228	3285.865486	10553.388168
20.036000	-0.002075	-0.000757	0.003507	0.002764	4557.815961	19503.295732	3278.668237	10496.201467
20.537000	0.000424	-0.000819	0.006966	-0.002593	4587.592113	19706.165818	3286.613958	10590.284194
21.036500	0.003500	-0.000370	0.000032	-0.001273	4594.319765	19672.606244	3279.169227	10566.985697
21.537000	-0.002764	-0.000618	0.009119	0.003907	4550.944332	19465.084313	3282.675585	10476.270341
22.037500	-0.005347	-0.001271	-0.007238	0.002885	4545.120360	19479.143856	3269.094541	10494.088723
22.534500	0.001126	-0.000080	0.001878	-0.001761	4587.092593	19702.555629	3281.260166	10575.585808
23.035000	0.000703	0.000527	-0.002649	-0.001533	4584.608633	19717.218839	3277.013667	10571.579488
23.564000	-0.000735	-0.000189	0.003770	0.003219	4561.141051	19507.613848	3278.496564	10488.259850
24.035500	0.002145	-0.000257	0.014877	0.001315	4579.245592	19577.658016	3290.274570	10521.526106
24.536000	0.001730	0.000171	0.006858	-0.001030	4586.609181	19684.096799	3285.095979	10562.718277
25.061000	-0.002132	-0.000580	-0.002011	-0.002374	4577.010897	19706.907492	3278.329315	10586.406621
25.538500	-0.000559	-0.000165	-0.000889	0.003291	4561.534194	19505.793327	3274.300931	10487.009127
26.036500	-0.000660	0.001196	0.013036	-0.000664	4576.107266	19709.490689	3290.402588	10556.276599
26.537000	0.001835	-0.001711	0.005205	-0.003180	4595.249484	19694.438213	3285.546326	10600.666256
27.037500	0.000573	-0.001405	-0.000676	-0.003177	4590.395795	19706.080050	3280.239406	10600.603925
27.537500	0.000704	-0.000840	-0.000652	0.001986	4571.226848	19529.775079	3275.663160	10509.782269
28.035000	-0.004077	-0.000182	0.014169	0.000059	4560.455756	19628.681344	3290.778933	10543.563264
28.535000	0.001430	-0.000782	0.009582	-0.000428	4583.164028	19624.366359	3287.025384	10552.127700
29.035500	0.000387	-0.000007	0.002227	0.000901	4574.141847	19603.122511	3279.189057	10528.789074
29.536000	0.001074	-0.002001	0.009826	-0.000168	4580.817522	19567.705942	3287.010357	10547.554843
30.039000	-0.000024	-0.000373	0.000960	0.000390	4574.522885	19608.693224	3278.514139	10537.757823
30.536500	0.000752	0.000044	-0.002472	0.000792	4575.940315	19609.248514	3275.110185	10530.705631
31.036500	0.000619	-0.002118	0.005185	-0.001664	4584.787244	19620.515642	3284.154352	10573.883486
31.534500	-0.000231	-0.000358	0.006110	0.001440	4569.755958	19569.036579	3282.187523	10519.336237
32.037500	0.001978	-0.000563	-0.005365	-0.000170	4584.269740	19622.845218	3273.406556	10547.587540
32.534500	0.000095	-0.000550	0.003984	-0.000006	4576.477780	19617.068107	3281.576469	10544.707984
33.035000	0.002114	0.000744	0.005065	0.000189	4583.421150	19659.269369	3282.373105	10541.281529
33.535500	0.001100	-0.001929	0.005887	-0.001151	4584.661796	19608.072455	3284.325043	10564.839774
34.035500	0.000671	-0.000838	-0.002975	-0.000096	4579.008135	19609.461467	3275.450381	10546.290104
34.536000	0.000707	0.000630	0.001532	0.000887	4575.410063	19628.054038	3278.580481	10529.034471
35.036500	-0.000554	-0.001239	0.006466	-0.000374	4575.406210	19604.715980	3284.145400	10551.161149
35.537000	-0.000283	-0.000371	0.005648	-0.001132	4579.319754	19667.160722	3284.091762	10564.506812
36.036500	-0.000940	-0.000191	0.011942	0.001836	4565.579116	19560.262926	3287.111867	10512.406292
36.537000	0.003897	0.000636	-0.004664	-0.000357	4592.332360	19676.102504	3274.189662	10550.878572
37.034500	0.003547	0.000846	0.002344	-0.003789	4604.193501	19816.823510	3283.506924	10611.452624
37.535000	0.003334	-0.000566	0.005955	-0.002694	4599.150924	19719.830436	3285.786372	10592.074775
38.035500	-0.001637	-0.000304	0.004611	0.001466	4564.345732	19570.107003	3280.817324	10518.886472
38.535500	0.000351	-0.000270	0.007750	-0.002263	4586.051656	19714.627677	3287.027261	10584.458269
39.036000	0.001392	-0.000322	0.001853	-0.002253	4589.994500	19712.199699	3281.680079	10584.269482
39.539000	0.004861	0.001139	0.000182	-0.001409	4600.076986	19735.999589	3279.425350	10569.383394
40.036500	-0.001589	-0.001927	-0.012319	0.000777	4567.128664	19534.435916	3266.516142	10530.958398
40.550000	0.003216	-0.000699	0.005782	-0.001870	4595.521774	19682.957472	3284.881702	10577.516953
41.037000	0.002029	-0.001268	0.000185	-0.000226	4584.678052	19597.936158	3278.371764	10548.561460
41.537000	0.000948	-0.000179	0.009606	0.001540	4573.844161	19572.074065	3285.257066	10517.599500
42.037500	-0.001748	-0.002022	0.001607	0.000940	4565.912969	19524.585082	3278.600243	10528.101672
42.535500	0.003088	0.000042	0.007000	-0.002057	4595.749695	19718.678841	3286.157001	10580.808917
43.035000	0.003307	0.001616	0.018196	-0.001018	4592.604798	19739.365495	3295.503493	10562.507952
43.535500	-0.002422	-0.000822	0.012352	0.001383	4561.703369	19553.468804	3287.899706	10520.339997
44.036000	0.004028	-0.000143	0.008197	0.000680	4588.858698	19606.362842	3284.758933	10532.658826
44.536000	0.004343	-0.000156	0.003394	-0.002219	4601.205673	19717.297319	3283.037195	10583.676833
45.036500	-0.052198	-0.032754	0.015903	0.234219	3779.520437	11981.620933	3125.182675	7364.509770
45.537000	-0.041714	-0.032945	0.013737	0.192136	3889.277361	12894.657112	3147.706445	7817.168053
46.037000	-0.013624	-0.013716	-0.017727	-0.122116	5044.220926	24364.829431	3383.104023	13021.660371
46.537500	-0.001728	-0.006510	-0.007504	-0.178073	5402.329631	27714.866229	3464.073051	14411.356768
47.035000	-0.000732	-0.004447	0.000923	-0.146543	5234.239606	26091.278937	3434.395152	13606.344664
47.538000	-0.010348	-0.003747	0.008891	-0.113607	5018.854083	24436.854704	3404.047758	12825.569752
48.035000	-0.014041	0.000350	-0.004618	-0.074537	4822.651885	22775.624923	3345.571842	11973.005408
48.536000	-0.007919	0.005028	0.012443	-0.053555	4758.865721	22045.694081	3341.487187	11545.813235
49.039000	-0.001654	0.010063	0.012711	-0.027121	4675.716336	21128.342715	3315.159604	11036.202069
49.536500	0.005756	0.015599	0.026206	-0.016277	4661.939827	20907.668480	3317.754459	10835.940348
50.037000	0.006196	0.017233	0.020321	-0.007657	4629.559257	20621.389080	3303.744413	10680.294879
50.536000	0.014430	0.020519	0.015637	0.002187	4623.257653	20356.768465	3290.172544	10506.282447
51.034000	0.011059	0.016811	0.015751	0.017075	4553.396227	19627.777053	3276.828240	10250.469327
51.534500	0.013593	0.019314	0.033123	0.027471	4524.212037	19327.687134	3283.072655	10076.983341
52.035000	0.025587	0.023010	0.029994	0.035125	4540.257976	19179.266524	3273.463051	9951.885589
52.540500	0.029612	0.021386	0.028565	0.040100	4536.732238	18934.736570	3267.867561	9871.734820
53.036000	0.025433	0.021332	0.032206	0.046474	4498.075856	18700.110293	3265.504557	9770.385215
53.560000	0.029195	0.023741	0.037845	0.048422	4504.656963	18716.827961	3268.699347	9739.720481
54.041500	0.027958	0.022700	0.039056	0.048868	4498.548843	18662.997606	3269.365021	9732.705828
54.537000	0.025753	0.023350	0.038171	0.050526	4484.628160	18626.604071	3267.157475	9706.734244
55.037000	0.026351	0.023925	0.029897	0.050436	4487.097446	18650.603364	3260.138888	9708.141569
55.537500	0.030142	0.023904	0.031617	0.052639	4492.817808	18570.484990	3259.729269	9673.777518
56.037500	0.027570	0.023358	0.043412	0.052095	4485.518204	18570.419548	3270.349184	9682.245337
56.535000	0.031754	0.025372	0.033779	0.054262	4492.776849	18564.930812	3260.186605	9648.571637
57.035500	0.031100	0.023713	0.036953	0.053132	4494.493644	18545.901513	3263.861262	9666.100643
57.538500	0.034138	0.025911	0.038358	0.055357	4497.432607	18544.947472	3263.158544	9631.614406
58.036500	0.032379	0.024835	0.041407	0.054037	4495.844866	18553.696863	3266.919082	9652.057261
58.539000	0.035896	0.026827	0.044675	0.054923	4505.379808	18593.457018	3268.985302	9638.319468
59.036500	0.040454	0.027694	0.050023	0.054626	4523.128856	18635.390614	3273.927823	9642.918376
59.536500	0.040652	0.026822	0.058234	0.052876	4530.308200	18667.116373	3282.807667	9670.087618
60.037000	0.035988	0.026668	0.055536	0.057947	4494.757634	18479.326908	3275.864062	9591.674341
60.537500	0.038838	0.028158	0.043229	0.053127	4522.701917	18706.408599	3269.290124	9666.189859
61.035000	0.035766	0.028188	0.039700	0.051615	4516.977948	18762.393919	3267.538623	9689.733188
61.537500	0.037721	0.027668	0.042445	0.053240	4518.185244	18684.554328	3268.510236	9664.427017
62.035000	0.032710	0.027032	0.041873	0.054895	4493.944469	18601.850377	3266.580384	9638.764993
62.535000	0.038141	0.027060	0.046444	0.048392	4537.611461	18838.759501	3276.274886	9740.184055
63.039000	0.039781	0.028633	0.046984	0.049357	4540.118150	18861.019463	3275.898025	9725.038669
63.536500	0.035762	0.026524	0.039856	0.049531	4524.609627	18777.650065	3269.483503	9722.303167
64.036500	0.039151	0.028621	0.036963	0.054808	4517.680339	18662.293981	3262.435170	9640.109354
64.537000	0.035241	0.027467	0.046722	0.046925	4532.302523	18907.422220	3277.825244	9763.277344
65.037500	0.041878	0.028999	0.039703	0.048285	4551.932402	18913.722851	3270.436784	9741.862585
65.537000	0.041035	0.028538	0.051990	0.048725	4547.139239	18880.642303	3280.924170	9734.947137
66.035000	0.041770	0.027619	0.047452	0.051482	4539.613640	18746.532624	3274.433392	9691.806163
66.535500	0.041734	0.029679	0.048833	0.047871	4552.944782	18953.950734	3278.863355	9748.370588
67.035500	0.042673	0.027689	0.043104	0.045849	4564.070280	18955.131699	3275.568416	9780.258970
67.535500	0.044017	0.029412	0.039890	0.048936	4557.511654	18904.968863	3270.032726	9731.640073
68.036000	0.039887	0.026866	0.049689	0.045148	4556.228517	18950.632765	3282.071520	9791.356617
68.536500	0.044115	0.027928	0.054900	0.046336	4567.675862	18945.978008	3285.708462	9772.567355
69.037000	0.045199	0.028517	0.041032	0.047612	4566.951979	18920.758784	3272.189404	9752.454934
69.537000	0.043186	0.026949	0.045646	0.048058	4557.687944	18846.914583	3275.863236	9745.434538
70.034500	0.041924	0.026131	0.036033	0.051875	4538.725474	18678.322289	3264.151194	9685.679912
70.537500	0.041669	0.026189	0.042086	0.046107	4559.319608	18890.535874	3274.440604	9776.180459
71.035000	0.046826	0.026928	0.042813	0.046974	4575.528841	18885.830542	3274.317612	9762.502407
71.535000	0.045948	0.026587	0.058179	0.048656	4565.838214	18811.823925	3286.580374	9736.033681
72.035500	0.048069	0.027303	0.046247	0.048111	4575.929742	18857.914851	3276.349198	9744.595047
72.539000	0.047859	0.026285	0.054942	0.047245	4578.424967	18852.388120	3284.922275	9758.237004
73.036000	0.046664	0.025409	0.052226	0.047611	4572.499807	18807.021401	3282.138154	9752.474548
73.536000	0.046550	0.026355	0.053963	0.049686	4564.220779	18765.867162	3281.833798	9719.879029
74.037000	0.048801	0.027355	0.042047	0.049310	4574.160376	18816.025512	3271.591123	9725.780367
74.537000	0.049924	0.027938	0.049763	0.050620	4573.450228	18789.502512	3277.243263	9705.260204
75.037000	0.047500	0.027719	0.059215	0.051065	4562.607444	18765.319032	3285.332944	9698.316092
75.535000	0.048002	0.026419	0.043363	0.051949	4561.167830	18686.052288	3270.434082	9684.515761
76.035000	0.050107	0.027335	0.045375	0.051208	4571.913773	18746.153116	3272.845163	9696.077494
76.535500	0.049660	0.026238	0.053324	0.051142	4570.470404	18708.733781	3279.954364	9697.106130
77.035500	0.049410	0.026963	0.042559	0.052817	4563.198617	18674.319904	3268.976661	9671.000085
77.536500	0.049240	0.024968	0.058105	0.052227	4564.787790	18623.611007	3283.276501	9680.193869
78.036000	0.048239	0.025705	0.045419	0.052387	4560.411535	18644.432299	3271.849433	9677.698800
78.536500	0.051778	0.025805	0.049475	0.051772	4576.112504	18670.266836	3275.965348	9687.278758
79.037000	0.053537	0.025145	0.051918	0.052821	4578.813713	18608.590959	3277.202777	9670.941818
79.540000	0.048520	0.027688	0.054605	0.055719	4548.972836	18595.795585	3277.015095	9626.019710
80.034500	0.047362	0.026743	0.035075	0.060744	4526.038125	18382.419125	3255.807198	9548.824667
80.535000	0.053643	0.027968	0.052845	0.056437	4565.512760	18580.031226	3274.819720	9614.925431
81.035500	0.054782	0.028337	0.054261	0.056585	4569.259008	18587.977108	3275.941903	9612.648959
81.536000	0.054490	0.026156	0.045949	0.056322	4569.147789	18519.138168	3268.877114	9616.705183
82.038500	0.053441	0.024375	0.048173	0.061325	4546.416245	18278.069645	3266.468064	9539.952565
82.536500	0.050547	0.024923	0.054654	0.054764	4560.153129	18530.771400	3277.907819	9640.786682
83.036500	0.054918	0.025630	0.067471	0.056392	4570.501877	18497.794710	3287.999701	9615.618760
83.537000	0.054161	0.026410	0.046137	0.056797	4566.108379	18511.219056	3268.626998	9609.375225
84.061500	0.055221	0.025282	0.058686	0.063476	4545.032463	18234.262867	3273.763655	9507.230558
84.556500	0.053182	0.025038	0.047018	0.056846	4562.232879	18460.437777	3269.351043	9608.620444
85.035000	0.053780	0.026538	0.056896	0.058373	4558.737478	18459.485035	3276.692183	9585.127111
85.534500	0.055805	0.027050	0.055302	0.059049	4563.816519	18453.637264	3274.682681	9574.762019
86.035500	0.055323	0.025323	0.034935	0.063290	4546.105466	18242.272489	3253.558408	9510.051341
86.536000	0.051301	0.024412	0.046487	0.057179	4553.917832	18426.299916	3268.600024	9603.502344
87.036000	0.055437	0.024966	0.058968	0.057736	4567.381487	18426.165991	3279.104761	9594.918716
