sample name	sample
index	283
start time	 02-25-2021  12:15:01 PM


Wavelength (nm)	Absorbance
494.344910	0.570017
494.563924	0.570017
494.782919	0.570017
495.001897	0.064548
495.220856	0.171543
495.439797	0.109723
495.658719	0.045872
495.877624	0.000227
496.096510	-0.011504
496.315378	0.017089
496.534227	0.037352
496.753059	0.001553
496.971872	0.063518
497.190667	0.099178
497.409444	0.108553
497.628203	0.112635
497.846943	0.111626
498.065665	0.113968
498.284369	0.115119
498.503055	0.114711
498.721723	0.114730
498.940372	0.115744
499.159003	0.116143
499.377616	0.117625
499.596210	0.116539
499.814787	0.117550
500.033345	0.116473
500.251885	0.116989
500.470406	0.116856
500.688910	0.115587
500.907395	0.115786
501.125862	0.115223
501.344311	0.113692
501.562742	0.114452
501.781154	0.114811
501.999548	0.116124
502.217924	0.115687
502.436282	0.115579
502.654621	0.116674
502.872942	0.116017
503.091245	0.116557
503.309530	0.117272
503.527797	0.117825
503.746045	0.117401
503.964275	0.116798
504.182487	0.116664
504.400681	0.117419
504.618856	0.117763
504.837013	0.117924
505.055152	0.118958
505.273273	0.119860
505.491376	0.120079
505.709460	0.120457
505.927526	0.120366
506.145574	0.120336
506.363604	0.120047
506.581615	0.119840
506.799608	0.119197
507.017583	0.118304
507.235540	0.117520
507.453478	0.117228
507.671399	0.117373
507.889301	0.117824
508.107185	0.118193
508.325050	0.118748
508.542898	0.118839
508.760727	0.119923
508.978538	0.120313
509.196330	0.120529
509.414105	0.121150
509.631861	0.121833
509.849599	0.121104
510.067319	0.121192
510.285021	0.121641
510.502704	0.121332
510.720369	0.121017
510.938016	0.121156
511.155645	0.121055
511.373255	0.120720
511.590848	0.120668
511.808422	0.121874
512.025977	0.121220
512.243515	0.120933
512.461034	0.122528
512.678536	0.122910
512.896018	0.123885
513.113483	0.123690
513.330930	0.124106
513.548358	0.124617
513.765768	0.124738
513.983160	0.126045
514.200533	0.127199
514.417889	0.126729
514.635226	0.127319
514.852545	0.127105
515.069845	0.128169
515.287128	0.128332
515.504392	0.127927
515.721638	0.128837
515.938866	0.128735
516.156075	0.127597
516.373267	0.128121
516.590440	0.128175
516.807594	0.128719
517.024731	0.129015
517.241850	0.129825
517.458950	0.130286
517.676032	0.130200
517.893095	0.131166
518.110141	0.132464
518.327168	0.132691
518.544177	0.132124
518.761168	0.131852
518.978141	0.131877
519.195095	0.132026
519.412031	0.131618
519.628949	0.131468
519.845849	0.130835
520.062731	0.130380
520.279594	0.130516
520.496439	0.132355
520.713266	0.132999
520.930074	0.132714
521.146865	0.131840
521.363637	0.132221
521.580391	0.132036
521.797127	0.132261
522.013844	0.132627
522.230543	0.132799
522.447224	0.131708
522.663887	0.132354
522.880532	0.133123
523.097158	0.134703
523.313766	0.135048
523.530356	0.135459
523.746928	0.136215
523.963481	0.136610
524.180017	0.137314
524.396534	0.138129
524.613032	0.137757
524.829513	0.137664
525.045975	0.137546
525.262420	0.137961
525.478845	0.138617
525.695253	0.138277
525.911643	0.138287
526.128014	0.138159
526.344367	0.138271
526.560702	0.138835
526.777018	0.140005
526.993316	0.139874
527.209597	0.140645
527.425858	0.140922
527.642102	0.141017
527.858328	0.141095
528.074535	0.141054
528.290724	0.141252
528.506894	0.141188
528.723047	0.141383
528.939181	0.141700
529.155297	0.141533
529.371395	0.141571
529.587475	0.142049
529.803536	0.142817
530.019579	0.143735
530.235604	0.144065
530.451611	0.144903
530.667600	0.144299
530.883570	0.144941
531.099522	0.145587
531.315456	0.146042
531.531372	0.146910
531.747269	0.146931
531.963148	0.146903
532.179009	0.147777
532.394852	0.147276
532.610676	0.148007
532.826482	0.148131
533.042271	0.148352
533.258040	0.148140
533.473792	0.148253
533.689525	0.148761
533.905240	0.149381
534.120937	0.148976
534.336616	0.150323
534.552277	0.150938
534.767919	0.150889
534.983543	0.151150
535.199149	0.152042
535.414736	0.152016
535.630306	0.152293
535.845857	0.152808
536.061390	0.153552
536.276904	0.153239
536.492401	0.153686
536.707879	0.154440
536.923339	0.155006
537.138781	0.154722
537.354204	0.155471
537.569610	0.155689
537.784997	0.155202
538.000366	0.155452
538.215716	0.155824
538.431049	0.155693
538.646363	0.156359
538.861659	0.156626
539.076937	0.157534
539.292196	0.157310
539.507438	0.157726
539.722661	0.158033
539.937866	0.158483
540.153052	0.158567
540.368221	0.159358
540.583371	0.159347
540.798503	0.159171
541.013617	0.159322
541.228712	0.160049
541.443789	0.160608
541.658848	0.160419
541.873889	0.160301
542.088912	0.160369
542.303916	0.160070
542.518902	0.160151
542.733870	0.160706
542.948820	0.161484
543.163752	0.161468
543.378665	0.161350
543.593560	0.162633
543.808437	0.162971
544.023295	0.163877
544.238136	0.164008
544.452958	0.164514
544.667762	0.164714
544.882548	0.164761
545.097315	0.165719
545.312064	0.166204
545.526795	0.166123
545.741508	0.166588
545.956203	0.166601
546.170879	0.167134
546.385537	0.167415
546.600177	0.167566
546.814799	0.167573
547.029402	0.167608
547.243988	0.167902
547.458555	0.168163
547.673103	0.168382
547.887634	0.168292
548.102146	0.168480
548.316640	0.168574
548.531116	0.168954
548.745574	0.169280
548.960013	0.169301
549.174435	0.169383
549.388838	0.169603
549.603222	0.169768
549.817589	0.170121
550.031937	0.170293
550.246267	0.170449
550.460579	0.170270
550.674873	0.170768
550.889148	0.170755
551.103405	0.171153
551.317644	0.171690
551.531865	0.172202
551.746068	0.172448
551.960252	0.172631
552.174418	0.173077
552.388566	0.173616
552.602696	0.173305
552.816807	0.173793
553.030900	0.173613
553.244975	0.173460
553.459032	0.173624
553.673070	0.173937
553.887091	0.174609
554.101093	0.174618
554.315077	0.174472
554.529042	0.174805
554.742990	0.174826
554.956919	0.175413
555.170830	0.175525
555.384722	0.175637
555.598597	0.176193
555.812453	0.176032
556.026291	0.175966
556.240111	0.176529
556.453913	0.176558
556.667696	0.177091
556.881461	0.177373
557.095208	0.178100
557.308937	0.178088
557.522647	0.178028
557.736339	0.178251
557.950013	0.178894
558.163669	0.179208
558.377307	0.179723
558.590926	0.179489
558.804527	0.179262
559.018110	0.179141
559.231675	0.179409
559.445221	0.179399
559.658749	0.179770
559.872259	0.179711
560.085751	0.179654
560.299225	0.179762
560.512680	0.179997
560.726117	0.180444
560.939536	0.180451
561.152937	0.180703
561.366319	0.180848
561.579683	0.180901
561.793029	0.181242
562.006357	0.181268
562.219667	0.181490
562.432958	0.181814
562.646231	0.182151
562.859486	0.182466
563.072723	0.182230
563.285941	0.182456
563.499141	0.182616
563.712323	0.182766
563.925487	0.183407
564.138632	0.183521
564.351760	0.183660
564.564869	0.183570
564.777960	0.183602
564.991032	0.183898
565.204087	0.184161
565.417123	0.184515
565.630141	0.184923
565.843140	0.185100
566.056122	0.185536
566.269085	0.185572
566.482030	0.185805
566.694957	0.186305
566.907866	0.186707
567.120756	0.186846
567.333628	0.186478
567.546482	0.186265
567.759318	0.186623
567.972135	0.186657
568.184935	0.187149
568.397716	0.187183
568.610478	0.187030
568.823223	0.187206
569.035949	0.187663
569.248657	0.188373
569.461347	0.188533
569.674019	0.188223
569.886672	0.188313
570.099308	0.188350
570.311925	0.188603
570.524523	0.189050
570.737104	0.189244
570.949666	0.189074
571.162210	0.188927
571.374736	0.189103
571.587244	0.189584
571.799733	0.189588
572.012205	0.189603
572.224658	0.189608
572.437092	0.189387
572.649509	0.189562
572.861907	0.189953
573.074287	0.190287
573.286649	0.190622
573.498993	0.190252
573.711318	0.190898
573.923625	0.191340
574.135914	0.191616
574.348185	0.191896
574.560438	0.192155
574.772672	0.192351
574.984888	0.192817
575.197086	0.192826
575.409266	0.193668
575.621427	0.193552
575.833570	0.193399
576.045695	0.193735
576.257802	0.194267
576.469890	0.194238
576.681961	0.194256
576.894013	0.194108
577.106046	0.194862
577.318062	0.194730
577.530059	0.194973
577.742039	0.195374
577.954000	0.195553
578.165942	0.195681
578.377867	0.195680
578.589773	0.196063
578.801661	0.196343
579.013531	0.196199
579.225382	0.196656
579.437216	0.196763
579.649031	0.196806
579.860828	0.197437
580.072606	0.197424
580.284367	0.197721
580.496109	0.197790
580.707833	0.198241
580.919539	0.198409
581.131227	0.198295
581.342896	0.198735
581.554547	0.199399
581.766180	0.199529
581.977795	0.200055
582.189391	0.200247
582.400969	0.200149
582.612529	0.200126
582.824071	0.200475
583.035595	0.200617
583.247100	0.200473
583.458587	0.200302
583.670056	0.200538
583.881506	0.200438
584.092939	0.201042
584.304353	0.201204
584.515749	0.200920
584.727127	0.200695
584.938486	0.200891
585.149828	0.201490
585.361151	0.201982
585.572456	0.201857
585.783742	0.202075
585.995011	0.201940
586.206261	0.202650
586.417493	0.202973
586.628706	0.203302
586.839902	0.203750
587.051079	0.203666
587.262238	0.203581
587.473379	0.203654
587.684502	0.203730
587.895606	0.203898
588.106692	0.203828
588.317760	0.204064
588.528810	0.204431
588.739841	0.204340
588.950855	0.204293
589.161850	0.204649
589.372827	0.204941
589.583785	0.204967
589.794726	0.205035
590.005648	0.205077
590.216552	0.205375
590.427437	0.205379
590.638305	0.205569
590.849154	0.205931
591.059985	0.205887
591.270798	0.205707
591.481592	0.206194
591.692369	0.206474
591.903127	0.206821
592.113867	0.206865
592.324588	0.207154
592.535292	0.207614
592.745977	0.207917
592.956644	0.207991
593.167293	0.208355
593.377923	0.208372
593.588536	0.208882
593.799130	0.209120
594.009706	0.209473
594.220263	0.210035
594.430803	0.209914
594.641324	0.210018
594.851827	0.210182
595.062312	0.210571
595.272778	0.210758
595.483227	0.210352
595.693657	0.210704
595.904069	0.211048
596.114462	0.210807
596.324838	0.211204
596.535195	0.211394
596.745534	0.211645
596.955855	0.211610
597.166157	0.211929
597.376441	0.212213
597.586707	0.211917
597.796955	0.211921
598.007185	0.212264
598.217396	0.212486
598.427589	0.212416
598.637764	0.212656
598.847921	0.212745
599.058060	0.212941
599.268180	0.213376
599.478282	0.213804
599.688366	0.213981
599.898431	0.213943
600.108479	0.213976
600.318508	0.214194
600.528519	0.214532
600.738511	0.214796
600.948486	0.214742
601.158442	0.214947
601.368380	0.215098
601.578300	0.215344
601.788202	0.215467
601.998085	0.215519
602.207950	0.215723
602.417797	0.215499
602.627626	0.215584
602.837436	0.215744
603.047228	0.215776
603.257002	0.215938
603.466758	0.216137
603.676496	0.216338
603.886215	0.216607
604.095916	0.216726
604.305599	0.217312
604.515264	0.217544
604.724910	0.218046
604.934538	0.218364
605.144148	0.218281
605.353740	0.218284
605.563314	0.218438
605.772869	0.218587
605.982406	0.218850
606.191925	0.219058
606.401425	0.218967
606.610908	0.218991
606.820372	0.219240
607.029818	0.219746
607.239246	0.219930
607.448655	0.219961
607.658047	0.219823
607.867420	0.219988
608.076775	0.219958
608.286111	0.220332
608.495430	0.220163
608.704730	0.219892
608.914012	0.219458
609.123275	0.219717
609.332521	0.220085
609.541748	0.220425
609.750957	0.220577
609.960148	0.220788
610.169321	0.220937
610.378475	0.221490
610.587611	0.221590
610.796729	0.221978
611.005829	0.221891
611.214910	0.221855
611.423974	0.222110
611.633019	0.221947
611.842045	0.221934
612.051054	0.221810
612.260044	0.221829
612.469017	0.222201
612.677970	0.222608
612.886906	0.222830
613.095824	0.222986
613.304723	0.223141
613.513604	0.223706
613.722467	0.224077
613.931311	0.224652
614.140138	0.224929
614.348946	0.225089
614.557736	0.225133
614.766507	0.225570
614.975261	0.225908
615.183996	0.226180
615.392713	0.226144
615.601412	0.225866
615.810092	0.225817
616.018754	0.226005
616.227399	0.226007
616.436024	0.226454
616.644632	0.226423
616.853222	0.226261
617.061793	0.226225
617.270346	0.226195
617.478880	0.226744
617.687397	0.227219
617.895895	0.227169
618.104375	0.227542
618.312837	0.227515
618.521281	0.227725
618.729706	0.228276
618.938113	0.228452
619.146502	0.229130
619.354873	0.229263
619.563226	0.229077
619.771560	0.229324
619.979876	0.229383
620.188174	0.229625
620.396453	0.229866
620.604715	0.229972
620.812958	0.230083
621.021183	0.230088
621.229390	0.230336
621.437578	0.230723
621.645748	0.231003
621.853900	0.231211
622.062034	0.231504
622.270150	0.231473
622.478247	0.231310
622.686326	0.231770
622.894387	0.231952
623.102430	0.232065
623.310454	0.232277
623.518461	0.232411
623.726449	0.232642
623.934418	0.232682
624.142370	0.233008
624.350303	0.233467
624.558218	0.233592
624.766115	0.233502
624.973994	0.233692
625.181855	0.233583
625.389697	0.233582
625.597521	0.233855
625.805327	0.234173
626.013114	0.234282
626.220883	0.234323
626.428634	0.234366
626.636367	0.234982
626.844082	0.235263
627.051778	0.235927
627.259457	0.236223
627.467117	0.236364
627.674758	0.236249
627.882382	0.236134
628.089987	0.236393
628.297574	0.236407
628.505143	0.236355
628.712694	0.236175
628.920226	0.236092
629.127740	0.236346
629.335236	0.236428
629.542714	0.236949
629.750174	0.237354
629.957615	0.237617
630.165038	0.237934
630.372443	0.238098
630.579829	0.238470
630.787198	0.238708
630.994548	0.238759
631.201880	0.238829
631.409194	0.238469
631.616489	0.238694
631.823766	0.238813
632.031025	0.238967
632.238266	0.239129
632.445489	0.239226
632.652693	0.239130
632.859879	0.239300
633.067047	0.239587
633.274197	0.240032
633.481329	0.240105
633.688442	0.239871
633.895537	0.240145
634.102614	0.240212
634.309672	0.240278
634.516713	0.240493
634.723735	0.240547
634.930739	0.240479
635.137724	0.240287
635.344692	0.240145
635.551641	0.240489
635.758572	0.240563
635.965485	0.240618
636.172379	0.240789
636.379256	0.240975
636.586114	0.241306
636.792954	0.241611
636.999775	0.242163
637.206579	0.242778
637.413364	0.242947
637.620131	0.243119
637.826880	0.243651
638.033610	0.243847
638.240323	0.244080
638.447017	0.244319
638.653692	0.244550
638.860350	0.244765
639.066990	0.244613
639.273611	0.245178
639.480214	0.245384
639.686798	0.245191
639.893365	0.245292
640.099913	0.245292
640.306443	0.245291
640.512955	0.245448
640.719449	0.245699
640.925924	0.246157
641.132381	0.245964
641.338820	0.245979
641.545241	0.246398
641.751644	0.246836
641.958028	0.247152
642.164394	0.247160
642.370742	0.247127
642.577071	0.247243
642.783383	0.247196
642.989676	0.247418
643.195951	0.247895
643.402207	0.247927
643.608446	0.248050
643.814666	0.248456
644.020868	0.248941
644.227052	0.249299
644.433218	0.249431
644.639365	0.249778
644.845494	0.249887
645.051605	0.249830
645.257698	0.250300
645.463772	0.250225
645.669828	0.250307
645.875866	0.250282
646.081886	0.250477
646.287888	0.250813
646.493871	0.250694
646.699836	0.251405
646.905783	0.251469
647.111712	0.251504
647.317622	0.252044
647.523514	0.252043
647.729388	0.252333
647.935244	0.252587
648.141082	0.252582
648.346901	0.252929
648.552702	0.252857
648.758485	0.253140
648.964250	0.253330
649.169996	0.253325
649.375724	0.253720
649.581434	0.254127
649.787126	0.254416
649.992800	0.254406
650.198455	0.254834
650.404092	0.254833
650.609711	0.254946
650.815311	0.255058
651.020894	0.255456
651.226458	0.255561
651.432004	0.255550
651.637532	0.255323
651.843041	0.255546
652.048532	0.255484
652.254006	0.255765
652.459460	0.256144
652.664897	0.256357
652.870315	0.256261
653.075716	0.256359
653.281097	0.256542
653.486461	0.256961
653.691807	0.257220
653.897134	0.257574
654.102443	0.257827
654.307734	0.257903
654.513006	0.258131
654.718261	0.258456
654.923497	0.258835
655.128715	0.259067
655.333915	0.259288
655.539096	0.259556
655.744259	0.259610
655.949404	0.259779
656.154531	0.260153
656.359640	0.260372
656.564730	0.260729
656.769802	0.260846
656.974856	0.261084
657.179892	0.261360
657.384909	0.261503
657.589908	0.261858
657.794889	0.261941
657.999852	0.262351
658.204797	0.262376
658.409723	0.262324
658.614631	0.262546
658.819521	0.262624
659.024393	0.262907
659.229246	0.263285
659.434081	0.263674
659.638898	0.264085
659.843697	0.263904
660.048478	0.264367
660.253240	0.264680
660.457984	0.264827
660.662710	0.265281
660.867417	0.265465
661.072107	0.265341
661.276778	0.265306
661.481431	0.265449
661.686066	0.265992
661.890682	0.266091
662.095281	0.266256
662.299861	0.266281
662.504422	0.266445
662.708966	0.266610
662.913491	0.267277
663.117999	0.267569
663.322488	0.267847
663.526958	0.267868
663.731411	0.268209
663.935845	0.268442
664.140261	0.268965
664.344659	0.268999
664.549038	0.269109
664.753400	0.269110
664.957743	0.269454
665.162068	0.269603
665.366375	0.269398
665.570663	0.269498
665.774933	0.269878
665.979185	0.269848
666.183419	0.269977
666.387635	0.270265
666.591832	0.270105
666.796011	0.270106
667.000172	0.270230
667.204315	0.270744
667.408439	0.271023
667.612545	0.271065
667.816634	0.271524
668.020703	0.271749
668.224755	0.271938
668.428788	0.272444
668.632803	0.272694
668.836800	0.272982
669.040779	0.272943
669.244739	0.272993
669.448681	0.273080
669.652605	0.273059
669.856511	0.273362
670.060399	0.273594
670.264268	0.274065
670.468119	0.274319
670.671952	0.274409
670.875767	0.274823
671.079563	0.274988
671.283341	0.275294
671.487101	0.275621
671.690843	0.275918
671.894567	0.275981
672.098272	0.276090
672.301959	0.276173
672.505628	0.276193
672.709278	0.276654
672.912911	0.276868
673.116525	0.276901
673.320121	0.277106
673.523699	0.277426
673.727258	0.277862
673.930799	0.277943
674.134322	0.278527
674.337827	0.279155
674.541314	0.279416
674.744782	0.280034
674.948232	0.280750
675.151664	0.280905
675.355078	0.281144
675.558474	0.281249
675.761851	0.281750
675.965210	0.281909
676.168551	0.281904
676.371873	0.281922
676.575178	0.281975
676.778464	0.281872
676.981732	0.282189
677.184981	0.282235
677.388213	0.282453
677.591426	0.282615
677.794621	0.282910
677.997798	0.283298
678.200956	0.283642
678.404097	0.284099
678.607219	0.284698
678.810323	0.285204
679.013408	0.285644
679.216476	0.286062
679.419525	0.286304
679.622556	0.286409
679.825569	0.286797
680.028563	0.287250
680.231540	0.287221
680.434498	0.287201
680.637438	0.287211
680.840359	0.287142
681.043263	0.287295
681.246148	0.287189
681.449015	0.287334
681.651864	0.287368
681.854694	0.287355
682.057506	0.287683
682.260301	0.287802
682.463076	0.288078
682.665834	0.288409
682.868573	0.288570
683.071295	0.289001
683.273998	0.288872
683.476682	0.288982
683.679349	0.288908
683.881997	0.288918
684.084627	0.288978
684.287239	0.288784
684.489833	0.288774
684.692408	0.288966
684.894965	0.288949
685.097504	0.289509
685.300025	0.289582
685.502527	0.289726
685.705012	0.289806
685.907478	0.289956
686.109925	0.290169
686.312355	0.290410
686.514766	0.290593
686.717159	0.290679
686.919534	0.290663
687.121891	0.291029
687.324230	0.291341
687.526550	0.291525
687.728852	0.291786
687.931136	0.291888
688.133401	0.292221
688.335649	0.292252
688.537878	0.292534
688.740089	0.292722
688.942281	0.293171
689.144456	0.293460
689.346612	0.293909
689.548750	0.294034
689.750870	0.294551
689.952971	0.294313
690.155055	0.294589
690.357120	0.294960
690.559167	0.295326
690.761195	0.295097
690.963206	0.295306
691.165198	0.295263
691.367172	0.295587
691.569128	0.295654
691.771065	0.296096
691.972984	0.296144
692.174885	0.296234
692.376768	0.296378
692.578633	0.296527
692.780479	0.296563
692.982308	0.296607
693.184118	0.296713
693.385909	0.296971
