sample name	sample
index	816
start time	 03-31-2021  03:33:59 PM
880	0.512174
Peak Time (s)	92.037
Peak Height 	0.5122
calc peak height	90,93
Baseline Time (s)	10.039
Baseline Value 	-0.001045
subtract baseline	10,4
Abs	0.340256
Peak Time (s)	90.035
Peak Height 	0.3403
calc peak height	90,93
Baseline Time (s)	10.539
Baseline Value 	-0.002494
subtract baseline	10,3
PK_550	0.140189
Peak Time (s)	90.035
Peak Height 	0.1402
calc peak height	90,93
Baseline Time (s)	10.039
Baseline Value 	3.2921E-4
subtract baseline	10,2
PK_880	0.329478
Peak Time (s)	91.537
Peak Height 	0.3295
calc peak height	90,93
Baseline Time (s)	9.036
Baseline Value 	0.001151
subtract baseline	10,1


Time (s)	A880-A510	A880-A775	A880-A975	A880	I510	I775	I975	I880	
0.041500	-0.002361	-0.001050	0.004879	0.000389	6583.066532	38862.466650	4042.602683	21341.743671
0.539500	-0.002016	-0.000074	0.000455	0.002313	6570.575779	38784.644307	4029.106692	21261.247368
1.037000	-0.000369	-0.000939	-0.005773	0.002355	6583.270095	38710.408075	4015.970967	21259.521133
1.537000	-0.001435	0.000257	0.004733	0.001551	6581.194890	38874.422626	4039.806839	21293.083172
2.035000	-0.000723	0.000619	-0.004433	0.001870	6584.310340	38877.910627	4019.773954	21279.756971
2.535000	-0.001665	-0.000677	0.004931	0.000800	6585.326722	38859.376540	4041.835810	21324.521338
3.035000	0.001466	0.000561	0.005300	-0.001398	6627.828613	39142.817822	4047.341600	21416.782443
3.536000	0.003053	0.000538	0.002236	0.000643	6624.193436	38972.285072	4036.418602	21331.079368
4.035500	0.000535	-0.000061	0.005758	-0.000085	6609.871111	38982.911638	4045.504821	21361.614453
4.536000	0.000468	-0.000190	-0.000644	-0.000599	6613.441860	39014.704285	4032.942212	21383.212614
5.036000	-0.001253	-0.000204	0.002251	-0.000475	6598.729802	39003.286332	4038.834262	21377.997898
5.536500	0.002014	0.000054	0.010398	-0.000053	6621.444745	38989.790410	4055.457186	21360.280739
6.037000	-0.003006	-0.000055	0.002357	-0.000945	6588.531996	39054.416411	4040.063273	21397.752145
6.536500	-0.000710	0.000565	0.003786	0.000292	6596.941710	39003.429943	4040.472823	21345.797367
7.037500	0.000864	-0.000006	0.005071	-0.000657	6617.074666	39034.678306	4045.258475	21385.640304
7.535000	-0.003421	-0.000724	0.001352	0.004691	6540.843798	38537.216559	4025.987866	21162.301898
8.035000	-0.000344	0.000185	0.003984	-0.000754	6608.191421	39058.400064	4043.135294	21389.709970
8.534500	0.001353	0.000687	0.004007	-0.000157	6616.982816	39050.588601	4041.904096	21364.626002
9.035500	0.000000	-0.000270	-0.000004	-0.000319	6607.470750	38985.049061	4033.706383	21371.458727
9.536000	-0.004151	-0.000500	-0.003111	0.004840	6533.971873	38543.372573	4016.339118	21156.124902
10.039000	0.000993	0.000000	0.003504	0.000000	6612.853356	38980.941298	4040.493790	21358.054170
10.539000	0.001105	0.001252	0.000000	0.000024	6613.553968	39082.332597	4032.987587	21357.063164
11.037000	-0.000571	0.000505	0.001242	-0.000448	6603.947384	39059.621753	4036.626338	21376.871677
11.537000	-0.003761	-0.000418	-0.003112	0.003976	6543.777079	38620.449945	4018.135461	21191.979056
12.035000	0.000187	-0.000048	-0.001450	-0.000677	6611.821905	39032.896988	4031.401769	21386.491373
12.535000	-0.000237	-0.000090	0.002278	-0.000879	6610.051057	39046.064691	4039.753804	21394.986864
13.035500	-0.002101	-0.000509	0.003144	-0.002324	6606.700077	39130.899822	4044.699940	21455.802403
13.536000	-0.004273	-0.000702	-0.004325	0.004358	6536.782374	38566.123884	4014.816250	21176.113869
14.035500	-0.003735	-0.000409	-0.003292	0.000407	6572.053684	38913.660652	4025.230977	21340.970933
14.536500	-0.000782	0.000544	0.000651	0.001940	6583.293267	38866.097621	4030.311518	21276.859245
15.039500	0.000675	0.000539	0.000345	0.000859	6603.456017	38954.522981	4031.948134	21322.047990
15.549000	0.000980	-0.000143	-0.000066	0.000189	6611.234636	38953.618672	4032.496754	21350.127714
16.037500	0.002159	0.000735	0.002139	0.000505	6618.136799	38999.886259	4036.507253	21336.874581
16.537500	-0.001215	0.000059	-0.000349	-0.000337	6597.935808	39013.666326	4033.012685	21372.219740
17.034500	0.000002	0.000479	0.002296	0.000158	6603.680479	39007.416013	4037.579998	21351.439049
17.535500	0.001787	0.000433	0.001617	-0.003628	6648.371264	39317.398147	4044.221259	21510.918297
18.035500	0.000833	0.000144	0.002308	0.000100	6610.777756	38984.628923	4037.729964	21353.868511
18.535500	-0.001697	-0.000199	0.002360	0.000628	6586.429074	38912.813234	4036.715814	21331.711603
19.036000	-0.001920	0.000634	0.000439	0.000763	6583.600242	38970.332586	4032.352279	21326.083364
19.537000	-0.002385	0.000425	0.001803	0.000859	6579.155705	38945.211196	4035.040811	21322.069948
20.036500	-0.002006	-0.000293	0.000374	0.000746	6583.048300	38895.322874	4032.249341	21326.773806
20.537000	0.000141	0.000081	0.001734	0.000786	6599.782152	38922.867755	4035.048937	21325.098857
21.037000	-0.001248	-0.000418	0.006097	0.000004	6594.957466	38946.157162	4046.042476	21357.887555
21.534500	-0.000883	0.000312	0.006299	0.000984	6590.070921	38925.598701	4044.370933	21316.811584
22.035000	-0.001301	0.000051	0.004288	0.000805	6588.172599	38918.841823	4040.448930	21324.307255
22.535000	-0.001555	-0.000209	0.002864	0.000322	6589.990632	38937.215435	4038.441168	21344.544841
23.035500	-0.000718	-0.000472	0.001941	0.000665	6593.912033	38887.335335	4035.746387	21330.185222
23.535500	-0.000557	0.000210	0.003268	0.001141	6591.410335	38904.258118	4037.555950	21310.227685
24.036500	-0.002850	-0.000070	-0.003864	0.000243	6580.344472	38955.091015	4024.373266	21347.854250
24.536500	-0.002391	0.000497	0.003397	0.001028	6577.773157	38937.205529	4038.071588	21314.980454
25.037000	0.001826	0.000340	0.004929	0.001181	6610.068547	38911.629045	4041.014833	21308.554601
25.537500	-0.001138	0.000062	0.001875	0.000499	6591.893846	38944.998444	4035.959459	21337.144885
26.035000	-0.002661	-0.000972	0.002244	0.000096	6583.009663	38893.005584	4037.602909	21354.039640
26.535000	-0.000927	0.000240	-0.001322	0.000830	6590.934284	38932.287647	4028.486169	21323.244356
27.035500	0.000273	0.000431	0.001235	0.001146	6597.970740	38922.064832	4033.225689	21310.036042
27.535500	0.001229	0.000211	-0.000261	-0.000224	6616.533791	39016.821732	4032.960166	21367.469736
28.035500	0.002136	0.000353	0.000836	-0.002404	6641.314947	39208.960515	4039.931347	21459.195107
28.536000	-0.001196	0.000225	0.000780	0.000044	6595.054109	38995.894403	4034.599640	21356.224996
29.036500	0.000287	0.000697	0.002326	0.000079	6606.581991	39031.914034	4037.812831	21354.742264
29.537000	-0.000011	0.000195	0.006997	0.000387	6601.751227	38965.129625	4047.155191	21341.826601
30.037000	-0.001872	-0.000488	0.002159	-0.000096	6590.789913	38948.625826	4037.829511	21362.068280
30.540000	-0.002778	-0.000460	0.000331	-0.000342	6585.552123	38971.215344	4034.466578	21372.420197
31.037500	0.000080	0.000698	0.005336	0.000490	6601.650434	38998.074600	4043.364977	21337.495865
31.535000	0.000474	0.000387	-0.002240	0.002151	6591.573729	38835.806119	4023.777016	21268.019871
32.038000	-0.002104	-0.000587	0.000455	0.000151	6586.989958	38920.158068	4033.682266	21351.712904
32.562500	-0.001203	-0.000249	-0.000139	-0.000325	6597.931707	38987.246874	4033.432529	21371.696127
33.038500	-0.000489	0.000601	0.003322	0.000478	6597.220126	38991.030977	4039.085273	21338.001369
33.539000	0.000237	-0.000057	0.003614	-0.000346	6609.576489	39004.756204	4041.468261	21372.574478
34.036500	-0.001661	-0.000057	0.002227	0.000131	6590.660858	38965.418037	4037.490813	21352.543099
34.537000	-0.003437	-0.000266	-0.004741	-0.000079	6578.254495	38965.550844	4023.209839	21361.389211
35.040000	-0.000379	0.000638	0.002091	0.001307	6591.508262	38925.808578	4034.700013	21303.304447
35.537500	-0.002856	-0.000106	0.001219	0.001846	6567.633851	38820.328524	4031.709362	21280.752222
36.035000	-0.003235	-0.000645	0.002921	0.000751	6573.285091	38866.062245	4037.649266	21326.580688
36.535000	0.000047	0.000348	0.003755	0.001751	6591.361519	38865.419924	4037.295092	21284.723585
37.035000	-0.002931	-0.000477	-0.001673	0.000850	6574.906034	38871.674431	4027.705697	21322.436180
37.535500	0.001370	0.000524	0.002976	0.001403	6604.657976	38908.517072	4036.377271	21299.288053
38.041500	-0.001271	0.000614	-0.000167	0.001767	6580.783911	38885.962052	4028.946363	21284.053719
38.536500	-0.001213	-0.000310	0.001277	0.000587	6590.598159	38907.031710	4034.501814	21333.437869
39.036500	-0.001267	0.000058	-0.003717	0.001231	6585.063375	38884.331303	4022.610508	21306.478166
39.537000	-0.001309	0.000165	0.002645	0.001055	6586.125063	38907.661103	4036.414384	21313.846564
40.037000	-0.000954	0.000141	0.001300	0.001701	6583.823519	38852.542573	4032.189230	21286.842914
40.537500	-0.001412	0.000218	0.001292	0.001442	6582.239632	38880.153648	4032.719294	21297.664995
41.037500	-0.002236	0.001319	-0.000178	0.002055	6570.878603	38920.312829	4028.318025	21272.041381
41.535500	-0.000923	-0.000288	-0.002074	0.001181	6588.189694	38860.042115	4026.166459	21308.588863
42.035500	0.000019	-0.000888	0.008078	0.000839	6598.394269	38838.840821	4048.508624	21322.885823
42.536000	-0.002298	-0.000720	0.000677	0.000302	6584.259400	38896.832809	4033.833128	21345.398438
43.036000	0.000428	-0.000182	-0.002332	0.001097	6599.594252	38875.708402	4025.799961	21312.106825
43.536500	-0.001499	-0.000235	0.000746	0.000744	6587.083340	38900.278219	4033.041536	21326.859836
44.036500	0.001280	0.000186	0.001740	0.001116	6606.233562	38904.353737	4034.361315	21311.308334
44.537000	0.001729	0.000634	-0.000424	-0.002908	6642.094661	39274.204923	4038.317797	21480.471404
45.037000	0.000703	0.000656	0.007692	-0.000198	6612.112180	39051.435140	4049.913457	21366.367672
45.537500	-0.000012	-0.000249	0.006855	-0.000356	6607.661862	38989.703544	4048.448668	21372.984901
46.035000	-0.000668	-0.000313	0.001603	-0.000352	6602.402332	38984.155134	4037.190656	21372.825053
46.535500	-0.001614	-0.000202	0.002093	-0.000090	6592.794216	38971.719126	4037.677066	21361.842734
47.035500	-0.000955	-0.000165	0.000113	-0.000303	6599.728692	38992.291447	4033.919989	21370.776350
47.535000	-0.003065	-0.000120	-0.001276	0.004293	6546.747960	38618.883595	4021.308905	21178.815651
48.055500	-0.000643	-0.000341	0.003451	-0.000109	6600.672443	38961.840038	4040.613546	21362.635780
48.539500	-0.000308	-0.000284	0.004076	0.001105	6593.681444	38866.594975	4039.356958	21311.768776
49.038000	-0.001794	0.000592	-0.000227	0.001404	6579.511742	38914.048014	4029.585888	21299.225967
49.553500	-0.000658	0.000596	-0.002198	0.000153	6598.463391	39017.468685	4028.067686	21351.627775
50.034500	-0.002394	-0.000406	0.003157	-0.000202	6587.494517	38964.175730	4040.185215	21366.551196
50.535000	0.001378	-0.000072	0.002662	-0.000473	6619.716141	39013.990206	4039.705347	21377.901611
51.034500	0.002407	0.000204	0.006627	-0.002820	6646.850867	39231.099498	4053.279696	21476.746523
51.535500	0.001078	-0.000806	0.004936	-0.006305	6664.296053	39437.193032	4057.172090	21624.502205
52.038500	-0.003367	-0.001777	0.003744	-0.001853	6592.866155	38987.136552	4044.976341	21435.945789
52.536000	-0.020220	0.003742	0.000641	0.126261	5613.507333	30178.953120	3801.838765	16761.183374
53.036500	-0.027180	0.005734	-0.001798	-0.018664	6537.683979	41050.154235	4069.486925	22158.196283
53.537000	-0.018623	-0.018705	0.017249	-0.219856	8645.953695	60075.312011	4701.529657	33366.505294
54.037000	0.003816	-0.037597	0.042982	-0.265457	9579.477778	63684.839010	4985.176397	36713.317878
54.539500	0.039052	-0.006649	0.060886	-0.218492	9407.953026	61493.749154	4863.974108	33271.761515
55.037000	0.060217	0.019168	0.086532	-0.133903	8556.543369	54112.045337	4641.693698	27938.482385
55.535000	0.091056	0.039079	0.125667	-0.075472	8223.247292	49788.506031	4575.239390	24816.335634
56.035500	0.127188	0.059721	0.153992	-0.028961	8103.257039	47092.871913	4515.257062	22614.570725
56.538500	0.163724	0.080106	0.180759	0.011636	8057.082913	45095.685056	4471.294437	20876.341494
57.035500	0.191850	0.097374	0.210498	0.076010	7663.509068	40786.464774	4367.143867	18432.478094
57.536500	0.214273	0.112946	0.237160	0.162978	7039.066572	35084.476484	4204.489115	15656.686491
58.036500	0.234012	0.122797	0.251933	0.224505	6681.560947	31504.601560	4093.045346	14002.889761
58.537000	0.245420	0.131205	0.269001	0.280779	6334.158609	28547.957089	4008.410525	12682.327728
59.037500	0.257215	0.138053	0.279449	0.319580	6141.701917	26748.007385	3951.794746	11866.486715
59.537500	0.270729	0.144911	0.283874	0.351842	6014.963901	25408.577450	3899.689853	11241.495797
60.035000	0.275584	0.147992	0.290771	0.378726	5872.872852	24222.654667	3864.285880	10755.001651
60.535000	0.280059	0.152818	0.301344	0.390184	5829.316139	23903.665839	3862.756557	10556.647948
61.038500	0.292545	0.157498	0.308688	0.427740	5678.579549	22392.281843	3812.342744	9941.967673
61.535500	0.292811	0.158695	0.306908	0.443008	5592.450488	21779.536304	3785.405467	9706.878274
62.036000	0.291866	0.157392	0.316644	0.425750	5686.246604	22475.845334	3828.554105	9973.221925
62.536000	0.295308	0.158759	0.310038	0.440782	5619.247261	21877.884367	3793.755092	9740.636859
63.036500	0.298156	0.159260	0.309736	0.440813	5635.369091	21898.179319	3793.234135	9740.172805
63.559500	0.302995	0.158300	0.305966	0.446257	5631.895924	21624.077911	3778.943986	9657.908665
64.037000	0.302159	0.161884	0.307272	0.444206	5638.872595	21865.058506	3784.116190	9688.785916
64.540500	0.307432	0.163760	0.317118	0.445185	5663.680430	21903.683179	3797.967405	9674.027551
65.034500	0.311432	0.162404	0.308896	0.443186	5698.754552	21931.437700	3788.215426	9704.182266
65.535500	0.310256	0.162426	0.314094	0.443372	5690.749987	21924.378201	3796.059190	9701.379202
66.036000	0.312334	0.162316	0.301941	0.444894	5694.015491	21854.043205	3774.872259	9678.413034
66.544500	0.314755	0.162875	0.314893	0.447112	5695.210681	21782.806023	3791.446502	9645.091672
67.036500	0.312646	0.162768	0.313994	0.449008	5671.774671	21697.189960	3787.090540	9616.740347
67.536500	0.313142	0.161584	0.314734	0.450577	5665.531666	21580.124995	3785.805774	9593.373745
68.037000	0.317745	0.162233	0.312722	0.453012	5678.154636	21504.539852	3778.946017	9557.263334
68.537000	0.317287	0.160840	0.324570	0.455094	5663.364908	21358.447024	3794.099350	9526.554745
69.037500	0.318354	0.161804	0.314025	0.458333	5650.790654	21263.457596	3772.808362	9479.079362
69.534500	0.315233	0.160354	0.319881	0.460699	5619.291284	21105.167824	3778.136316	9444.620168
70.035000	0.322582	0.160937	0.319847	0.463044	5648.000411	21032.592955	3774.500045	9410.659980
70.538000	0.320167	0.159888	0.322741	0.463850	5629.485384	20956.498427	3777.691753	9399.031051
71.036000	0.320747	0.158626	0.318651	0.463420	5635.274869	20922.430988	3772.107830	9405.226248
71.536000	0.321417	0.157835	0.316976	0.464791	5631.254948	20834.273367	3767.498448	9385.464868
72.036500	0.321666	0.157958	0.313317	0.465533	5628.428290	20809.124602	3760.895641	9374.801527
72.536500	0.323183	0.157603	0.320684	0.467102	5628.129863	20731.165149	3769.609286	9352.303683
73.036500	0.323064	0.157803	0.317784	0.468072	5621.908598	20700.073013	3763.779757	9338.439853
73.537000	0.322803	0.158295	0.326107	0.470953	5604.031681	20603.952407	3771.992653	9297.443328
74.034500	0.323787	0.155688	0.318898	0.469424	5618.319321	20560.714486	3763.423173	9319.162714
74.535000	0.325576	0.156791	0.322907	0.471961	5614.053889	20503.363940	3765.632819	9283.150156
75.037500	0.324702	0.155536	0.318115	0.473132	5602.444435	20406.830373	3756.728188	9266.601746
75.535500	0.322956	0.155861	0.323574	0.476112	5575.816836	20301.811766	3760.416066	9224.688002
76.035500	0.322232	0.154334	0.323960	0.475804	5573.483522	20253.810304	3761.451474	9229.005807
76.536000	0.325530	0.153727	0.325317	0.476399	5588.664170	20206.580857	3762.590629	9220.662343
77.036000	0.324004	0.153652	0.320595	0.478635	5567.565279	20116.219032	3752.260422	9189.429928
77.536500	0.324575	0.154584	0.321748	0.480729	5559.069842	20070.917645	3750.875282	9160.306858
78.039500	0.324773	0.153795	0.325689	0.481382	5556.539783	20014.926428	3755.726518	9151.264321
78.537500	0.320587	0.150947	0.328211	0.480657	5537.373701	19932.778700	3760.553415	9161.312092
79.037500	0.327661	0.153722	0.321708	0.484886	5553.115926	19876.767159	3744.736129	9102.925955
79.538000	0.327300	0.153651	0.328566	0.487529	5536.497442	19772.696679	3750.901051	9066.730866
80.035000	0.324540	0.150993	0.326010	0.486209	5528.573216	19721.649510	3749.087133	9084.783424
80.536000	0.326778	0.151059	0.330179	0.487953	5531.286975	19657.825407	3752.650590	9060.941097
81.035500	0.323935	0.148964	0.327297	0.488548	5512.447335	19556.019225	3747.548188	9052.833858
81.536000	0.324296	0.148508	0.330813	0.489506	5509.194035	19502.789021	3751.298879	9039.800644
82.039000	0.326695	0.148195	0.327294	0.490397	5517.427855	19457.590320	3744.845591	9027.701435
82.537000	0.329715	0.149162	0.330759	0.493313	5517.997880	19384.674415	3745.645309	8988.283448
83.037000	0.327195	0.147833	0.332903	0.494241	5499.203893	19300.632722	3747.420840	8975.786931
83.534000	0.326445	0.146782	0.329537	0.495278	5489.526556	19223.267616	3741.016009	8961.861106
84.038000	0.327415	0.146405	0.328328	0.495685	5492.571105	19194.319532	3738.683217	8956.409441
84.538000	0.326150	0.144756	0.325178	0.495220	5488.247915	19150.712303	3734.824337	8962.647744
85.035500	0.326116	0.144162	0.334263	0.496863	5479.201672	19068.611030	3745.578588	8940.644727
85.535500	0.325773	0.145097	0.329418	0.498855	5466.673418	19030.007158	3735.691894	8914.088887
86.038500	0.330749	0.145781	0.337258	0.500367	5485.288299	18999.798622	3744.837708	8894.010400
86.539500	0.329156	0.144519	0.333252	0.501860	5468.696694	18899.696157	3736.882519	8874.248027
87.039000	0.328799	0.144309	0.339000	0.502955	5460.932600	18852.498991	3743.606734	8859.802798
87.537000	0.327866	0.143374	0.330867	0.502916	5456.162560	18820.199339	3731.954268	8860.314168
88.037000	0.330203	0.141331	0.328631	0.503105	5467.637673	18739.982216	3728.505833	8857.824094
88.535000	0.326331	0.141064	0.333339	0.504070	5441.878428	18695.891202	3733.836714	8845.124927
89.034500	0.327414	0.140973	0.333091	0.505830	5438.294191	18629.864909	3730.971689	8822.037052
89.535500	0.328154	0.140196	0.329122	0.506311	5439.664831	18585.161549	3724.667387	8815.747134
90.035500	0.327988	0.140189	0.340256	0.508140	5429.134951	18520.158951	3737.923177	8791.884109
90.535500	0.329090	0.139005	0.330140	0.509237	5429.160347	18439.719738	3721.984104	8777.609619
91.036000	0.324986	0.139164	0.336773	0.510178	5402.744859	18412.263792	3730.022986	8765.399711
91.536500	0.329478	0.137809	0.333560	0.511028	5421.782677	18335.105577	3724.274448	8754.403499
92.036500	0.327681	0.137863	0.339794	0.512174	5406.381914	18297.014019	3731.482662	8739.589601
92.537000	0.327555	0.137488	0.330553	0.511758	5407.896975	18298.425187	3719.032063	8744.958361
93.034000	0.327149	0.135660	0.336443	0.512469	5402.080859	18210.279852	3726.308582	8735.791621
93.537500	0.330990	0.135641	0.340430	0.514183	5413.175922	18150.427059	3729.529967	8713.742641
94.035000	0.327326	0.134794	0.335832	0.515472	5387.419345	18076.918237	3721.223686	8697.213155
94.535000	0.328590	0.134938	0.334622	0.516352	5389.410061	18051.688283	3718.301029	8685.958127
95.124000	0.332341	0.134735	0.349679	0.517730	5401.719041	17997.627781	3737.683423	8668.376451
95.535500	0.329876	0.133788	0.337756	0.519149	5381.600710	17917.077642	3718.770311	8650.329398
96.055000	0.330899	0.135019	0.347997	0.519596	5384.573122	17943.721711	3732.597788	8644.660824
96.537000	0.329840	0.133327	0.342273	0.519566	5379.266408	17887.298033	3724.520949	8645.041736
97.037000	0.330445	0.133098	0.347217	0.520960	5375.208343	17832.405549	3729.543566	8627.390152
97.537000	0.330781	0.130979	0.331515	0.520674	5378.408282	17770.663790	3708.027628	8631.003317
98.054500	0.331176	0.132470	0.346579	0.522725	5369.891006	17751.836458	3726.139233	8605.112379
