sample name	sample
index	911
start time	 04-12-2021  10:47:59 AM


Wavelength (nm)	Absorbance
494.344910	-0.043481
494.563924	-0.043481
494.782919	-0.043481
495.001897	0.350199
495.220856	-0.052237
495.439797	-0.055727
495.658719	-0.070948
495.877624	-0.052100
496.096510	-0.111828
496.315378	-0.085256
496.534227	-0.082313
496.753059	-0.095403
496.971872	-0.093224
497.190667	0.014935
497.409444	0.031860
497.628203	0.032384
497.846943	0.034032
498.065665	0.035737
498.284369	0.035863
498.503055	0.035905
498.721723	0.036209
498.940372	0.037323
499.159003	0.037150
499.377616	0.036862
499.596210	0.036878
499.814787	0.037223
500.033345	0.037255
500.251885	0.037546
500.470406	0.038219
500.688910	0.038200
500.907395	0.037062
501.125862	0.037530
501.344311	0.037185
501.562742	0.038354
501.781154	0.037743
501.999548	0.037756
502.217924	0.036961
502.436282	0.036512
502.654621	0.036727
502.872942	0.037270
503.091245	0.038025
503.309530	0.037907
503.527797	0.037893
503.746045	0.038332
503.964275	0.038615
504.182487	0.038756
504.400681	0.038606
504.618856	0.038984
504.837013	0.039234
505.055152	0.038720
505.273273	0.039244
505.491376	0.038682
505.709460	0.039418
505.927526	0.039911
506.145574	0.040429
506.363604	0.041184
506.581615	0.041620
506.799608	0.042208
507.017583	0.043213
507.235540	0.043791
507.453478	0.043898
507.671399	0.042500
507.889301	0.042342
508.107185	0.043280
508.325050	0.043856
508.542898	0.044211
508.760727	0.044404
508.978538	0.043950
509.196330	0.044006
509.414105	0.044668
509.631861	0.045955
509.849599	0.045797
510.067319	0.045288
510.285021	0.044905
510.502704	0.044774
510.720369	0.044524
510.938016	0.044608
511.155645	0.044935
511.373255	0.044757
511.590848	0.045496
511.808422	0.045741
512.025977	0.046090
512.243515	0.046525
512.461034	0.046840
512.678536	0.047172
512.896018	0.047039
513.113483	0.047514
513.330930	0.047968
513.548358	0.047660
513.765768	0.048392
513.983160	0.048500
514.200533	0.048757
514.417889	0.049381
514.635226	0.050033
514.852545	0.049920
515.069845	0.049660
515.287128	0.049765
515.504392	0.049573
515.721638	0.049328
515.938866	0.048817
516.156075	0.048962
516.373267	0.049285
516.590440	0.049271
516.807594	0.050176
517.024731	0.050436
517.241850	0.050578
517.458950	0.051490
517.676032	0.052057
517.893095	0.052979
518.110141	0.052858
518.327168	0.052402
518.544177	0.052497
518.761168	0.053093
518.978141	0.053286
519.195095	0.053152
519.412031	0.052905
519.628949	0.052755
519.845849	0.053162
520.062731	0.053588
520.279594	0.054073
520.496439	0.054124
520.713266	0.054068
520.930074	0.054549
521.146865	0.055125
521.363637	0.055228
521.580391	0.055527
521.797127	0.055501
522.013844	0.055778
522.230543	0.055992
522.447224	0.056885
522.663887	0.057477
522.880532	0.057211
523.097158	0.057457
523.313766	0.058759
523.530356	0.059823
523.746928	0.060468
523.963481	0.060979
524.180017	0.061480
524.396534	0.061215
524.613032	0.061357
524.829513	0.061739
525.045975	0.062366
525.262420	0.061865
525.478845	0.061484
525.695253	0.061472
525.911643	0.061499
526.128014	0.061490
526.344367	0.062130
526.560702	0.062631
526.777018	0.062814
526.993316	0.063990
527.209597	0.064392
527.425858	0.064828
527.642102	0.065767
527.858328	0.065920
528.074535	0.066473
528.290724	0.066321
528.506894	0.066137
528.723047	0.066907
528.939181	0.066173
529.155297	0.066838
529.371395	0.066870
529.587475	0.067216
529.803536	0.068208
530.019579	0.068080
530.235604	0.069038
530.451611	0.069691
530.667600	0.070189
530.883570	0.071151
531.099522	0.071239
531.315456	0.071678
531.531372	0.071653
531.747269	0.071721
531.963148	0.072591
532.179009	0.072731
532.394852	0.073125
532.610676	0.073961
532.826482	0.074124
533.042271	0.074760
533.258040	0.075721
533.473792	0.076224
533.689525	0.076446
533.905240	0.076529
534.120937	0.076785
534.336616	0.077480
534.552277	0.077445
534.767919	0.077678
534.983543	0.077610
535.199149	0.077239
535.414736	0.077474
535.630306	0.078087
535.845857	0.078615
536.061390	0.079084
536.276904	0.079174
536.492401	0.079154
536.707879	0.079366
536.923339	0.079789
537.138781	0.079953
537.354204	0.080348
537.569610	0.080521
537.784997	0.081019
538.000366	0.081390
538.215716	0.081729
538.431049	0.082621
538.646363	0.082903
538.861659	0.083396
539.076937	0.084428
539.292196	0.084363
539.507438	0.084664
539.722661	0.084439
539.937866	0.085057
540.153052	0.085464
540.368221	0.085172
540.583371	0.085480
540.798503	0.086081
541.013617	0.086525
541.228712	0.087336
541.443789	0.087657
541.658848	0.087897
541.873889	0.087979
542.088912	0.088250
542.303916	0.088949
542.518902	0.089256
542.733870	0.089511
542.948820	0.089547
543.163752	0.089768
543.378665	0.089883
543.593560	0.090745
543.808437	0.091347
544.023295	0.091802
544.238136	0.091696
544.452958	0.091661
544.667762	0.091926
544.882548	0.092176
545.097315	0.092700
545.312064	0.093434
545.526795	0.093412
545.741508	0.093152
545.956203	0.093131
546.170879	0.093630
546.385537	0.094222
546.600177	0.094309
546.814799	0.095040
547.029402	0.095178
547.243988	0.095669
547.458555	0.096278
547.673103	0.096393
547.887634	0.096917
548.102146	0.097278
548.316640	0.097972
548.531116	0.098241
548.745574	0.098066
548.960013	0.098340
549.174435	0.098196
549.388838	0.098155
549.603222	0.098905
549.817589	0.098728
550.031937	0.099287
550.246267	0.099225
550.460579	0.099331
550.674873	0.099398
550.889148	0.099583
551.103405	0.100112
551.317644	0.100308
551.531865	0.100147
551.746068	0.100855
551.960252	0.100643
552.174418	0.101095
552.388566	0.101460
552.602696	0.101983
552.816807	0.102100
553.030900	0.101862
553.244975	0.102363
553.459032	0.102805
553.673070	0.102754
553.887091	0.103159
554.101093	0.103855
554.315077	0.104393
554.529042	0.104212
554.742990	0.104467
554.956919	0.105217
555.170830	0.105465
555.384722	0.105395
555.598597	0.105565
555.812453	0.105949
556.026291	0.105918
556.240111	0.105922
556.453913	0.106550
556.667696	0.106819
556.881461	0.106691
557.095208	0.106876
557.308937	0.107144
557.522647	0.107246
557.736339	0.107330
557.950013	0.107255
558.163669	0.107652
558.377307	0.107963
558.590926	0.108095
558.804527	0.108116
559.018110	0.108392
559.231675	0.109100
559.445221	0.109487
559.658749	0.109455
559.872259	0.109592
560.085751	0.109188
560.299225	0.109488
560.512680	0.109704
560.726117	0.110146
560.939536	0.110480
561.152937	0.110636
561.366319	0.111098
561.579683	0.111781
561.793029	0.111903
562.006357	0.112366
562.219667	0.112300
562.432958	0.112612
562.646231	0.112954
562.859486	0.112972
563.072723	0.113189
563.285941	0.113335
563.499141	0.113431
563.712323	0.114104
563.925487	0.114591
564.138632	0.115160
564.351760	0.115706
564.564869	0.116012
564.777960	0.116481
564.991032	0.116664
565.204087	0.116824
565.417123	0.116823
565.630141	0.116683
565.843140	0.116749
566.056122	0.116820
566.269085	0.116874
566.482030	0.117226
566.694957	0.117097
566.907866	0.117474
567.120756	0.117613
567.333628	0.117828
567.546482	0.118262
567.759318	0.118489
567.972135	0.118990
568.184935	0.119393
568.397716	0.119349
568.610478	0.119376
568.823223	0.119439
569.035949	0.119562
569.248657	0.119704
569.461347	0.119871
569.674019	0.120122
569.886672	0.120086
570.099308	0.120220
570.311925	0.120480
570.524523	0.120983
570.737104	0.121019
570.949666	0.121419
571.162210	0.121852
571.374736	0.122124
571.587244	0.122598
571.799733	0.122335
572.012205	0.122651
572.224658	0.122910
572.437092	0.123379
572.649509	0.123904
572.861907	0.124174
573.074287	0.124204
573.286649	0.124238
573.498993	0.124081
573.711318	0.124620
573.923625	0.124591
574.135914	0.124855
574.348185	0.125030
574.560438	0.125047
574.772672	0.124990
574.984888	0.125352
575.197086	0.125646
575.409266	0.126010
575.621427	0.126219
575.833570	0.126392
576.045695	0.126563
576.257802	0.126679
576.469890	0.127008
576.681961	0.127283
576.894013	0.127509
577.106046	0.127747
577.318062	0.127863
577.530059	0.128277
577.742039	0.128299
577.954000	0.128335
578.165942	0.128378
578.377867	0.128430
578.589773	0.128580
578.801661	0.128899
579.013531	0.129036
579.225382	0.129150
579.437216	0.128943
579.649031	0.128919
579.860828	0.129319
580.072606	0.129561
580.284367	0.129672
580.496109	0.130162
580.707833	0.129950
580.919539	0.130036
581.131227	0.130219
581.342896	0.130692
581.554547	0.131475
581.766180	0.131595
581.977795	0.131906
582.189391	0.132336
582.400969	0.132175
582.612529	0.132588
582.824071	0.132706
583.035595	0.133064
583.247100	0.133280
583.458587	0.133159
583.670056	0.132963
583.881506	0.133182
584.092939	0.133087
584.304353	0.133556
584.515749	0.133697
584.727127	0.134094
584.938486	0.134396
585.149828	0.134512
585.361151	0.134770
585.572456	0.135510
585.783742	0.135611
585.995011	0.136181
586.206261	0.136588
586.417493	0.136892
586.628706	0.136974
586.839902	0.137252
587.051079	0.137242
587.262238	0.137530
587.473379	0.137587
587.684502	0.137581
587.895606	0.137726
588.106692	0.137551
588.317760	0.137844
588.528810	0.138250
588.739841	0.138239
588.950855	0.138766
589.161850	0.139034
589.372827	0.139441
589.583785	0.140307
589.794726	0.140479
590.005648	0.140884
590.216552	0.141173
590.427437	0.141315
590.638305	0.141645
590.849154	0.141544
591.059985	0.141698
591.270798	0.141446
591.481592	0.141157
591.692369	0.141579
591.903127	0.141817
592.113867	0.142009
592.324588	0.142333
592.535292	0.142632
592.745977	0.143020
592.956644	0.143115
593.167293	0.143547
593.377923	0.144160
593.588536	0.144429
593.799130	0.144412
594.009706	0.144472
594.220263	0.144831
594.430803	0.144934
594.641324	0.145103
594.851827	0.145211
595.062312	0.145379
595.272778	0.145307
595.483227	0.145189
595.693657	0.145454
595.904069	0.145646
596.114462	0.145514
596.324838	0.145918
596.535195	0.146078
596.745534	0.146590
596.955855	0.146946
597.166157	0.147183
597.376441	0.147217
597.586707	0.147234
597.796955	0.147540
598.007185	0.147932
598.217396	0.147758
598.427589	0.148539
598.637764	0.148654
598.847921	0.148710
599.058060	0.148742
599.268180	0.148946
599.478282	0.149593
599.688366	0.149867
599.898431	0.149907
600.108479	0.149910
600.318508	0.149806
600.528519	0.150034
600.738511	0.149997
600.948486	0.150045
601.158442	0.150417
601.368380	0.150515
601.578300	0.150497
601.788202	0.150951
601.998085	0.151475
602.207950	0.151696
602.417797	0.151659
602.627626	0.151874
602.837436	0.152394
603.047228	0.152477
603.257002	0.152752
603.466758	0.152866
603.676496	0.153073
603.886215	0.153096
604.095916	0.153014
604.305599	0.153250
604.515264	0.153589
604.724910	0.153633
604.934538	0.153886
605.144148	0.154163
605.353740	0.154312
605.563314	0.153984
605.772869	0.154248
605.982406	0.154677
606.191925	0.154972
606.401425	0.155028
606.610908	0.155246
606.820372	0.155586
607.029818	0.155592
607.239246	0.155871
607.448655	0.156546
607.658047	0.156707
607.867420	0.156356
608.076775	0.156452
608.286111	0.156920
608.495430	0.156839
608.704730	0.156864
608.914012	0.156909
609.123275	0.157126
609.332521	0.157208
609.541748	0.157274
609.750957	0.157627
609.960148	0.157843
610.169321	0.157914
610.378475	0.158343
610.587611	0.158454
610.796729	0.158588
611.005829	0.158721
611.214910	0.158571
611.423974	0.158833
611.633019	0.159446
611.842045	0.159634
612.051054	0.159670
612.260044	0.159652
612.469017	0.159526
612.677970	0.159768
612.886906	0.159963
613.095824	0.160152
613.304723	0.160383
613.513604	0.160250
613.722467	0.160596
613.931311	0.161002
614.140138	0.161521
614.348946	0.161751
614.557736	0.161714
614.766507	0.161957
614.975261	0.162496
615.183996	0.162430
615.392713	0.162526
615.601412	0.162696
615.810092	0.162821
616.018754	0.162562
616.227399	0.163090
616.436024	0.163699
616.644632	0.163882
616.853222	0.163882
617.061793	0.164325
617.270346	0.164894
617.478880	0.164860
617.687397	0.164987
617.895895	0.165470
618.104375	0.165347
618.312837	0.165425
618.521281	0.165212
618.729706	0.165378
618.938113	0.165553
619.146502	0.165611
619.354873	0.165975
619.563226	0.166140
619.771560	0.166304
619.979876	0.166492
620.188174	0.166406
620.396453	0.166641
620.604715	0.166720
620.812958	0.166858
621.021183	0.166919
621.229390	0.166881
621.437578	0.166916
621.645748	0.167031
621.853900	0.167599
622.062034	0.168164
622.270150	0.168444
622.478247	0.168677
622.686326	0.168929
622.894387	0.168891
623.102430	0.169148
623.310454	0.169234
623.518461	0.169268
623.726449	0.169389
623.934418	0.169189
624.142370	0.169547
624.350303	0.169786
624.558218	0.169976
624.766115	0.170539
624.973994	0.170892
625.181855	0.171297
625.389697	0.171735
625.597521	0.171752
625.805327	0.171981
626.013114	0.172111
626.220883	0.172374
626.428634	0.172495
626.636367	0.172422
626.844082	0.172316
627.051778	0.172771
627.259457	0.172879
627.467117	0.173156
627.674758	0.173551
627.882382	0.173626
628.089987	0.173641
628.297574	0.173735
628.505143	0.174007
628.712694	0.174311
628.920226	0.174155
629.127740	0.174563
629.335236	0.174845
629.542714	0.175063
629.750174	0.175217
629.957615	0.175404
630.165038	0.175616
630.372443	0.175660
630.579829	0.175530
630.787198	0.175697
630.994548	0.175376
631.201880	0.175425
631.409194	0.175287
631.616489	0.175697
631.823766	0.176042
632.031025	0.176334
632.238266	0.176810
632.445489	0.177222
632.652693	0.177209
632.859879	0.177333
633.067047	0.177407
633.274197	0.177729
633.481329	0.177749
633.688442	0.177737
633.895537	0.177703
634.102614	0.177851
634.309672	0.178222
634.516713	0.178440
634.723735	0.178686
634.930739	0.178912
635.137724	0.179080
635.344692	0.179187
635.551641	0.179259
635.758572	0.179371
635.965485	0.179466
636.172379	0.179340
636.379256	0.179563
636.586114	0.179753
636.792954	0.179813
636.999775	0.180013
637.206579	0.180328
637.413364	0.180564
637.620131	0.180681
637.826880	0.180826
638.033610	0.181308
638.240323	0.181575
638.447017	0.181744
638.653692	0.181932
638.860350	0.181815
639.066990	0.182070
639.273611	0.182213
639.480214	0.182533
639.686798	0.182620
639.893365	0.182732
640.099913	0.182805
640.306443	0.183276
640.512955	0.183508
640.719449	0.183872
640.925924	0.183888
641.132381	0.184133
641.338820	0.184510
641.545241	0.184811
641.751644	0.184968
641.958028	0.185205
642.164394	0.185225
642.370742	0.185309
642.577071	0.185463
642.783383	0.185713
642.989676	0.186289
643.195951	0.186489
643.402207	0.186826
643.608446	0.187119
643.814666	0.187532
644.020868	0.187618
644.227052	0.188228
644.433218	0.188622
644.639365	0.188948
644.845494	0.188878
645.051605	0.189156
645.257698	0.189114
645.463772	0.189376
645.669828	0.189435
645.875866	0.189890
646.081886	0.189771
646.287888	0.189939
646.493871	0.190049
646.699836	0.190279
646.905783	0.190378
647.111712	0.190816
647.317622	0.190890
647.523514	0.191423
647.729388	0.191804
647.935244	0.192242
648.141082	0.192495
648.346901	0.192830
648.552702	0.193062
648.758485	0.193439
648.964250	0.193611
649.169996	0.193926
649.375724	0.194016
649.581434	0.194308
649.787126	0.194435
649.992800	0.194681
650.198455	0.195049
650.404092	0.195326
650.609711	0.195484
650.815311	0.195584
651.020894	0.195659
651.226458	0.195810
651.432004	0.195905
651.637532	0.196139
651.843041	0.196385
652.048532	0.196658
652.254006	0.196900
652.459460	0.197179
652.664897	0.197473
652.870315	0.197753
653.075716	0.197853
653.281097	0.197949
653.486461	0.198437
653.691807	0.198574
653.897134	0.198446
654.102443	0.198559
654.307734	0.198789
654.513006	0.199199
654.718261	0.199401
654.923497	0.199897
655.128715	0.200204
655.333915	0.200255
655.539096	0.200435
655.744259	0.200742
655.949404	0.201196
656.154531	0.201066
656.359640	0.201039
656.564730	0.201164
656.769802	0.201163
656.974856	0.201109
657.179892	0.201071
657.384909	0.201360
657.589908	0.201346
657.794889	0.201442
657.999852	0.201774
658.204797	0.202005
658.409723	0.202270
658.614631	0.202686
658.819521	0.203107
659.024393	0.203422
659.229246	0.203779
659.434081	0.204295
659.638898	0.204313
659.843697	0.204619
660.048478	0.204813
660.253240	0.204951
660.457984	0.205244
660.662710	0.205495
660.867417	0.206000
661.072107	0.206172
661.276778	0.206275
661.481431	0.206657
661.686066	0.206778
661.890682	0.207017
662.095281	0.207643
662.299861	0.207692
662.504422	0.207775
662.708966	0.207879
662.913491	0.208170
663.117999	0.208514
663.322488	0.208898
663.526958	0.209153
663.731411	0.209515
663.935845	0.209499
664.140261	0.209730
664.344659	0.209993
664.549038	0.210198
664.753400	0.210203
664.957743	0.210588
665.162068	0.210743
665.366375	0.211184
665.570663	0.211412
665.774933	0.211668
665.979185	0.212033
666.183419	0.212364
666.387635	0.212637
666.591832	0.213174
666.796011	0.213210
667.000172	0.213279
667.204315	0.213589
667.408439	0.213681
667.612545	0.213925
667.816634	0.213987
668.020703	0.214159
668.224755	0.214483
668.428788	0.214590
668.632803	0.215096
668.836800	0.215301
669.040779	0.215366
669.244739	0.215797
669.448681	0.216138
669.652605	0.216785
669.856511	0.217236
670.060399	0.217390
670.264268	0.217696
670.468119	0.217897
670.671952	0.218497
670.875767	0.218759
671.079563	0.219168
671.283341	0.219366
671.487101	0.219510
671.690843	0.219763
671.894567	0.219848
672.098272	0.220033
672.301959	0.220496
672.505628	0.220601
672.709278	0.221335
672.912911	0.221441
673.116525	0.221712
673.320121	0.221917
673.523699	0.222035
673.727258	0.222494
673.930799	0.222835
674.134322	0.222891
674.337827	0.223190
674.541314	0.223142
674.744782	0.223244
674.948232	0.223410
675.151664	0.223493
675.355078	0.223940
675.558474	0.224464
675.761851	0.224842
675.965210	0.224839
676.168551	0.225291
676.371873	0.225503
676.575178	0.225854
676.778464	0.226211
676.981732	0.226501
677.184981	0.226585
677.388213	0.226478
677.591426	0.226458
677.794621	0.227061
677.997798	0.227155
678.200956	0.227500
678.404097	0.227634
678.607219	0.227807
678.810323	0.228091
679.013408	0.228217
679.216476	0.228415
679.419525	0.228574
679.622556	0.228588
679.825569	0.228515
680.028563	0.228760
680.231540	0.229013
680.434498	0.229461
680.637438	0.229543
680.840359	0.229850
681.043263	0.230159
681.246148	0.230789
681.449015	0.230926
681.651864	0.231425
681.854694	0.231233
682.057506	0.231566
682.260301	0.231719
682.463076	0.232128
682.665834	0.232569
682.868573	0.232937
683.071295	0.232958
683.273998	0.233352
683.476682	0.233700
683.679349	0.234274
683.881997	0.234629
684.084627	0.234887
684.287239	0.235145
684.489833	0.235362
684.692408	0.235662
684.894965	0.235589
685.097504	0.235800
685.300025	0.236005
685.502527	0.236159
685.705012	0.236255
685.907478	0.236420
686.109925	0.236463
686.312355	0.236698
686.514766	0.236922
686.717159	0.237400
686.919534	0.237486
687.121891	0.237439
687.324230	0.237623
687.526550	0.237859
687.728852	0.237949
687.931136	0.238310
688.133401	0.238454
688.335649	0.238721
688.537878	0.239109
688.740089	0.239560
688.942281	0.239963
689.144456	0.240571
689.346612	0.240771
689.548750	0.241089
689.750870	0.241346
689.952971	0.241659
690.155055	0.241707
690.357120	0.241819
690.559167	0.242065
690.761195	0.242647
690.963206	0.242707
691.165198	0.243111
691.367172	0.243193
691.569128	0.243318
691.771065	0.243503
691.972984	0.243986
692.174885	0.244294
692.376768	0.244417
692.578633	0.244252
692.780479	0.244239
692.982308	0.244491
693.184118	0.244853
693.385909	0.245170
