sample name	sample
index	410
start time	 03-08-2021  10:54:17 AM


Wavelength (nm)	Absorbance
494.344910	0.102759
494.563924	0.102759
494.782919	0.102759
495.001897	-0.005587
495.220856	0.029095
495.439797	0.040251
495.658719	0.020009
495.877624	0.031546
496.096510	0.020999
496.315378	0.020879
496.534227	0.030758
496.753059	0.055681
496.971872	0.012922
497.190667	0.111124
497.409444	0.126927
497.628203	0.132704
497.846943	0.134808
498.065665	0.136383
498.284369	0.137501
498.503055	0.137616
498.721723	0.136739
498.940372	0.137639
499.159003	0.138190
499.377616	0.137495
499.596210	0.135979
499.814787	0.136279
500.033345	0.135756
500.251885	0.136625
500.470406	0.138080
500.688910	0.139160
500.907395	0.139704
501.125862	0.139526
501.344311	0.140325
501.562742	0.141608
501.781154	0.142035
501.999548	0.141485
502.217924	0.141491
502.436282	0.140862
502.654621	0.140434
502.872942	0.140812
503.091245	0.141734
503.309530	0.141557
503.527797	0.142161
503.746045	0.140853
503.964275	0.142615
504.182487	0.142044
504.400681	0.141218
504.618856	0.140988
504.837013	0.140204
505.055152	0.139893
505.273273	0.140321
505.491376	0.139951
505.709460	0.140544
505.927526	0.139824
506.145574	0.140226
506.363604	0.140904
506.581615	0.140990
506.799608	0.142401
507.017583	0.142195
507.235540	0.142064
507.453478	0.142954
507.671399	0.143322
507.889301	0.143979
508.107185	0.144883
508.325050	0.145157
508.542898	0.146417
508.760727	0.145468
508.978538	0.145809
509.196330	0.146408
509.414105	0.145736
509.631861	0.146412
509.849599	0.147424
510.067319	0.147135
510.285021	0.146660
510.502704	0.146817
510.720369	0.148012
510.938016	0.147975
511.155645	0.147624
511.373255	0.148927
511.590848	0.148247
511.808422	0.147894
512.025977	0.148120
512.243515	0.149043
512.461034	0.149072
512.678536	0.148822
512.896018	0.149281
513.113483	0.150276
513.330930	0.150000
513.548358	0.150587
513.765768	0.150638
513.983160	0.150648
514.200533	0.150933
514.417889	0.150638
514.635226	0.150577
514.852545	0.151010
515.069845	0.151101
515.287128	0.151339
515.504392	0.151960
515.721638	0.152234
515.938866	0.152938
516.156075	0.152781
516.373267	0.153512
516.590440	0.153497
516.807594	0.153993
517.024731	0.154212
517.241850	0.155047
517.458950	0.155035
517.676032	0.155596
517.893095	0.155448
518.110141	0.156258
518.327168	0.156015
518.544177	0.157515
518.761168	0.157338
518.978141	0.157355
519.195095	0.156837
519.412031	0.157339
519.628949	0.157516
519.845849	0.157007
520.062731	0.156451
520.279594	0.157303
520.496439	0.157036
520.713266	0.156965
520.930074	0.156357
521.146865	0.156617
521.363637	0.156651
521.580391	0.157482
521.797127	0.159011
522.013844	0.159618
522.230543	0.159699
522.447224	0.160550
522.663887	0.161293
522.880532	0.161638
523.097158	0.162421
523.313766	0.162584
523.530356	0.161887
523.746928	0.161570
523.963481	0.162042
524.180017	0.162295
524.396534	0.161620
524.613032	0.162105
524.829513	0.163354
525.045975	0.162988
525.262420	0.163494
525.478845	0.163781
525.695253	0.164284
525.911643	0.163866
526.128014	0.164110
526.344367	0.164812
526.560702	0.165001
526.777018	0.165304
526.993316	0.165783
527.209597	0.165852
527.425858	0.166351
527.642102	0.166704
527.858328	0.167826
528.074535	0.168606
528.290724	0.168900
528.506894	0.168749
528.723047	0.169217
528.939181	0.169804
529.155297	0.170305
529.371395	0.170317
529.587475	0.170869
529.803536	0.170667
530.019579	0.170784
530.235604	0.171229
530.451611	0.172127
530.667600	0.171908
530.883570	0.172302
531.099522	0.172440
531.315456	0.173369
531.531372	0.173806
531.747269	0.174054
531.963148	0.174207
532.179009	0.173953
532.394852	0.174044
532.610676	0.174700
532.826482	0.175234
533.042271	0.175162
533.258040	0.175425
533.473792	0.175360
533.689525	0.176162
533.905240	0.176836
534.120937	0.177371
534.336616	0.177894
534.552277	0.178141
534.767919	0.178354
534.983543	0.179290
535.199149	0.179350
535.414736	0.179391
535.630306	0.179728
535.845857	0.180246
536.061390	0.181086
536.276904	0.181770
536.492401	0.181974
536.707879	0.182005
536.923339	0.182755
537.138781	0.183910
537.354204	0.184301
537.569610	0.184919
537.784997	0.184806
538.000366	0.184842
538.215716	0.185077
538.431049	0.185669
538.646363	0.185935
538.861659	0.185959
539.076937	0.185757
539.292196	0.186290
539.507438	0.186376
539.722661	0.186917
539.937866	0.187410
540.153052	0.187112
540.368221	0.187040
540.583371	0.187179
540.798503	0.187324
541.013617	0.187487
541.228712	0.187656
541.443789	0.188141
541.658848	0.188427
541.873889	0.188745
542.088912	0.189096
542.303916	0.189120
542.518902	0.190105
542.733870	0.190716
542.948820	0.190857
543.163752	0.191510
543.378665	0.191800
543.593560	0.192250
543.808437	0.192234
544.023295	0.193041
544.238136	0.193651
544.452958	0.193687
544.667762	0.194527
544.882548	0.195237
545.097315	0.195591
545.312064	0.195751
545.526795	0.196025
545.741508	0.196424
545.956203	0.196380
546.170879	0.196675
546.385537	0.196756
546.600177	0.196533
546.814799	0.196498
547.029402	0.196305
547.243988	0.196299
547.458555	0.196004
547.673103	0.196007
547.887634	0.196525
548.102146	0.196997
548.316640	0.197345
548.531116	0.197399
548.745574	0.197305
548.960013	0.197895
549.174435	0.198318
549.388838	0.198909
549.603222	0.199226
549.817589	0.199266
550.031937	0.200097
550.246267	0.200306
550.460579	0.200387
550.674873	0.201238
550.889148	0.201416
551.103405	0.202019
551.317644	0.201935
551.531865	0.202367
551.746068	0.202197
551.960252	0.202231
552.174418	0.202121
552.388566	0.202051
552.602696	0.201921
552.816807	0.201897
553.030900	0.201619
553.244975	0.202065
553.459032	0.201890
553.673070	0.202475
553.887091	0.202390
554.101093	0.202809
554.315077	0.203549
554.529042	0.204111
554.742990	0.204672
554.956919	0.205059
555.170830	0.205109
555.384722	0.205887
555.598597	0.206494
555.812453	0.206829
556.026291	0.207148
556.240111	0.207385
556.453913	0.207651
556.667696	0.207943
556.881461	0.208194
557.095208	0.208685
557.308937	0.208612
557.522647	0.208435
557.736339	0.208330
557.950013	0.208661
558.163669	0.208552
558.377307	0.208533
558.590926	0.208215
558.804527	0.208686
559.018110	0.209058
559.231675	0.209900
559.445221	0.210449
559.658749	0.210664
559.872259	0.211224
560.085751	0.211594
560.299225	0.211835
560.512680	0.212428
560.726117	0.212740
560.939536	0.212650
561.152937	0.212431
561.366319	0.212397
561.579683	0.212832
561.793029	0.212516
562.006357	0.212422
562.219667	0.212335
562.432958	0.212189
562.646231	0.211969
562.859486	0.212021
563.072723	0.212664
563.285941	0.212988
563.499141	0.212683
563.712323	0.213246
563.925487	0.213620
564.138632	0.214163
564.351760	0.214843
564.564869	0.215205
564.777960	0.215480
564.991032	0.215166
565.204087	0.215293
565.417123	0.216009
565.630141	0.215796
565.843140	0.216428
566.056122	0.216657
566.269085	0.216609
566.482030	0.216591
566.694957	0.217275
566.907866	0.217224
567.120756	0.217456
567.333628	0.217665
567.546482	0.218270
567.759318	0.217933
567.972135	0.218371
568.184935	0.218469
568.397716	0.218880
568.610478	0.219020
568.823223	0.219532
569.035949	0.219888
569.248657	0.220042
569.461347	0.220269
569.674019	0.220666
569.886672	0.220860
570.099308	0.221329
570.311925	0.221200
570.524523	0.221427
570.737104	0.221621
570.949666	0.221858
571.162210	0.222448
571.374736	0.222655
571.587244	0.222967
571.799733	0.222541
572.012205	0.222596
572.224658	0.222996
572.437092	0.223177
572.649509	0.223326
572.861907	0.223321
573.074287	0.222904
573.286649	0.223075
573.498993	0.223371
573.711318	0.223922
573.923625	0.224004
574.135914	0.224009
574.348185	0.224075
574.560438	0.224475
574.772672	0.224667
574.984888	0.225240
575.197086	0.225200
575.409266	0.225152
575.621427	0.225701
575.833570	0.225943
576.045695	0.226827
576.257802	0.226583
576.469890	0.226810
576.681961	0.226958
576.894013	0.226976
577.106046	0.227221
577.318062	0.227854
577.530059	0.227470
577.742039	0.228181
577.954000	0.228307
578.165942	0.229181
578.377867	0.229646
578.589773	0.229945
578.801661	0.230210
579.013531	0.230662
579.225382	0.230358
579.437216	0.230794
579.649031	0.230672
579.860828	0.230839
580.072606	0.230972
580.284367	0.230816
580.496109	0.231087
580.707833	0.231342
580.919539	0.231625
581.131227	0.232389
581.342896	0.232479
581.554547	0.232955
581.766180	0.233198
581.977795	0.233497
582.189391	0.233717
582.400969	0.234066
582.612529	0.234380
582.824071	0.234321
583.035595	0.234408
583.247100	0.234688
583.458587	0.234456
583.670056	0.234324
583.881506	0.234298
584.092939	0.234577
584.304353	0.234434
584.515749	0.234371
584.727127	0.234507
584.938486	0.234537
585.149828	0.234836
585.361151	0.235386
585.572456	0.236050
585.783742	0.236295
585.995011	0.236396
586.206261	0.236885
586.417493	0.237361
586.628706	0.237592
586.839902	0.237789
587.051079	0.238463
587.262238	0.238343
587.473379	0.238143
587.684502	0.238198
587.895606	0.238523
588.106692	0.238845
588.317760	0.239215
588.528810	0.239348
588.739841	0.239588
588.950855	0.239383
589.161850	0.239990
589.372827	0.240418
589.583785	0.240802
589.794726	0.241198
590.005648	0.241102
590.216552	0.241375
590.427437	0.241758
590.638305	0.242164
590.849154	0.242235
591.059985	0.242243
591.270798	0.242272
591.481592	0.242321
591.692369	0.242375
591.903127	0.242737
592.113867	0.242654
592.324588	0.242960
592.535292	0.243072
592.745977	0.243282
592.956644	0.243668
593.167293	0.244005
593.377923	0.244381
593.588536	0.244600
593.799130	0.244676
594.009706	0.244882
594.220263	0.244875
594.430803	0.244981
594.641324	0.245748
594.851827	0.245606
595.062312	0.245717
595.272778	0.246015
595.483227	0.245891
595.693657	0.245717
595.904069	0.245961
596.114462	0.246213
596.324838	0.246310
596.535195	0.245672
596.745534	0.246204
596.955855	0.246375
597.166157	0.246636
597.376441	0.247040
597.586707	0.247588
597.796955	0.247655
598.007185	0.247919
598.217396	0.248236
598.427589	0.249136
598.637764	0.249092
598.847921	0.249482
599.058060	0.249314
599.268180	0.249676
599.478282	0.250108
599.688366	0.250197
599.898431	0.250417
600.108479	0.250625
600.318508	0.250509
600.528519	0.251077
600.738511	0.250986
600.948486	0.251358
601.158442	0.251446
601.368380	0.251192
601.578300	0.251604
601.788202	0.251937
601.998085	0.252026
602.207950	0.252356
602.417797	0.252216
602.627626	0.252543
602.837436	0.252625
603.047228	0.252412
603.257002	0.252861
603.466758	0.252765
603.676496	0.252914
603.886215	0.253086
604.095916	0.253115
604.305599	0.253277
604.515264	0.253313
604.724910	0.253715
604.934538	0.254320
605.144148	0.254269
605.353740	0.254700
605.563314	0.255102
605.772869	0.255558
605.982406	0.256009
606.191925	0.256178
606.401425	0.256486
606.610908	0.256531
606.820372	0.256522
607.029818	0.256753
607.239246	0.256659
607.448655	0.256548
607.658047	0.256774
607.867420	0.256668
608.076775	0.257099
608.286111	0.257227
608.495430	0.257426
608.704730	0.257944
608.914012	0.258220
609.123275	0.258721
609.332521	0.258974
609.541748	0.258808
609.750957	0.259286
609.960148	0.259513
610.169321	0.259707
610.378475	0.259835
610.587611	0.259745
610.796729	0.260026
611.005829	0.260099
611.214910	0.260284
611.423974	0.260671
611.633019	0.260603
611.842045	0.260531
612.051054	0.260929
612.260044	0.260982
612.469017	0.261444
612.677970	0.261713
612.886906	0.261816
613.095824	0.261875
613.304723	0.262034
613.513604	0.262195
613.722467	0.262603
613.931311	0.262492
614.140138	0.262838
614.348946	0.262837
614.557736	0.262833
614.766507	0.263062
614.975261	0.263190
615.183996	0.263230
615.392713	0.263445
615.601412	0.263771
615.810092	0.264231
616.018754	0.264597
616.227399	0.264753
616.436024	0.265015
616.644632	0.265086
616.853222	0.265478
617.061793	0.265683
617.270346	0.265806
617.478880	0.265791
617.687397	0.265940
617.895895	0.266294
618.104375	0.266398
618.312837	0.266517
618.521281	0.266867
618.729706	0.266854
618.938113	0.267045
619.146502	0.267276
619.354873	0.267169
619.563226	0.266964
619.771560	0.266819
619.979876	0.267009
620.188174	0.267247
620.396453	0.267463
620.604715	0.267694
620.812958	0.267868
621.021183	0.267825
621.229390	0.267971
621.437578	0.268384
621.645748	0.268540
621.853900	0.268604
622.062034	0.268623
622.270150	0.268658
622.478247	0.268776
622.686326	0.268813
622.894387	0.269054
623.102430	0.269354
623.310454	0.269449
623.518461	0.269467
623.726449	0.269701
623.934418	0.270236
624.142370	0.270440
624.350303	0.270704
624.558218	0.270841
624.766115	0.270976
624.973994	0.271362
625.181855	0.271886
625.389697	0.272110
625.597521	0.272083
625.805327	0.272149
626.013114	0.272052
626.220883	0.271865
626.428634	0.272205
626.636367	0.272529
626.844082	0.272685
627.051778	0.272600
627.259457	0.272941
627.467117	0.273274
627.674758	0.273288
627.882382	0.273736
628.089987	0.274244
628.297574	0.274609
628.505143	0.274780
628.712694	0.275158
628.920226	0.275659
629.127740	0.275848
629.335236	0.276167
629.542714	0.276554
629.750174	0.276752
629.957615	0.276798
630.165038	0.276748
630.372443	0.276819
630.579829	0.276518
630.787198	0.276298
630.994548	0.276244
631.201880	0.276509
631.409194	0.276519
631.616489	0.276595
631.823766	0.276790
632.031025	0.277152
632.238266	0.277476
632.445489	0.277637
632.652693	0.277486
632.859879	0.277645
633.067047	0.277715
633.274197	0.277780
633.481329	0.278102
633.688442	0.278472
633.895537	0.278544
634.102614	0.278579
634.309672	0.278720
634.516713	0.279314
634.723735	0.279704
634.930739	0.280022
635.137724	0.280243
635.344692	0.280256
635.551641	0.280520
635.758572	0.280558
635.965485	0.280813
636.172379	0.281422
636.379256	0.281244
636.586114	0.281409
636.792954	0.281405
636.999775	0.281655
637.206579	0.282082
637.413364	0.282114
637.620131	0.282415
637.826880	0.282833
638.033610	0.282678
638.240323	0.282994
638.447017	0.282979
638.653692	0.283116
638.860350	0.283371
639.066990	0.283066
639.273611	0.283103
639.480214	0.283090
639.686798	0.282918
639.893365	0.283306
640.099913	0.283631
640.306443	0.283911
640.512955	0.284009
640.719449	0.283932
640.925924	0.284456
641.132381	0.284702
641.338820	0.284762
641.545241	0.285123
641.751644	0.285240
641.958028	0.285703
642.164394	0.286018
642.370742	0.286526
642.577071	0.286953
642.783383	0.287163
642.989676	0.287353
643.195951	0.288078
643.402207	0.288384
643.608446	0.288774
643.814666	0.288807
644.020868	0.288785
644.227052	0.288846
644.433218	0.288802
644.639365	0.288703
644.845494	0.288873
645.051605	0.288784
645.257698	0.288846
645.463772	0.288878
645.669828	0.288922
645.875866	0.289144
646.081886	0.289090
646.287888	0.289383
646.493871	0.289850
646.699836	0.289956
646.905783	0.290275
647.111712	0.290340
647.317622	0.290419
647.523514	0.290419
647.729388	0.290603
647.935244	0.290973
648.141082	0.291242
648.346901	0.291444
648.552702	0.291860
648.758485	0.292169
648.964250	0.292706
649.169996	0.293034
649.375724	0.293421
649.581434	0.293812
649.787126	0.293936
649.992800	0.293940
650.198455	0.294096
650.404092	0.294292
650.609711	0.294288
650.815311	0.294222
651.020894	0.294149
651.226458	0.294362
651.432004	0.294348
651.637532	0.294668
651.843041	0.294730
652.048532	0.294693
652.254006	0.294699
652.459460	0.294928
652.664897	0.295208
652.870315	0.295545
653.075716	0.295645
653.281097	0.295901
653.486461	0.296038
653.691807	0.296506
653.897134	0.296965
654.102443	0.297241
654.307734	0.297252
654.513006	0.297493
654.718261	0.297637
654.923497	0.298006
655.128715	0.298390
655.333915	0.298663
655.539096	0.299052
655.744259	0.299169
655.949404	0.299497
656.154531	0.299907
656.359640	0.299969
656.564730	0.300361
656.769802	0.300687
656.974856	0.300907
657.179892	0.300995
657.384909	0.300915
657.589908	0.301164
657.794889	0.301509
657.999852	0.301805
658.204797	0.302151
658.409723	0.302377
658.614631	0.302433
658.819521	0.302583
659.024393	0.302922
659.229246	0.303341
659.434081	0.303759
659.638898	0.303702
659.843697	0.303759
660.048478	0.304004
660.253240	0.304141
660.457984	0.304323
660.662710	0.304544
660.867417	0.305068
661.072107	0.304971
661.276778	0.305089
661.481431	0.305402
661.686066	0.305573
661.890682	0.305535
662.095281	0.305871
662.299861	0.306058
662.504422	0.306146
662.708966	0.306125
662.913491	0.306661
663.117999	0.306858
663.322488	0.307046
663.526958	0.307250
663.731411	0.307524
663.935845	0.307612
664.140261	0.307909
664.344659	0.308085
664.549038	0.308162
664.753400	0.308200
664.957743	0.308462
665.162068	0.308947
665.366375	0.309213
665.570663	0.309465
665.774933	0.309975
665.979185	0.310254
666.183419	0.310560
666.387635	0.310925
666.591832	0.311335
666.796011	0.311494
667.000172	0.311427
667.204315	0.311769
667.408439	0.312237
667.612545	0.312214
667.816634	0.312476
668.020703	0.312830
668.224755	0.313056
668.428788	0.313549
668.632803	0.313815
668.836800	0.313913
669.040779	0.314317
669.244739	0.314624
669.448681	0.314867
669.652605	0.315244
669.856511	0.315423
670.060399	0.315569
670.264268	0.315779
670.468119	0.316376
670.671952	0.316780
670.875767	0.316705
671.079563	0.316823
671.283341	0.317104
671.487101	0.317043
671.690843	0.317287
671.894567	0.317734
672.098272	0.317571
672.301959	0.317518
672.505628	0.317835
672.709278	0.318213
672.912911	0.318362
673.116525	0.318682
673.320121	0.319051
673.523699	0.319327
673.727258	0.319415
673.930799	0.319720
674.134322	0.319794
674.337827	0.320039
674.541314	0.320274
674.744782	0.320676
674.948232	0.320796
675.151664	0.321174
675.355078	0.321354
675.558474	0.321566
675.761851	0.321953
675.965210	0.322582
676.168551	0.322580
676.371873	0.322780
676.575178	0.322912
676.778464	0.323239
676.981732	0.323049
677.184981	0.323296
677.388213	0.323461
677.591426	0.323758
677.794621	0.323830
677.997798	0.324070
678.200956	0.324190
678.404097	0.324277
678.607219	0.324304
678.810323	0.324827
679.013408	0.324970
679.216476	0.325016
679.419525	0.324861
679.622556	0.324825
679.825569	0.325222
680.028563	0.325289
680.231540	0.325450
680.434498	0.325538
680.637438	0.325582
680.840359	0.325925
681.043263	0.326461
681.246148	0.327056
681.449015	0.327330
681.651864	0.327426
681.854694	0.327993
682.057506	0.328276
682.260301	0.328828
682.463076	0.329288
682.665834	0.329409
682.868573	0.329671
683.071295	0.329732
683.273998	0.330110
683.476682	0.330374
683.679349	0.330726
683.881997	0.331031
684.084627	0.331154
684.287239	0.331311
684.489833	0.331511
684.692408	0.331496
684.894965	0.331693
685.097504	0.331725
685.300025	0.332052
685.502527	0.332071
685.705012	0.332179
685.907478	0.332425
686.109925	0.332545
686.312355	0.332972
686.514766	0.333369
686.717159	0.333811
686.919534	0.334115
687.121891	0.334159
687.324230	0.334195
687.526550	0.334611
687.728852	0.334816
687.931136	0.335191
688.133401	0.335376
688.335649	0.335594
688.537878	0.335332
688.740089	0.335375
688.942281	0.335722
689.144456	0.336148
689.346612	0.336288
689.548750	0.336407
689.750870	0.336493
689.952971	0.336394
690.155055	0.336654
690.357120	0.337089
690.559167	0.337405
690.761195	0.337546
690.963206	0.337674
691.165198	0.337620
691.367172	0.337864
691.569128	0.337910
691.771065	0.338184
691.972984	0.338253
692.174885	0.338286
692.376768	0.338457
692.578633	0.338492
692.780479	0.338394
692.982308	0.338813
693.184118	0.339027
693.385909	0.339258
