sample name	sample
index	906
start time	 04-08-2021  04:09:27 PM
880	0.539679
Peak Time (s)	100.036
Peak Height 	0.5397
calc peak height	100,103
Baseline Time (s)	11.037
Baseline Value 	-0.002267
subtract baseline	10,4
Abs	0.364934
Peak Time (s)	100.036
Peak Height 	0.3649
calc peak height	100,103
Baseline Time (s)	11.037
Baseline Value 	0.002175
subtract baseline	10,3
PK_550	0.209437
Peak Time (s)	101.537
Peak Height 	0.2094
calc peak height	100,103
Baseline Time (s)	11.037
Baseline Value 	8.0862E-4
subtract baseline	10,2
PK_880	0.350185
Peak Time (s)	102.038
Peak Height 	0.3502
calc peak height	100,103
Baseline Time (s)	8.536
Baseline Value 	0.001552
subtract baseline	10,1


Time (s)	A880-A510	A880-A775	A880-A975	A880	I510	I775	I975	I880	
0.036000	-0.002635	-0.001604	-0.000668	0.004739	6853.360805	42066.263000	3945.554238	22631.537465
0.539500	-0.001996	-0.000604	-0.006332	0.004412	6862.047008	42185.799539	3933.010168	22646.358008
1.037000	-0.002790	-0.000496	-0.005688	0.003287	6865.030735	42297.216173	3937.152232	22697.454797
1.539500	-0.001019	-0.000776	-0.000981	0.001173	6900.205749	42463.548563	3953.276284	22793.833944
2.037000	-0.005252	-0.000730	-0.004982	0.004690	6830.351288	42149.384745	3935.518473	22633.760665
2.535000	-0.000997	-0.000550	-0.002708	0.001503	6897.408786	42454.184207	3948.388382	22778.775819
3.035000	0.001167	-0.000362	-0.003469	-0.001933	6948.630824	42784.820786	3954.749558	22936.300154
3.541000	-0.001274	0.000004	0.006255	0.000448	6904.482594	42600.646325	3972.420216	22827.003340
4.036000	-0.002033	-0.001209	-0.003250	0.002994	6874.508907	42259.240302	3943.575619	22710.775583
4.539000	-0.000005	0.000798	-0.000013	0.000586	6914.796114	42660.443910	3956.986780	22820.679427
5.036000	-0.002238	-0.001030	0.000890	0.000259	6897.430723	42523.589076	3959.932125	22835.635125
5.537000	-0.001730	0.000351	-0.000770	0.000834	6896.826062	42597.035990	3954.586527	22809.329287
6.037000	-0.000632	-0.000807	-0.004244	0.000187	6912.723084	42550.536040	3947.865910	22838.969295
6.537500	-0.000728	-0.000362	-0.004070	-0.000249	6915.814570	42630.789107	3949.310179	22858.913230
7.034000	-0.000806	-0.000600	-0.000219	0.000583	6907.518447	42533.277220	3956.502781	22820.809557
7.535000	0.000202	-0.000173	-0.002306	-0.000138	6923.306473	42637.997856	3953.244799	22853.865190
8.035500	-0.001181	-0.000410	0.004076	0.000069	6908.783748	42597.380304	3968.060571	22844.353275
8.535500	0.000000	0.000415	-0.000225	0.000442	6916.152129	42638.573929	3956.824799	22827.253007
9.036000	-0.001040	0.000099	0.000071	0.000467	6906.440651	42607.516272	3957.472811	22826.128985
9.536000	-0.001795	-0.000360	0.000994	-0.000088	6904.614415	42616.279543	3961.014269	22851.532826
10.036500	0.000249	-0.000132	-0.003891	-0.000234	6924.618218	42650.501798	3949.701552	22858.258524
10.539500	-0.001051	0.000263	-0.002994	0.000025	6910.371785	42662.848414	3951.217276	22846.359231
11.037500	0.000338	0.000000	0.000000	0.000000	6923.284387	42641.115652	3958.421135	22847.518417
11.540500	0.000443	-0.000797	0.000163	-0.000375	6927.675267	42602.564643	3959.709741	22864.704442
12.035000	-0.001665	-0.000311	-0.004511	0.004728	6862.184315	42183.738014	3936.532691	22632.051722
12.535000	-0.000723	0.000041	-0.001738	-0.000157	6915.019094	42659.189959	3954.641146	22854.693850
13.035500	0.000382	0.000597	0.001789	0.000076	6922.986405	42688.649661	3962.529391	22844.018717
13.535500	-0.000156	0.000390	-0.001865	0.000551	6913.737736	42626.441988	3952.652680	22822.300591
14.036000	-0.003389	0.000099	-0.002027	0.004398	6849.646771	42250.584936	3943.150215	22646.996803
14.539000	-0.002746	-0.001413	-0.002919	0.001231	6884.010449	42400.443135	3948.532565	22791.190247
15.042000	-0.002803	-0.000935	-0.000680	-0.000585	6899.974912	42609.197668	3958.192812	22874.342667
15.537000	-0.000499	-0.000685	-0.000956	-0.000194	6917.414910	42596.355455	3956.599626	22856.431098
16.034500	-0.005872	-0.000578	-0.002040	0.003826	6832.523334	42241.058732	3944.468566	22672.940594
16.537500	-0.000456	-0.000265	-0.000087	0.000361	6912.731928	42584.019570	3957.348992	22830.979034
17.035000	0.002149	0.000254	-0.003003	-0.003007	6967.603423	42939.988185	3958.430826	22985.790307
17.542500	-0.002293	0.000196	-0.000991	0.000710	6892.842160	42594.279116	3954.356620	22815.029565
18.037500	-0.001882	-0.000479	-0.003187	0.003409	6872.123862	42287.754588	3942.747430	22691.922188
18.538500	-0.002179	-0.000273	0.003757	0.001012	6891.127539	42523.918979	3965.014474	22801.178728
19.036000	-0.001725	-0.000262	-0.006208	0.000908	6896.198279	42534.496124	3941.521345	22805.966873
19.536000	-0.001687	-0.000993	-0.001457	0.000611	6899.241098	42494.902688	3953.480267	22819.523762
20.037000	-0.001146	-0.000178	-0.002690	0.002520	6886.828707	42395.580020	3946.021179	22732.373562
20.540500	-0.001006	0.000349	0.000382	0.001776	6894.840287	42511.042397	3955.087207	22766.278102
21.037500	-0.000398	0.000347	0.000017	0.001513	6902.771777	42534.894381	3954.847161	22778.328789
21.535000	-0.003066	-0.000782	-0.002314	0.001193	6881.447682	42461.192985	3950.056999	22792.901742
22.038000	-0.001446	-0.000561	-0.007992	0.003466	6875.550931	42275.159917	3931.344788	22689.339286
22.535500	0.000544	-0.000077	-0.003231	0.001625	6910.326774	42486.004669	3946.858835	22773.199232
23.035500	-0.001019	0.000405	0.001660	0.002267	6890.267634	42471.445262	3956.968671	22743.882588
23.536000	-0.001568	-0.000879	0.000863	0.001087	6895.994123	42462.042875	3957.884014	22797.755220
24.036500	-0.002516	-0.000444	-0.001268	0.000922	6888.892844	42516.591192	3953.191540	22805.327237
24.536500	-0.002865	-0.000891	0.000581	0.001187	6883.327278	42451.864097	3956.970255	22793.194278
25.037000	-0.002114	0.000118	-0.000322	0.001385	6888.336999	42525.636173	3954.342108	22784.146808
25.536500	-0.002107	-0.000014	-0.001607	0.001381	6888.435025	42513.982177	3951.289625	22784.324673
26.040000	-0.000080	-0.000279	0.001609	0.001603	6904.843967	42469.695622	3958.435491	22774.197036
26.535500	-0.001658	0.000296	-0.003463	0.002178	6885.283210	42469.696208	3945.001108	22747.971095
27.035000	0.000780	0.000833	-0.002668	-0.000384	6930.854306	42752.398526	3952.968243	22865.144461
27.535500	0.000917	0.000225	0.001481	-0.000249	6930.866164	42684.397592	3962.570032	22858.915879
28.036000	-0.002354	-0.000786	-0.003065	0.003547	6866.614079	42247.477376	3942.709267	22685.627128
28.536500	0.001246	-0.000084	-0.006997	0.000147	6930.253202	42620.061870	3941.456208	22840.782431
29.036500	0.002451	0.000624	-0.003752	0.000251	6940.362073	42675.213633	3948.881178	22836.037392
29.536500	-0.001035	-0.000940	-0.003062	-0.001072	6920.540588	42653.200682	3953.667346	22896.720456
30.037000	-0.003191	-0.000189	-0.002641	0.003147	6862.684427	42337.677499	3944.655129	22703.831288
30.537500	-0.003328	-0.000235	0.002336	0.001968	6872.076282	42440.474618	3959.303943	22757.548190
31.035000	-0.001891	-0.000598	-0.003262	0.001771	6886.861218	42425.396176	3946.439749	22766.528646
31.535500	-0.001498	-0.000385	-0.000474	-0.000486	6910.952433	42650.294667	3958.448333	22869.789271
32.035500	-0.005241	0.000052	-0.004651	0.006329	6815.836716	42072.163781	3932.459758	22559.611013
32.535500	-0.001132	-0.000170	0.003551	0.000260	6907.484207	42601.792866	3966.329967	22835.584862
33.036000	0.000301	0.000168	0.003497	-0.000677	6929.144427	42718.385507	3968.464182	22878.583944
33.536000	-0.001887	-0.000580	-0.002269	0.001947	6885.300503	42411.050767	3948.374491	22758.475848
34.036500	-0.000714	-0.000979	-0.000079	0.001654	6898.607632	42401.419497	3954.278624	22771.852404
34.537000	-0.002089	-0.000718	0.002912	0.001341	6888.957766	42453.561442	3962.188885	22786.146989
35.037000	-0.001824	0.000820	0.004198	0.002395	6881.817158	42497.584836	3962.746973	22738.063826
35.537500	-0.002034	-0.000400	0.000440	0.001805	6885.258210	42440.288691	3955.157680	22764.966858
36.037500	-0.001095	-0.000605	-0.002113	0.001710	6894.630005	42430.320797	3949.305824	22769.290017
36.535000	-0.001774	0.000229	-0.002635	0.002115	6884.806320	42469.354531	3947.108951	22750.840783
37.035500	0.001392	0.001077	0.003500	0.002889	6906.532946	42476.018098	3959.884495	22715.559483
37.536000	-0.000569	-0.000222	0.001306	0.001926	6897.451178	42445.468873	3956.937945	22759.439389
38.036000	-0.001759	0.000496	-0.003737	0.003505	6872.364580	42367.373336	3941.224717	22687.554905
38.536500	-0.001198	-0.000911	-0.004188	0.001337	6897.093313	42436.422885	3945.275496	22786.363508
39.036500	-0.001588	-0.000306	0.003059	0.001986	6887.660547	42432.429272	3960.991942	22756.705240
39.537000	-0.001623	-0.000426	0.000561	0.001467	6892.052020	42468.615439	3956.252510	22780.400656
40.037000	-0.003266	0.000188	-0.002239	0.004268	6851.921339	42270.362446	3942.957507	22652.911134
40.537000	-0.000096	-0.000411	-0.003183	0.001822	6902.701617	42437.771705	3946.505109	22764.198749
41.035000	0.000795	0.000353	-0.000444	0.002498	6904.653350	42445.790555	3951.400826	22733.370287
41.535500	-0.000315	0.000491	-0.002522	0.002407	6895.385559	42466.557813	3946.685355	22737.509197
42.035500	-0.002087	-0.000034	-0.005463	0.003834	6866.438926	42289.593272	3936.397373	22672.607930
42.536000	-0.002590	-0.000691	0.001971	0.000821	6889.143690	42503.308553	3961.179177	22809.949669
43.036500	-0.001559	0.000636	-0.001530	0.002072	6887.143488	42510.256082	3949.832273	22752.791571
43.537500	0.000899	-0.000692	0.000131	-0.003643	6961.928566	42911.436894	3967.496407	23015.159261
44.037000	-0.003873	-0.000172	-0.000859	0.004320	6846.003689	42233.166610	3946.094957	22650.544270
44.536500	-0.000312	0.000313	0.004515	-0.000198	6919.151321	42687.837582	3969.767660	22856.607612
45.040000	-0.001904	0.000066	-0.001059	-0.000594	6908.234178	42701.397024	3957.308575	22874.740000
45.535000	-0.000069	-0.000122	-0.001372	-0.000763	6926.537193	42699.671408	3956.963267	22882.493823
46.035500	-0.002115	-0.000279	-0.002674	0.004603	6859.258642	42197.924065	3941.143347	22637.710161
46.535000	-0.001201	-0.000199	0.002266	-0.000740	6915.979891	42690.553715	3965.643482	22881.457877
47.036000	-0.002089	0.000149	-0.002187	0.001669	6885.993111	42502.598355	3949.229275	22771.190597
47.536000	0.000063	0.001083	-0.002092	0.002019	6902.353979	42555.743780	3948.624228	22755.202023
48.036500	-0.002377	-0.000767	0.000227	0.004290	6859.715720	42182.142678	3948.737598	22651.897567
48.537000	-0.001795	0.000078	-0.003151	-0.000924	6912.243772	42732.701180	3953.101443	22889.900187
49.037000	0.000037	0.000455	0.003186	-0.001035	6930.008779	42777.361217	3968.577035	22895.006372
49.537500	0.001516	0.000153	-0.000152	-0.003360	6965.014074	42963.150791	3966.131991	23002.093649
50.037500	-0.001644	0.001008	-0.004435	0.007459	6837.851195	42056.517654	3930.329588	22508.638274
50.534500	-0.008413	-0.004585	0.001819	0.001719	6828.645215	42069.712804	3958.658857	22768.881549
51.034500	-0.071334	-0.015095	-0.010440	0.251976	4836.008817	24428.526257	3486.821013	14086.686927
51.535500	-0.109978	-0.026461	-0.049249	0.064126	5609.050394	35176.301461	3719.494288	20115.620523
52.036000	-0.095366	-0.090021	-0.044766	-0.285332	9098.423403	65157.288552	4728.010063	41335.890620
52.536000	-0.054629	-0.110649	-0.009158	-0.308590	10074.526899	65535.000000	4990.677901	43447.875080
53.036500	-0.020597	-0.113173	0.011376	-0.311115	10700.157965	65535.000000	5103.668741	43683.991557
53.536500	0.002901	-0.064124	0.021992	-0.257979	10188.933109	64949.269523	4899.872374	38992.581197
54.036500	0.008091	-0.014334	0.022884	-0.164494	8857.238465	59018.851748	4519.436170	32011.615855
54.537500	0.018734	-0.004856	0.033296	-0.137131	8634.156290	56758.510705	4458.158334	30236.849819
55.035000	0.042731	0.008414	0.049480	-0.100808	8475.105296	53978.794373	4388.390151	28047.152141
55.538000	0.058495	0.020814	0.062588	-0.045319	7992.176018	49162.838957	4251.729328	25036.461307
56.035500	0.073538	0.032236	0.076547	-0.000617	7659.350161	45756.882683	4160.616501	22875.800554
56.535500	0.091706	0.043207	0.092780	0.040686	7415.061187	42871.897804	4090.946144	21067.759478
57.036000	0.103995	0.051941	0.107592	0.099354	6962.845982	38540.320329	3978.334506	18777.892652
57.535500	0.118737	0.059945	0.119116	0.117904	6927.819935	37687.510589	3961.327043	18115.909719
58.036500	0.133036	0.069907	0.133902	0.163383	6652.267466	34962.907569	3890.173633	16607.692518
58.537000	0.147746	0.076790	0.146797	0.207648	6408.720064	32326.084549	3822.463856	15283.860571
59.039500	0.154667	0.083533	0.162068	0.224346	6331.737347	31661.329999	3819.499197	14818.499240
59.537000	0.168763	0.090412	0.172516	0.274078	6065.353408	28967.395296	3741.578831	13533.909217
60.035000	0.181022	0.099873	0.199525	0.315737	5861.460883	27111.247006	3714.279634	12565.487471
60.535000	0.193014	0.109011	0.211880	0.335864	5807.436347	26508.551960	3700.164102	12129.842493
61.035500	0.209226	0.116432	0.220063	0.345941	5848.085718	26365.172976	3696.763367	11919.218599
61.535000	0.223466	0.123087	0.234890	0.347691	5932.627631	26630.651263	3720.552452	11883.127801
62.036000	0.232173	0.129461	0.246812	0.357256	5926.746098	26457.599549	3724.918329	11688.455544
62.536500	0.252426	0.141631	0.251010	0.379247	5914.852397	25932.857126	3692.545890	11256.781387
63.036500	0.251980	0.143668	0.270782	0.350890	6111.628573	27595.929620	3783.258170	11817.529440
63.539000	0.233288	0.136377	0.266437	0.383976	5756.330221	25411.514520	3711.849997	11166.776721
64.037500	0.245821	0.142578	0.277779	0.407913	5683.611652	24514.356701	3689.173781	10725.939735
64.537500	0.269134	0.157666	0.295150	0.368768	6106.365585	27377.109634	3796.276548	11459.751267
65.034500	0.272044	0.160521	0.305045	0.400405	5904.359326	25813.377972	3753.415966	10861.605893
65.535000	0.277907	0.165431	0.302129	0.436973	5702.720667	24208.917410	3680.861338	10222.406116
66.035000	0.285680	0.169697	0.299383	0.430376	5795.317047	24746.356256	3687.649863	10333.773085
66.536000	0.294031	0.172797	0.302477	0.424008	5893.393466	25225.858706	3704.591363	10442.906866
67.041500	0.299381	0.175109	0.312327	0.423501	5933.351712	25370.655266	3723.562710	10451.662074
67.537000	0.301736	0.176904	0.316260	0.426379	5929.761299	25314.912928	3725.521792	10402.092208
68.037500	0.306995	0.178749	0.316501	0.430900	5934.829469	25177.779881	3717.607400	10324.873701
68.537500	0.312483	0.181695	0.317836	0.436207	5936.073426	25057.470100	3710.332844	10235.252681
69.038000	0.309784	0.181627	0.316206	0.437494	5908.792401	24988.718007	3705.031192	10213.682526
69.535000	0.314128	0.183564	0.325669	0.440985	5914.611877	24910.180046	3715.921277	10155.498259
70.035500	0.312103	0.184049	0.312781	0.448747	5848.559941	24545.981770	3678.894820	10027.795647
70.535500	0.317875	0.187288	0.326588	0.447583	5895.212389	24765.569523	3705.561703	10046.790781
71.036000	0.321753	0.188301	0.328683	0.450107	5904.411502	24689.987931	3704.786326	10005.657328
71.536000	0.323177	0.188183	0.323410	0.451685	5903.365673	24605.400745	3692.479996	9980.048486
72.036500	0.318875	0.189026	0.323854	0.460396	5816.196021	24217.349660	3677.887143	9840.370533
72.536500	0.323231	0.189708	0.330334	0.456212	5873.098648	24456.503344	3696.762093	9907.097759
73.037000	0.328739	0.193729	0.335897	0.461433	5875.033928	24397.283295	3697.374421	9823.916370
73.534500	0.325670	0.191639	0.339308	0.461270	5855.534240	24302.533976	3703.811407	9826.507154
74.037500	0.328818	0.192430	0.334187	0.464109	5857.597784	24202.232749	3689.549145	9781.669541
74.535000	0.326679	0.192861	0.336853	0.465432	5834.512624	24158.739669	3691.937160	9760.881091
75.035000	0.328846	0.195124	0.336011	0.468534	5828.315964	24117.898250	3684.946149	9712.384411
75.535500	0.330106	0.194403	0.334253	0.468708	5835.520358	24074.389844	3681.544518	9709.668943
76.036000	0.330792	0.195854	0.340504	0.471506	5821.525217	24009.082594	3687.634836	9666.238472
76.536000	0.332865	0.196228	0.339149	0.472352	5829.646435	23986.240590	3683.745901	9653.153849
77.037000	0.330726	0.195678	0.345617	0.473073	5810.746664	23924.902418	3693.939896	9642.028470
77.539500	0.331434	0.195784	0.337449	0.473805	5810.588853	23894.786112	3678.212690	9630.758884
78.036500	0.325633	0.195751	0.340534	0.481439	5723.460655	23528.940973	3670.295819	9514.274448
78.537000	0.331358	0.195242	0.342501	0.475486	5799.038541	23788.002960	3684.131111	9604.923624
79.037500	0.332020	0.196962	0.337684	0.478559	5783.272650	23723.366632	3670.348941	9557.987015
79.535000	0.333233	0.197482	0.344478	0.481028	5775.089918	23630.486100	3677.872271	9520.497980
80.035500	0.332450	0.197149	0.343730	0.483043	5756.949457	23519.242045	3673.056116	9490.065530
80.536000	0.331694	0.196406	0.343286	0.482838	5753.392888	23493.822447	3672.641229	9493.158420
81.036000	0.333862	0.198465	0.349384	0.486649	5742.804558	23411.256522	3676.622498	9435.949608
81.536000	0.333928	0.198941	0.351448	0.489178	5727.012382	23314.957771	3675.810921	9398.271245
82.039500	0.331624	0.197949	0.342285	0.496643	5665.252805	22922.991332	3647.365649	9288.312142
82.537000	0.335542	0.199774	0.342406	0.493962	5706.819394	23130.873435	3652.083238	9327.584899
83.037500	0.337545	0.200976	0.350844	0.496762	5701.760957	23056.915286	3661.667744	9286.572129
83.535000	0.336039	0.200811	0.345490	0.500054	5671.534744	22897.823817	3647.018774	9238.692310
84.035000	0.336251	0.201339	0.346206	0.507504	5626.557686	22583.057927	3635.811096	9131.666791
84.535500	0.337056	0.201369	0.345419	0.505112	5646.331048	22692.643602	3638.466130	9165.834113
85.035500	0.338649	0.199411	0.341461	0.507054	5644.166019	22516.486874	3628.751332	9138.078988
85.536000	0.339149	0.201980	0.348254	0.511017	5622.767860	22453.922288	3633.394833	9081.833778
86.036000	0.340410	0.201938	0.351984	0.514161	5611.210828	22311.655385	3634.361111	9037.581476
86.539000	0.341492	0.203507	0.348313	0.517500	5597.419546	22233.119439	3622.900234	8990.934784
87.037000	0.338528	0.201193	0.351133	0.518040	5576.144167	22107.031247	3626.607047	8983.411349
87.537000	0.344056	0.203733	0.350092	0.523199	5578.380641	21992.140364	3616.569716	8912.122968
88.034500	0.340107	0.202627	0.350249	0.523886	5550.476971	21913.869007	3615.719442	8902.699489
88.535000	0.343533	0.203781	0.351016	0.526578	5554.877386	21846.977498	3612.636748	8865.890578
89.038500	0.344589	0.201922	0.355688	0.526724	5560.336427	21760.102265	3619.906949	8863.895751
89.535000	0.343339	0.205698	0.356679	0.532845	5516.416662	21659.048377	3611.671297	8781.079120
90.036000	0.344599	0.204740	0.353576	0.532669	5524.912593	21625.417081	3607.014955	8783.437109
90.536000	0.345419	0.206097	0.348717	0.535507	5512.976055	21562.013702	3594.919665	8745.418535
91.036000	0.342457	0.204699	0.357284	0.535392	5496.230937	21507.228812	3608.577191	8746.951653
91.536500	0.344577	0.205584	0.361137	0.539035	5487.320765	21390.037046	3608.912205	8698.500669
92.037000	0.343870	0.205591	0.352322	0.544852	5449.495680	21145.525987	3586.038617	8621.963126
92.537000	0.344965	0.204673	0.356322	0.539691	5485.758569	21323.779526	3600.270531	8689.821653
93.038000	0.344283	0.205901	0.357160	0.540540	5476.828831	21339.728127	3600.251819	8678.594120
93.535000	0.346883	0.205231	0.362893	0.542984	5477.740318	21208.684919	3605.435591	8646.434740
94.035500	0.345058	0.207183	0.358777	0.549014	5432.442452	21038.412803	3589.573447	8567.835083
94.536000	0.347291	0.207258	0.361006	0.542669	5481.948930	21307.144623	3602.952608	8650.559184
95.036000	0.348436	0.206592	0.364655	0.542104	5491.936453	21302.901233	3609.625733	8657.990783
95.536000	0.345253	0.205302	0.359932	0.543170	5467.194825	21203.823891	3600.475788	8643.990538
96.036500	0.347901	0.207414	0.360288	0.543057	5483.244420	21297.378110	3601.212090	8645.467587
96.537000	0.344168	0.205979	0.360880	0.540405	5476.950129	21348.737292	3606.331172	8680.383136
97.037000	0.345198	0.206406	0.362789	0.540590	5481.867653	21358.982794	3609.065476	8677.932434
97.534500	0.349006	0.207869	0.356964	0.542150	5495.010647	21354.910719	3597.423373	8657.390435
