sample name	sample
index	1044
start time	 04-19-2021  02:17:01 PM


Wavelength (nm)	Absorbance
494.344910	-0.188642
494.563924	-0.188642
494.782919	-0.188642
495.001897	0.075485
495.220856	-0.054294
495.439797	-0.037312
495.658719	-0.017085
495.877624	0.002904
496.096510	-0.040329
496.315378	-0.053116
496.534227	-0.075906
496.753059	-0.080295
496.971872	-0.037526
497.190667	0.138245
497.409444	0.170935
497.628203	0.176841
497.846943	0.182021
498.065665	0.186316
498.284369	0.188301
498.503055	0.189813
498.721723	0.188479
498.940372	0.188388
499.159003	0.189732
499.377616	0.188893
499.596210	0.188918
499.814787	0.187295
500.033345	0.187102
500.251885	0.186177
500.470406	0.185735
500.688910	0.187338
500.907395	0.186709
501.125862	0.185227
501.344311	0.186547
501.562742	0.186669
501.781154	0.188438
501.999548	0.188543
502.217924	0.189491
502.436282	0.189436
502.654621	0.188681
502.872942	0.190011
503.091245	0.191353
503.309530	0.190485
503.527797	0.190979
503.746045	0.190496
503.964275	0.190463
504.182487	0.189820
504.400681	0.190413
504.618856	0.191159
504.837013	0.190799
505.055152	0.191636
505.273273	0.191828
505.491376	0.191682
505.709460	0.192000
505.927526	0.191524
506.145574	0.191703
506.363604	0.192010
506.581615	0.193529
506.799608	0.194201
507.017583	0.193907
507.235540	0.194250
507.453478	0.194742
507.671399	0.194676
507.889301	0.196369
508.107185	0.196387
508.325050	0.197011
508.542898	0.196743
508.760727	0.196774
508.978538	0.196421
509.196330	0.197313
509.414105	0.197893
509.631861	0.197539
509.849599	0.197898
510.067319	0.199402
510.285021	0.199072
510.502704	0.198435
510.720369	0.198861
510.938016	0.199970
511.155645	0.199749
511.373255	0.198933
511.590848	0.200050
511.808422	0.199892
512.025977	0.200176
512.243515	0.200118
512.461034	0.201839
512.678536	0.201114
512.896018	0.200786
513.113483	0.201057
513.330930	0.202458
513.548358	0.202874
513.765768	0.202194
513.983160	0.201682
514.200533	0.200930
514.417889	0.199937
514.635226	0.200909
514.852545	0.201199
515.069845	0.201781
515.287128	0.201417
515.504392	0.201586
515.721638	0.201971
515.938866	0.201957
516.156075	0.203889
516.373267	0.203886
516.590440	0.204516
516.807594	0.204090
517.024731	0.203848
517.241850	0.204030
517.458950	0.204353
517.676032	0.204693
517.893095	0.205187
518.110141	0.205673
518.327168	0.205991
518.544177	0.206346
518.761168	0.207065
518.978141	0.207637
519.195095	0.207237
519.412031	0.207308
519.628949	0.207319
519.845849	0.207416
520.062731	0.208062
520.279594	0.207965
520.496439	0.207772
520.713266	0.207350
520.930074	0.207009
521.146865	0.208183
521.363637	0.208844
521.580391	0.209515
521.797127	0.210192
522.013844	0.209631
522.230543	0.210781
522.447224	0.210774
522.663887	0.211993
522.880532	0.211785
523.097158	0.211609
523.313766	0.212115
523.530356	0.213433
523.746928	0.213374
523.963481	0.213852
524.180017	0.213831
524.396534	0.214863
524.613032	0.214516
524.829513	0.215958
525.045975	0.217238
525.262420	0.216926
525.478845	0.216083
525.695253	0.215563
525.911643	0.215101
526.128014	0.215737
526.344367	0.216067
526.560702	0.217061
526.777018	0.218250
526.993316	0.218496
527.209597	0.218395
527.425858	0.219275
527.642102	0.220170
527.858328	0.220989
528.074535	0.220841
528.290724	0.220708
528.506894	0.220801
528.723047	0.220103
528.939181	0.219821
529.155297	0.220179
529.371395	0.220211
529.587475	0.221632
529.803536	0.221472
530.019579	0.221834
530.235604	0.222314
530.451611	0.222982
530.667600	0.223076
530.883570	0.223818
531.099522	0.224739
531.315456	0.225131
531.531372	0.224539
531.747269	0.225275
531.963148	0.225223
532.179009	0.225360
532.394852	0.225580
532.610676	0.226175
532.826482	0.225759
533.042271	0.225745
533.258040	0.225588
533.473792	0.226319
533.689525	0.226321
533.905240	0.226939
534.120937	0.226733
534.336616	0.225781
534.552277	0.225777
534.767919	0.226594
534.983543	0.227324
535.199149	0.228258
535.414736	0.228115
535.630306	0.228654
535.845857	0.229022
536.061390	0.229890
536.276904	0.231093
536.492401	0.231559
536.707879	0.232226
536.923339	0.232781
537.138781	0.233056
537.354204	0.233848
537.569610	0.234317
537.784997	0.234975
538.000366	0.235897
538.215716	0.236387
538.431049	0.236863
538.646363	0.236148
538.861659	0.236271
539.076937	0.236297
539.292196	0.235982
539.507438	0.236176
539.722661	0.235999
539.937866	0.236149
540.153052	0.236331
540.368221	0.236119
540.583371	0.237396
540.798503	0.237933
541.013617	0.238235
541.228712	0.239069
541.443789	0.240125
541.658848	0.240938
541.873889	0.241271
542.088912	0.241562
542.303916	0.242652
542.518902	0.242905
542.733870	0.242665
542.948820	0.243037
543.163752	0.243809
543.378665	0.244034
543.593560	0.244601
543.808437	0.245024
544.023295	0.245642
544.238136	0.245557
544.452958	0.245483
544.667762	0.245825
544.882548	0.246151
545.097315	0.245845
545.312064	0.245775
545.526795	0.245548
545.741508	0.245716
545.956203	0.245877
546.170879	0.246172
546.385537	0.246804
546.600177	0.246809
546.814799	0.246688
547.029402	0.246900
547.243988	0.247026
547.458555	0.247327
547.673103	0.247503
547.887634	0.247612
548.102146	0.248033
548.316640	0.248675
548.531116	0.249475
548.745574	0.249861
548.960013	0.250455
549.174435	0.250898
549.388838	0.251160
549.603222	0.251176
549.817589	0.251321
550.031937	0.251416
550.246267	0.251458
550.460579	0.251687
550.674873	0.252397
550.889148	0.252618
551.103405	0.252137
551.317644	0.252644
551.531865	0.253351
551.746068	0.254151
551.960252	0.254354
552.174418	0.254345
552.388566	0.254652
552.602696	0.254561
552.816807	0.254620
553.030900	0.255415
553.244975	0.255164
553.459032	0.255224
553.673070	0.254914
553.887091	0.255176
554.101093	0.255014
554.315077	0.255452
554.529042	0.255833
554.742990	0.256431
554.956919	0.256478
555.170830	0.257300
555.384722	0.257155
555.598597	0.257589
555.812453	0.257954
556.026291	0.258339
556.240111	0.257842
556.453913	0.258390
556.667696	0.258146
556.881461	0.258286
557.095208	0.257987
557.308937	0.258535
557.522647	0.258705
557.736339	0.258933
557.950013	0.258867
558.163669	0.258697
558.377307	0.258737
558.590926	0.258630
558.804527	0.258922
559.018110	0.259243
559.231675	0.259298
559.445221	0.259287
559.658749	0.259269
559.872259	0.259816
560.085751	0.260924
560.299225	0.260618
560.512680	0.260989
560.726117	0.261537
560.939536	0.261173
561.152937	0.261073
561.366319	0.261678
561.579683	0.261506
561.793029	0.261624
562.006357	0.261479
562.219667	0.262083
562.432958	0.261918
562.646231	0.261625
562.859486	0.262390
563.072723	0.262762
563.285941	0.262557
563.499141	0.263046
563.712323	0.263154
563.925487	0.263277
564.138632	0.263283
564.351760	0.263844
564.564869	0.264087
564.777960	0.264495
564.991032	0.264714
565.204087	0.264795
565.417123	0.264920
565.630141	0.265107
565.843140	0.265127
566.056122	0.265493
566.269085	0.265557
566.482030	0.265722
566.694957	0.265430
566.907866	0.265501
567.120756	0.265868
567.333628	0.266069
567.546482	0.266911
567.759318	0.267333
567.972135	0.267319
568.184935	0.267469
568.397716	0.268226
568.610478	0.268618
568.823223	0.268875
569.035949	0.269076
569.248657	0.269475
569.461347	0.268848
569.674019	0.268712
569.886672	0.268922
570.099308	0.269393
570.311925	0.268879
570.524523	0.268730
570.737104	0.268456
570.949666	0.268342
571.162210	0.268307
571.374736	0.268981
571.587244	0.269540
571.799733	0.269602
572.012205	0.269774
572.224658	0.269798
572.437092	0.270093
572.649509	0.270776
572.861907	0.270962
573.074287	0.271462
573.286649	0.271481
573.498993	0.271441
573.711318	0.272011
573.923625	0.272023
574.135914	0.272655
574.348185	0.273091
574.560438	0.272772
574.772672	0.273219
574.984888	0.273188
575.197086	0.273124
575.409266	0.273332
575.621427	0.273094
575.833570	0.273290
576.045695	0.273046
576.257802	0.273412
576.469890	0.273949
576.681961	0.274228
576.894013	0.274478
577.106046	0.274774
577.318062	0.274941
577.530059	0.275125
577.742039	0.275178
577.954000	0.275457
578.165942	0.275302
578.377867	0.275530
578.589773	0.275752
578.801661	0.275813
579.013531	0.275705
579.225382	0.275917
579.437216	0.276209
579.649031	0.276396
579.860828	0.276429
580.072606	0.276327
580.284367	0.276471
580.496109	0.276520
580.707833	0.276378
580.919539	0.276909
581.131227	0.277015
581.342896	0.277432
581.554547	0.277823
581.766180	0.278233
581.977795	0.279012
582.189391	0.279050
582.400969	0.278736
582.612529	0.279174
582.824071	0.279544
583.035595	0.280157
583.247100	0.280282
583.458587	0.280141
583.670056	0.280592
583.881506	0.280327
584.092939	0.280456
584.304353	0.280799
584.515749	0.281039
584.727127	0.281199
584.938486	0.280571
585.149828	0.280750
585.361151	0.281038
585.572456	0.281157
585.783742	0.281967
585.995011	0.282512
586.206261	0.283014
586.417493	0.283149
586.628706	0.283073
586.839902	0.284089
587.051079	0.284416
587.262238	0.284801
587.473379	0.285508
587.684502	0.284928
587.895606	0.285023
588.106692	0.285174
588.317760	0.285464
588.528810	0.285657
588.739841	0.285577
588.950855	0.285147
589.161850	0.285705
589.372827	0.285167
589.583785	0.285394
589.794726	0.285921
590.005648	0.286098
590.216552	0.286641
590.427437	0.287132
590.638305	0.287130
590.849154	0.287819
591.059985	0.287684
591.270798	0.287962
591.481592	0.288735
591.692369	0.288527
591.903127	0.288682
592.113867	0.288412
592.324588	0.288302
592.535292	0.288765
592.745977	0.289116
592.956644	0.289512
593.167293	0.289838
593.377923	0.289771
593.588536	0.289972
593.799130	0.290360
594.009706	0.290868
594.220263	0.291069
594.430803	0.291235
594.641324	0.291341
594.851827	0.291368
595.062312	0.291396
595.272778	0.291467
595.483227	0.291828
595.693657	0.291830
595.904069	0.291781
596.114462	0.292011
596.324838	0.292064
596.535195	0.292069
596.745534	0.292525
596.955855	0.292506
597.166157	0.292866
597.376441	0.293016
597.586707	0.293295
597.796955	0.293582
598.007185	0.294311
598.217396	0.294709
598.427589	0.295042
598.637764	0.295385
598.847921	0.296149
599.058060	0.296438
599.268180	0.296610
599.478282	0.296609
599.688366	0.296524
599.898431	0.295931
600.108479	0.295897
600.318508	0.296037
600.528519	0.295965
600.738511	0.295740
600.948486	0.296024
601.158442	0.296297
601.368380	0.296639
601.578300	0.297398
601.788202	0.297751
601.998085	0.297690
602.207950	0.297924
602.417797	0.298316
602.627626	0.298209
602.837436	0.298153
603.047228	0.298235
603.257002	0.298616
603.466758	0.298346
603.676496	0.298659
603.886215	0.299215
604.095916	0.299041
604.305599	0.298641
604.515264	0.299652
604.724910	0.300071
604.934538	0.300249
605.144148	0.300504
605.353740	0.300871
605.563314	0.300747
605.772869	0.300724
605.982406	0.300793
606.191925	0.301308
606.401425	0.300637
606.610908	0.300468
606.820372	0.300616
607.029818	0.300224
607.239246	0.300244
607.448655	0.300701
607.658047	0.301008
607.867420	0.301146
608.076775	0.301289
608.286111	0.301909
608.495430	0.302193
608.704730	0.302249
608.914012	0.302915
609.123275	0.303112
609.332521	0.303155
609.541748	0.303542
609.750957	0.304034
609.960148	0.304145
610.169321	0.304511
610.378475	0.304628
610.587611	0.304785
610.796729	0.304530
611.005829	0.304669
611.214910	0.304932
611.423974	0.304807
611.633019	0.304717
611.842045	0.304770
612.051054	0.304690
612.260044	0.304541
612.469017	0.304818
612.677970	0.305094
612.886906	0.305162
613.095824	0.305197
613.304723	0.305371
613.513604	0.305584
613.722467	0.305579
613.931311	0.305444
614.140138	0.306005
614.348946	0.306001
614.557736	0.306438
614.766507	0.307041
614.975261	0.307113
615.183996	0.307225
615.392713	0.307535
615.601412	0.307823
615.810092	0.308516
616.018754	0.308443
616.227399	0.308885
616.436024	0.308979
616.644632	0.308901
616.853222	0.309313
617.061793	0.309683
617.270346	0.309659
617.478880	0.309761
617.687397	0.309776
617.895895	0.310298
618.104375	0.310078
618.312837	0.309906
618.521281	0.309947
618.729706	0.310015
618.938113	0.309804
619.146502	0.310154
619.354873	0.310507
619.563226	0.310583
619.771560	0.310500
619.979876	0.311008
620.188174	0.311485
620.396453	0.311362
620.604715	0.311632
620.812958	0.311896
621.021183	0.312001
621.229390	0.311917
621.437578	0.312089
621.645748	0.312329
621.853900	0.312410
622.062034	0.312289
622.270150	0.312733
622.478247	0.313028
622.686326	0.313270
622.894387	0.313269
623.102430	0.313268
623.310454	0.313402
623.518461	0.313287
623.726449	0.313218
623.934418	0.313488
624.142370	0.313480
624.350303	0.313390
624.558218	0.313617
624.766115	0.314087
624.973994	0.314137
625.181855	0.314129
625.389697	0.314753
625.597521	0.314903
625.805327	0.315004
626.013114	0.315306
626.220883	0.315291
626.428634	0.315231
626.636367	0.315046
626.844082	0.315409
627.051778	0.315715
627.259457	0.315733
627.467117	0.316131
627.674758	0.316241
627.882382	0.316479
628.089987	0.317117
628.297574	0.317490
628.505143	0.318257
628.712694	0.318803
628.920226	0.319286
629.127740	0.319346
629.335236	0.319253
629.542714	0.319665
629.750174	0.319893
629.957615	0.319604
630.165038	0.319655
630.372443	0.319552
630.579829	0.319644
630.787198	0.319549
630.994548	0.319851
631.201880	0.320097
631.409194	0.319881
631.616489	0.320030
631.823766	0.320246
632.031025	0.320313
632.238266	0.320311
632.445489	0.320391
632.652693	0.320677
632.859879	0.320776
633.067047	0.320899
633.274197	0.321393
633.481329	0.321468
633.688442	0.321680
633.895537	0.322164
634.102614	0.322344
634.309672	0.322300
634.516713	0.322319
634.723735	0.322301
634.930739	0.322738
635.137724	0.322757
635.344692	0.323269
635.551641	0.323483
635.758572	0.323717
635.965485	0.324029
636.172379	0.324437
636.379256	0.324601
636.586114	0.324901
636.792954	0.324893
636.999775	0.325448
637.206579	0.325342
637.413364	0.325256
637.620131	0.325418
637.826880	0.325666
638.033610	0.325920
638.240323	0.326019
638.447017	0.325957
638.653692	0.326069
638.860350	0.326065
639.066990	0.326164
639.273611	0.326671
639.480214	0.326675
639.686798	0.326650
639.893365	0.326788
640.099913	0.327126
640.306443	0.327352
640.512955	0.327433
640.719449	0.327515
640.925924	0.327693
641.132381	0.327845
641.338820	0.327798
641.545241	0.328214
641.751644	0.328452
641.958028	0.328709
642.164394	0.329267
642.370742	0.329826
642.577071	0.329896
642.783383	0.330145
642.989676	0.330336
643.195951	0.330595
643.402207	0.330479
643.608446	0.330613
643.814666	0.330628
644.020868	0.330667
644.227052	0.330995
644.433218	0.331415
644.639365	0.331583
644.845494	0.331685
645.051605	0.332197
645.257698	0.332382
645.463772	0.332462
645.669828	0.332653
645.875866	0.333052
646.081886	0.332957
646.287888	0.333019
646.493871	0.333276
646.699836	0.333470
646.905783	0.333608
647.111712	0.333910
647.317622	0.334368
647.523514	0.334650
647.729388	0.334723
647.935244	0.335118
648.141082	0.335530
648.346901	0.335855
648.552702	0.336231
648.758485	0.336818
648.964250	0.337010
649.169996	0.337103
649.375724	0.337536
649.581434	0.337852
649.787126	0.337877
649.992800	0.338012
650.198455	0.338156
650.404092	0.337945
650.609711	0.337587
650.815311	0.337715
651.020894	0.337998
651.226458	0.338172
651.432004	0.338277
651.637532	0.338634
651.843041	0.338724
652.048532	0.338734
652.254006	0.339244
652.459460	0.339631
652.664897	0.339800
652.870315	0.340013
653.075716	0.339979
653.281097	0.340189
653.486461	0.340533
653.691807	0.340660
653.897134	0.341002
654.102443	0.341154
654.307734	0.341037
654.513006	0.341308
654.718261	0.341289
654.923497	0.341285
655.128715	0.341463
655.333915	0.341557
655.539096	0.341927
655.744259	0.342239
655.949404	0.342635
656.154531	0.343031
656.359640	0.343356
656.564730	0.343730
656.769802	0.344021
656.974856	0.344153
657.179892	0.344080
657.384909	0.344199
657.589908	0.344379
657.794889	0.344625
657.999852	0.344921
658.204797	0.345243
658.409723	0.345387
658.614631	0.345807
658.819521	0.346135
659.024393	0.346739
659.229246	0.347235
659.434081	0.347399
659.638898	0.347588
659.843697	0.347968
660.048478	0.347957
660.253240	0.348121
660.457984	0.348248
660.662710	0.348470
660.867417	0.348640
661.072107	0.348651
661.276778	0.349138
661.481431	0.349336
661.686066	0.349264
661.890682	0.349563
662.095281	0.349928
662.299861	0.350375
662.504422	0.350564
662.708966	0.350367
662.913491	0.350595
663.117999	0.350553
663.322488	0.350867
663.526958	0.350951
663.731411	0.351175
663.935845	0.351448
664.140261	0.351564
664.344659	0.351881
664.549038	0.352517
664.753400	0.352631
664.957743	0.352744
665.162068	0.352995
665.366375	0.353162
665.570663	0.353421
665.774933	0.353561
665.979185	0.353516
666.183419	0.353774
666.387635	0.354023
666.591832	0.354233
666.796011	0.354339
667.000172	0.354282
667.204315	0.354824
667.408439	0.355150
667.612545	0.355406
667.816634	0.355892
668.020703	0.356050
668.224755	0.356333
668.428788	0.356693
668.632803	0.357270
668.836800	0.357579
669.040779	0.357931
669.244739	0.358067
669.448681	0.358348
669.652605	0.358636
669.856511	0.358801
670.060399	0.358873
670.264268	0.359173
670.468119	0.359310
670.671952	0.359687
670.875767	0.360090
671.079563	0.360424
671.283341	0.360809
671.487101	0.361163
671.690843	0.361609
671.894567	0.361809
672.098272	0.362134
672.301959	0.362477
672.505628	0.362711
672.709278	0.362791
672.912911	0.363196
673.116525	0.363208
673.320121	0.363155
673.523699	0.363117
673.727258	0.363438
673.930799	0.363464
674.134322	0.363748
674.337827	0.364129
674.541314	0.364373
674.744782	0.364363
674.948232	0.364747
675.151664	0.365304
675.355078	0.365644
675.558474	0.365953
675.761851	0.366248
675.965210	0.366536
676.168551	0.366795
676.371873	0.367054
676.575178	0.367384
676.778464	0.367380
676.981732	0.367330
677.184981	0.367671
677.388213	0.367767
677.591426	0.367997
677.794621	0.368045
677.997798	0.368246
678.200956	0.368144
678.404097	0.368321
678.607219	0.368619
678.810323	0.368728
679.013408	0.368569
679.216476	0.368766
679.419525	0.368961
679.622556	0.369189
679.825569	0.369291
680.028563	0.369627
680.231540	0.369847
680.434498	0.370200
680.637438	0.370765
680.840359	0.371052
681.043263	0.371199
681.246148	0.371789
681.449015	0.371759
681.651864	0.371938
681.854694	0.372086
682.057506	0.372200
682.260301	0.372100
682.463076	0.372231
682.665834	0.372385
682.868573	0.372707
683.071295	0.372558
683.273998	0.372971
683.476682	0.373045
683.679349	0.373483
683.881997	0.373894
684.084627	0.374377
684.287239	0.374419
684.489833	0.374949
684.692408	0.375205
684.894965	0.375287
685.097504	0.375555
685.300025	0.375352
685.502527	0.375734
685.705012	0.376113
685.907478	0.376498
686.109925	0.376980
686.312355	0.377339
686.514766	0.377505
686.717159	0.378047
686.919534	0.378253
687.121891	0.379008
687.324230	0.379213
687.526550	0.379219
687.728852	0.379203
687.931136	0.379366
688.133401	0.379179
688.335649	0.378973
688.537878	0.378927
688.740089	0.378919
688.942281	0.379098
689.144456	0.379164
689.346612	0.379186
689.548750	0.379327
689.750870	0.379601
689.952971	0.379907
690.155055	0.380308
690.357120	0.380504
690.559167	0.380830
690.761195	0.380970
690.963206	0.381127
691.165198	0.381521
691.367172	0.381721
691.569128	0.381634
691.771065	0.381953
691.972984	0.382343
692.174885	0.383011
692.376768	0.383374
692.578633	0.383688
692.780479	0.383932
692.982308	0.383932
693.184118	0.384263
693.385909	0.384573
