sample name	sample
index	1129
start time	 04-22-2021  02:14:34 PM


Wavelength (nm)	Absorbance
494.344910	0.216769
494.563924	0.216769
494.782919	0.216769
495.001897	NaN
495.220856	0.399341
495.439797	0.341101
495.658719	0.250542
495.877624	0.258037
496.096510	0.024194
496.315378	0.008248
496.534227	0.088932
496.753059	0.047925
496.971872	0.105550
497.190667	0.123419
497.409444	0.134191
497.628203	0.136533
497.846943	0.138495
498.065665	0.141534
498.284369	0.142626
498.503055	0.141601
498.721723	0.144131
498.940372	0.144119
499.159003	0.143767
499.377616	0.143762
499.596210	0.144090
499.814787	0.143434
500.033345	0.143123
500.251885	0.142942
500.470406	0.143224
500.688910	0.141890
500.907395	0.142389
501.125862	0.142295
501.344311	0.142126
501.562742	0.143428
501.781154	0.143219
501.999548	0.141550
502.217924	0.140639
502.436282	0.140008
502.654621	0.140091
502.872942	0.139936
503.091245	0.140416
503.309530	0.141358
503.527797	0.140704
503.746045	0.141305
503.964275	0.143881
504.182487	0.145211
504.400681	0.146401
504.618856	0.146054
504.837013	0.145664
505.055152	0.146326
505.273273	0.147161
505.491376	0.146668
505.709460	0.147554
505.927526	0.146812
506.145574	0.146684
506.363604	0.146341
506.581615	0.147249
506.799608	0.147931
507.017583	0.147585
507.235540	0.146462
507.453478	0.148759
507.671399	0.148781
507.889301	0.148454
508.107185	0.147525
508.325050	0.147768
508.542898	0.147978
508.760727	0.146335
508.978538	0.147680
509.196330	0.147361
509.414105	0.145400
509.631861	0.144838
509.849599	0.145077
510.067319	0.146027
510.285021	0.146844
510.502704	0.146771
510.720369	0.148723
510.938016	0.148194
511.155645	0.149231
511.373255	0.150195
511.590848	0.150868
511.808422	0.151033
512.025977	0.151510
512.243515	0.151220
512.461034	0.151814
512.678536	0.152098
512.896018	0.152895
513.113483	0.152684
513.330930	0.152464
513.548358	0.152601
513.765768	0.152995
513.983160	0.153272
514.200533	0.153081
514.417889	0.152798
514.635226	0.152963
514.852545	0.152597
515.069845	0.153394
515.287128	0.153919
515.504392	0.152944
515.721638	0.153361
515.938866	0.152880
516.156075	0.153409
516.373267	0.153919
516.590440	0.153618
516.807594	0.153342
517.024731	0.152901
517.241850	0.153397
517.458950	0.154287
517.676032	0.153424
517.893095	0.154608
518.110141	0.155410
518.327168	0.156066
518.544177	0.156481
518.761168	0.157091
518.978141	0.157558
519.195095	0.156724
519.412031	0.157641
519.628949	0.159328
519.845849	0.159031
520.062731	0.158391
520.279594	0.157615
520.496439	0.158449
520.713266	0.157907
520.930074	0.158694
521.146865	0.159332
521.363637	0.159408
521.580391	0.158435
521.797127	0.158336
522.013844	0.159109
522.230543	0.159503
522.447224	0.159458
522.663887	0.160459
522.880532	0.160003
523.097158	0.160072
523.313766	0.159998
523.530356	0.161157
523.746928	0.161759
523.963481	0.161486
524.180017	0.162205
524.396534	0.162451
524.613032	0.162911
524.829513	0.163393
525.045975	0.163693
525.262420	0.163683
525.478845	0.163970
525.695253	0.164008
525.911643	0.164378
526.128014	0.164394
526.344367	0.164717
526.560702	0.164838
526.777018	0.164916
526.993316	0.165220
527.209597	0.165952
527.425858	0.165990
527.642102	0.166666
527.858328	0.166854
528.074535	0.166764
528.290724	0.166293
528.506894	0.166769
528.723047	0.166766
528.939181	0.167353
529.155297	0.168024
529.371395	0.168268
529.587475	0.168409
529.803536	0.168650
530.019579	0.169620
530.235604	0.170850
530.451611	0.171135
530.667600	0.172014
530.883570	0.172038
531.099522	0.171854
531.315456	0.172609
531.531372	0.172218
531.747269	0.173433
531.963148	0.173498
532.179009	0.173703
532.394852	0.173772
532.610676	0.173759
532.826482	0.174443
533.042271	0.174930
533.258040	0.175194
533.473792	0.176108
533.689525	0.175749
533.905240	0.175691
534.120937	0.176374
534.336616	0.176063
534.552277	0.176721
534.767919	0.176440
534.983543	0.176503
535.199149	0.176555
535.414736	0.176981
535.630306	0.177395
535.845857	0.178093
536.061390	0.177994
536.276904	0.178776
536.492401	0.179318
536.707879	0.179931
536.923339	0.179649
537.138781	0.179981
537.354204	0.179898
537.569610	0.179765
537.784997	0.179761
538.000366	0.179764
538.215716	0.180563
538.431049	0.179854
538.646363	0.180202
538.861659	0.180603
539.076937	0.181154
539.292196	0.181391
539.507438	0.181792
539.722661	0.182246
539.937866	0.182523
540.153052	0.181963
540.368221	0.182518
540.583371	0.182060
540.798503	0.183017
541.013617	0.183112
541.228712	0.183952
541.443789	0.184685
541.658848	0.185164
541.873889	0.185898
542.088912	0.186591
542.303916	0.187517
542.518902	0.188294
542.733870	0.188594
542.948820	0.188926
543.163752	0.188797
543.378665	0.188803
543.593560	0.189014
543.808437	0.188986
544.023295	0.189338
544.238136	0.189637
544.452958	0.190080
544.667762	0.189381
544.882548	0.189468
545.097315	0.189989
545.312064	0.190124
545.526795	0.190272
545.741508	0.190514
545.956203	0.190738
546.170879	0.190532
546.385537	0.190759
546.600177	0.191929
546.814799	0.191987
547.029402	0.192341
547.243988	0.192544
547.458555	0.192544
547.673103	0.192881
547.887634	0.193017
548.102146	0.193206
548.316640	0.193475
548.531116	0.193756
548.745574	0.193970
548.960013	0.194399
549.174435	0.194447
549.388838	0.194972
549.603222	0.194912
549.817589	0.195099
550.031937	0.195243
550.246267	0.195487
550.460579	0.195682
550.674873	0.195954
550.889148	0.196045
551.103405	0.196483
551.317644	0.196659
551.531865	0.196510
551.746068	0.196925
551.960252	0.197501
552.174418	0.197571
552.388566	0.197537
552.602696	0.197427
552.816807	0.197201
553.030900	0.197483
553.244975	0.197599
553.459032	0.198105
553.673070	0.198092
553.887091	0.198006
554.101093	0.197986
554.315077	0.198001
554.529042	0.198840
554.742990	0.198870
554.956919	0.198626
555.170830	0.198909
555.384722	0.198943
555.598597	0.198991
555.812453	0.199276
556.026291	0.199763
556.240111	0.200171
556.453913	0.200724
556.667696	0.201171
556.881461	0.201397
557.095208	0.201485
557.308937	0.202076
557.522647	0.202564
557.736339	0.202526
557.950013	0.203005
558.163669	0.203463
558.377307	0.202838
558.590926	0.203210
558.804527	0.204001
559.018110	0.204211
559.231675	0.204190
559.445221	0.204097
559.658749	0.204256
559.872259	0.204180
560.085751	0.203906
560.299225	0.204389
560.512680	0.204317
560.726117	0.204403
560.939536	0.204813
561.152937	0.204915
561.366319	0.205301
561.579683	0.205478
561.793029	0.205215
562.006357	0.205481
562.219667	0.205006
562.432958	0.205372
562.646231	0.204934
562.859486	0.204691
563.072723	0.204908
563.285941	0.204711
563.499141	0.204724
563.712323	0.205154
563.925487	0.205461
564.138632	0.205731
564.351760	0.205429
564.564869	0.205937
564.777960	0.206126
564.991032	0.206341
565.204087	0.206702
565.417123	0.206841
565.630141	0.207083
565.843140	0.206969
566.056122	0.206929
566.269085	0.206892
566.482030	0.206962
566.694957	0.206940
566.907866	0.207040
567.120756	0.206752
567.333628	0.206692
567.546482	0.206359
567.759318	0.206448
567.972135	0.206704
568.184935	0.207396
568.397716	0.207548
568.610478	0.207787
568.823223	0.207819
569.035949	0.208067
569.248657	0.208659
569.461347	0.209006
569.674019	0.208683
569.886672	0.208958
570.099308	0.208830
570.311925	0.209102
570.524523	0.209290
570.737104	0.209577
570.949666	0.210172
571.162210	0.210129
571.374736	0.210359
571.587244	0.210977
571.799733	0.210845
572.012205	0.211148
572.224658	0.210994
572.437092	0.211308
572.649509	0.211163
572.861907	0.211310
573.074287	0.211616
573.286649	0.211943
573.498993	0.211840
573.711318	0.212376
573.923625	0.212589
574.135914	0.212637
574.348185	0.212600
574.560438	0.213162
574.772672	0.213221
574.984888	0.213364
575.197086	0.213641
575.409266	0.213821
575.621427	0.214052
575.833570	0.213999
576.045695	0.214339
576.257802	0.214153
576.469890	0.214018
576.681961	0.214056
576.894013	0.213822
577.106046	0.213590
577.318062	0.214237
577.530059	0.214131
577.742039	0.214217
577.954000	0.214033
578.165942	0.214832
578.377867	0.214995
578.589773	0.214968
578.801661	0.215097
579.013531	0.215258
579.225382	0.215367
579.437216	0.215462
579.649031	0.215633
579.860828	0.216140
580.072606	0.215697
580.284367	0.215830
580.496109	0.216137
580.707833	0.216486
580.919539	0.216480
581.131227	0.215991
581.342896	0.216327
581.554547	0.216750
581.766180	0.216781
581.977795	0.217152
582.189391	0.217328
582.400969	0.217265
582.612529	0.217294
582.824071	0.217758
583.035595	0.217923
583.247100	0.217687
583.458587	0.217146
583.670056	0.217232
583.881506	0.217222
584.092939	0.216941
584.304353	0.217114
584.515749	0.217370
584.727127	0.217462
584.938486	0.218001
585.149828	0.218135
585.361151	0.218765
585.572456	0.218935
585.783742	0.218878
585.995011	0.219144
586.206261	0.219528
586.417493	0.219777
586.628706	0.219754
586.839902	0.219553
587.051079	0.220101
587.262238	0.220221
587.473379	0.220171
587.684502	0.220315
587.895606	0.220427
588.106692	0.220105
588.317760	0.220254
588.528810	0.220483
588.739841	0.220848
588.950855	0.220831
589.161850	0.220794
589.372827	0.221155
589.583785	0.221474
589.794726	0.221503
590.005648	0.221790
590.216552	0.221886
590.427437	0.221780
590.638305	0.221874
590.849154	0.221870
591.059985	0.222363
591.270798	0.222685
591.481592	0.222725
591.692369	0.223126
591.903127	0.223297
592.113867	0.223398
592.324588	0.223773
592.535292	0.224283
592.745977	0.225120
592.956644	0.225295
593.167293	0.225429
593.377923	0.226045
593.588536	0.226484
593.799130	0.226761
594.009706	0.226984
594.220263	0.227516
594.430803	0.227497
594.641324	0.227444
594.851827	0.227382
595.062312	0.227187
595.272778	0.227117
595.483227	0.226878
595.693657	0.226886
595.904069	0.227572
596.114462	0.227399
596.324838	0.227812
596.535195	0.227423
596.745534	0.227903
596.955855	0.228174
597.166157	0.228403
597.376441	0.228757
597.586707	0.228505
597.796955	0.227850
598.007185	0.227764
598.217396	0.227482
598.427589	0.227765
598.637764	0.227183
598.847921	0.227579
599.058060	0.227888
599.268180	0.227778
599.478282	0.228338
599.688366	0.228723
599.898431	0.228849
600.108479	0.229070
600.318508	0.228905
600.528519	0.229535
600.738511	0.229569
600.948486	0.229410
601.158442	0.229880
601.368380	0.230141
601.578300	0.230389
601.788202	0.230640
601.998085	0.230460
602.207950	0.230723
602.417797	0.230717
602.627626	0.230829
602.837436	0.230920
603.047228	0.230833
603.257002	0.230793
603.466758	0.231024
603.676496	0.231188
603.886215	0.231346
604.095916	0.231485
604.305599	0.231247
604.515264	0.231317
604.724910	0.231480
604.934538	0.231708
605.144148	0.231961
605.353740	0.231889
605.563314	0.231852
605.772869	0.232115
605.982406	0.232110
606.191925	0.232497
606.401425	0.232712
606.610908	0.232643
606.820372	0.232721
607.029818	0.232751
607.239246	0.232837
607.448655	0.232951
607.658047	0.233145
607.867420	0.233319
608.076775	0.233175
608.286111	0.232875
608.495430	0.232768
608.704730	0.232844
608.914012	0.233112
609.123275	0.233056
609.332521	0.233267
609.541748	0.233311
609.750957	0.233703
609.960148	0.234163
610.169321	0.234389
610.378475	0.234759
610.587611	0.234744
610.796729	0.234697
611.005829	0.234847
611.214910	0.235011
611.423974	0.235336
611.633019	0.235425
611.842045	0.235207
612.051054	0.235351
612.260044	0.235514
612.469017	0.235837
612.677970	0.236082
612.886906	0.236087
613.095824	0.235857
613.304723	0.235747
613.513604	0.235460
613.722467	0.235869
613.931311	0.236107
614.140138	0.236344
614.348946	0.236277
614.557736	0.236081
614.766507	0.236333
614.975261	0.236731
615.183996	0.236874
615.392713	0.237465
615.601412	0.237830
615.810092	0.238109
616.018754	0.237984
616.227399	0.237910
616.436024	0.238170
616.644632	0.238444
616.853222	0.238498
617.061793	0.238537
617.270346	0.238387
617.478880	0.238404
617.687397	0.238224
617.895895	0.238240
618.104375	0.238505
618.312837	0.238647
618.521281	0.238476
618.729706	0.238644
618.938113	0.238988
619.146502	0.238786
619.354873	0.238629
619.563226	0.238756
619.771560	0.239151
619.979876	0.239266
620.188174	0.239263
620.396453	0.239568
620.604715	0.239541
620.812958	0.239420
621.021183	0.239979
621.229390	0.240224
621.437578	0.240372
621.645748	0.240556
621.853900	0.240764
622.062034	0.240980
622.270150	0.241113
622.478247	0.241125
622.686326	0.241287
622.894387	0.241706
623.102430	0.241948
623.310454	0.242219
623.518461	0.242211
623.726449	0.242298
623.934418	0.242591
624.142370	0.242567
624.350303	0.242805
624.558218	0.242755
624.766115	0.242493
624.973994	0.242304
625.181855	0.242583
625.389697	0.242843
625.597521	0.243133
625.805327	0.243185
626.013114	0.243343
626.220883	0.243446
626.428634	0.243777
626.636367	0.243995
626.844082	0.244455
627.051778	0.244446
627.259457	0.244498
627.467117	0.244295
627.674758	0.244401
627.882382	0.244469
628.089987	0.244859
628.297574	0.245044
628.505143	0.245185
628.712694	0.244944
628.920226	0.244869
629.127740	0.245037
629.335236	0.245166
629.542714	0.245179
629.750174	0.245323
629.957615	0.245214
630.165038	0.245461
630.372443	0.245632
630.579829	0.245846
630.787198	0.246044
630.994548	0.246081
631.201880	0.246379
631.409194	0.246795
631.616489	0.247044
631.823766	0.247426
632.031025	0.247362
632.238266	0.247199
632.445489	0.247521
632.652693	0.247476
632.859879	0.247706
633.067047	0.247893
633.274197	0.247691
633.481329	0.247837
633.688442	0.247610
633.895537	0.247846
634.102614	0.248216
634.309672	0.248349
634.516713	0.249053
634.723735	0.249124
634.930739	0.249184
635.137724	0.249496
635.344692	0.249956
635.551641	0.250343
635.758572	0.250587
635.965485	0.251072
636.172379	0.251207
636.379256	0.251050
636.586114	0.251037
636.792954	0.251380
636.999775	0.251278
637.206579	0.251053
637.413364	0.251313
637.620131	0.251462
637.826880	0.251546
638.033610	0.251576
638.240323	0.251742
638.447017	0.252492
638.653692	0.252806
638.860350	0.253362
639.066990	0.253684
639.273611	0.253883
639.480214	0.253966
639.686798	0.254142
639.893365	0.254641
640.099913	0.254893
640.306443	0.254668
640.512955	0.254511
640.719449	0.254681
640.925924	0.254773
641.132381	0.254990
641.338820	0.255247
641.545241	0.255190
641.751644	0.255182
641.958028	0.255198
642.164394	0.255433
642.370742	0.255342
642.577071	0.255353
642.783383	0.255498
642.989676	0.255508
643.195951	0.255542
643.402207	0.255624
643.608446	0.255466
643.814666	0.255676
644.020868	0.255652
644.227052	0.256178
644.433218	0.256211
644.639365	0.256458
644.845494	0.256588
645.051605	0.256791
645.257698	0.257081
645.463772	0.257399
645.669828	0.257699
645.875866	0.257889
646.081886	0.257916
646.287888	0.258092
646.493871	0.258299
646.699836	0.258172
646.905783	0.258446
647.111712	0.258723
647.317622	0.258916
647.523514	0.258787
647.729388	0.258753
647.935244	0.258895
648.141082	0.259081
648.346901	0.259038
648.552702	0.259422
648.758485	0.259445
648.964250	0.259436
649.169996	0.259392
649.375724	0.259751
649.581434	0.260116
649.787126	0.260417
649.992800	0.260636
650.198455	0.260911
650.404092	0.261231
650.609711	0.261338
650.815311	0.261585
651.020894	0.261976
651.226458	0.261934
651.432004	0.262258
651.637532	0.262438
651.843041	0.262778
652.048532	0.262997
652.254006	0.262958
652.459460	0.263052
652.664897	0.263493
652.870315	0.263894
653.075716	0.264167
653.281097	0.264440
653.486461	0.264579
653.691807	0.264458
653.897134	0.264611
654.102443	0.264965
654.307734	0.265392
654.513006	0.265428
654.718261	0.265337
654.923497	0.265605
655.128715	0.265610
655.333915	0.265819
655.539096	0.266095
655.744259	0.265983
655.949404	0.265938
656.154531	0.266052
656.359640	0.266145
656.564730	0.266202
656.769802	0.266580
656.974856	0.266652
657.179892	0.266854
657.384909	0.267110
657.589908	0.267579
657.794889	0.268228
657.999852	0.268230
658.204797	0.268288
658.409723	0.268632
658.614631	0.268360
658.819521	0.268549
659.024393	0.268707
659.229246	0.268809
659.434081	0.268842
659.638898	0.268554
659.843697	0.268826
660.048478	0.269148
660.253240	0.269463
660.457984	0.269850
660.662710	0.270031
660.867417	0.270178
661.072107	0.270459
661.276778	0.270810
661.481431	0.271033
661.686066	0.271214
661.890682	0.271115
662.095281	0.271182
662.299861	0.271337
662.504422	0.271779
662.708966	0.271936
662.913491	0.271993
663.117999	0.271978
663.322488	0.272258
663.526958	0.272450
663.731411	0.272429
663.935845	0.272550
664.140261	0.272789
664.344659	0.272673
664.549038	0.272942
664.753400	0.273089
664.957743	0.273345
665.162068	0.273463
665.366375	0.273560
665.570663	0.274117
665.774933	0.274540
665.979185	0.274813
666.183419	0.275309
666.387635	0.275543
666.591832	0.275815
666.796011	0.276188
667.000172	0.276804
667.204315	0.276947
667.408439	0.277373
667.612545	0.277526
667.816634	0.277681
668.020703	0.277659
668.224755	0.278096
668.428788	0.278598
668.632803	0.278652
668.836800	0.278528
669.040779	0.278935
669.244739	0.278656
669.448681	0.278747
669.652605	0.278832
669.856511	0.279321
670.060399	0.279259
670.264268	0.279151
670.468119	0.279301
670.671952	0.279277
670.875767	0.279180
671.079563	0.279448
671.283341	0.279722
671.487101	0.279866
671.690843	0.279587
671.894567	0.279848
672.098272	0.279972
672.301959	0.280335
672.505628	0.280932
672.709278	0.281440
672.912911	0.281921
673.116525	0.281770
673.320121	0.282132
673.523699	0.282564
673.727258	0.282736
673.930799	0.283196
674.134322	0.283243
674.337827	0.283158
674.541314	0.283434
674.744782	0.283230
674.948232	0.283624
675.151664	0.283737
675.355078	0.283827
675.558474	0.283642
675.761851	0.283637
675.965210	0.283868
676.168551	0.284240
676.371873	0.284271
676.575178	0.284768
676.778464	0.284957
676.981732	0.284979
677.184981	0.285384
677.388213	0.285826
677.591426	0.285913
677.794621	0.286266
677.997798	0.286458
678.200956	0.286659
678.404097	0.286950
678.607219	0.287379
678.810323	0.287832
679.013408	0.288263
679.216476	0.288751
679.419525	0.289088
679.622556	0.289324
679.825569	0.289567
680.028563	0.289901
680.231540	0.290103
680.434498	0.290361
680.637438	0.290554
680.840359	0.290535
681.043263	0.290584
681.246148	0.290867
681.449015	0.290867
681.651864	0.290889
681.854694	0.291095
682.057506	0.291128
682.260301	0.291134
682.463076	0.291562
682.665834	0.291854
682.868573	0.291964
683.071295	0.292124
683.273998	0.292384
683.476682	0.292882
683.679349	0.292905
683.881997	0.293074
684.084627	0.293205
684.287239	0.292848
684.489833	0.292770
684.692408	0.292850
684.894965	0.292887
685.097504	0.293028
685.300025	0.292943
685.502527	0.293165
685.705012	0.293495
685.907478	0.293660
686.109925	0.294078
686.312355	0.294246
686.514766	0.294509
686.717159	0.294813
686.919534	0.294966
687.121891	0.295229
687.324230	0.295252
687.526550	0.295267
687.728852	0.295218
687.931136	0.295199
688.133401	0.295307
688.335649	0.295469
688.537878	0.295671
688.740089	0.296037
688.942281	0.296396
689.144456	0.296651
689.346612	0.296907
689.548750	0.297333
689.750870	0.297599
689.952971	0.297687
690.155055	0.297807
690.357120	0.298120
690.559167	0.297940
690.761195	0.297593
690.963206	0.297695
691.165198	0.297808
691.367172	0.297924
691.569128	0.297800
691.771065	0.298207
691.972984	0.298423
692.174885	0.298473
692.376768	0.298390
692.578633	0.298581
692.780479	0.298798
692.982308	0.298841
693.184118	0.298876
693.385909	0.299239
