sample name	sample
index	1017
start time	 04-19-2021  11:49:49 AM
880	0.559155
Peak Time (s)	102.537
Peak Height 	0.5592
calc peak height	100,103
Baseline Time (s)	8.536
Baseline Value 	-0.006523
subtract baseline	10,4
Abs	0.377112
Peak Time (s)	101.537
Peak Height 	0.3771
calc peak height	100,103
Baseline Time (s)	9.039
Baseline Value 	0.002796
subtract baseline	10,3
PK_550	0.203843
Peak Time (s)	100.036
Peak Height 	0.2038
calc peak height	100,103
Baseline Time (s)	9.537
Baseline Value 	2.907E-4
subtract baseline	10,2
PK_880	0.351896
Peak Time (s)	100.536
Peak Height 	0.3519
calc peak height	100,103
Baseline Time (s)	10.537
Baseline Value 	0.00231
subtract baseline	10,1


Time (s)	A880-A510	A880-A775	A880-A975	A880	I510	I775	I975	I880	
0.039000	-0.002313	-0.001348	-0.000702	0.003397	6540.230244	45696.214517	3954.313034	24201.746055
0.536500	-0.001081	0.000092	-0.000841	0.005185	6535.414353	45661.796062	3949.015514	24113.715878
1.037000	-0.002282	-0.000779	-0.001540	0.004206	6533.505951	45672.556113	3949.785400	24161.878395
1.538000	-0.005879	-0.000775	-0.003242	0.006482	6483.119212	45448.914211	3938.921377	24050.133255
2.037500	-0.001015	-0.000582	-0.000514	0.001433	6568.558975	45966.635148	3960.254298	24298.871798
2.537500	-0.000393	0.000072	-0.000877	0.001586	6572.647920	46016.421406	3958.827001	24291.258033
3.035500	-0.000170	-0.000736	-0.000249	-0.001532	6601.922823	46246.848221	3969.228129	24446.275117
3.535500	-0.003859	-0.000637	-0.007419	0.005224	6511.164981	45586.266290	3931.011873	24111.846697
4.036000	0.000148	0.000231	-0.002475	0.000538	6586.544393	46136.745709	3957.309780	24343.277578
4.539000	-0.000335	-0.001122	-0.000723	-0.000422	6590.729437	46097.516197	3964.820474	24390.994837
5.036500	0.000141	0.000016	-0.001182	0.000351	6588.126155	46133.883933	3961.402629	24352.551344
5.537000	-0.000060	0.000333	-0.001284	0.000329	6586.556004	46167.788754	3961.181587	24353.657915
6.037000	-0.000862	-0.000405	0.001248	0.000032	6582.138048	46123.749173	3969.043305	24368.407893
6.537500	-0.001287	-0.000047	-0.005271	0.000213	6576.828073	46141.380343	3950.504351	24359.383916
7.035000	-0.000335	0.000164	0.001731	0.000336	6584.082765	46150.149253	3969.540232	24353.276980
7.535000	0.000146	0.000015	-0.003890	0.000263	6588.932056	46142.585881	3954.164652	24356.914746
8.035500	-0.000998	0.000617	-0.002692	0.000502	6576.832915	46178.761922	3956.806690	24345.028506
8.535500	-0.000351	-0.000228	-0.002032	0.000000	6586.886299	46144.584803	3960.018005	24369.983460
9.039000	-0.000169	0.000059	0.000000	0.000189	6586.821920	46154.329948	3965.130030	24360.581757
9.536500	0.001527	0.000000	-0.001893	-0.000064	6603.931474	46173.660604	3960.579553	24373.147036
10.036500	0.002092	-0.000032	0.000804	-0.000097	6609.201380	46173.747653	3968.163286	24374.792900
10.537000	0.000000	0.000126	0.002099	0.000059	6589.443582	46174.026982	3971.340414	24367.050747
11.037000	-0.000877	-0.000312	0.003172	-0.000300	6584.906898	46166.091024	3975.347538	24384.915451
11.534000	0.001596	0.000374	-0.001596	0.000257	6601.719853	46178.957389	3960.514329	24357.215195
12.035000	-0.000635	0.000264	-0.001397	0.000085	6583.660866	46185.170641	3961.542525	24365.773460
12.535500	-0.000604	0.000362	0.003170	-0.000080	6585.366545	46211.382030	3974.725209	24373.944023
13.035000	0.000206	-0.000232	0.000382	-0.000579	6596.852083	46201.941044	3968.330001	24398.794502
13.539000	0.000882	0.000614	0.002026	0.000330	6594.797778	46195.665553	3970.378938	24353.574053
14.036000	-0.001813	0.000911	0.000515	0.002939	6548.528739	45965.329377	3958.934140	24224.353721
14.536500	-0.002504	0.000257	-0.003705	0.003042	6541.647871	45890.209782	3947.041938	24219.276834
15.039500	-0.001771	0.000147	0.002010	-0.000229	6576.463142	46204.780811	3971.895196	24381.357696
15.537000	0.001502	-0.000274	0.000481	-0.000036	6603.467578	46143.492809	3967.092864	24371.757735
16.037500	-0.000435	-0.000009	0.003559	-0.000224	6588.115285	46188.799342	3976.220500	24381.125352
16.537500	-0.000815	0.000152	-0.002440	0.002732	6558.991374	45910.574864	3951.360701	24234.592777
17.035000	0.001585	0.000503	0.004243	-0.002872	6629.236655	46505.437298	3985.600576	24513.222742
17.535000	-0.002316	-0.000476	0.000979	0.000927	6561.635468	46027.484334	3965.799232	24323.935283
18.038500	-0.000965	0.000137	-0.000969	0.001190	6571.121890	46062.372823	3959.669168	24310.923125
18.536000	-0.000035	0.000084	-0.001622	0.001713	6574.673815	46005.038628	3956.419225	24285.008029
19.036500	-0.001416	0.000173	-0.001793	0.001252	6566.636097	46059.672731	3957.218340	24307.818352
19.536000	-0.000863	0.000804	-0.002357	0.001878	6566.005052	46060.225457	3953.937826	24276.831662
20.037000	-0.000031	0.000556	0.002321	0.001677	6575.017253	46055.567934	3967.447330	24286.756948
20.537000	-0.002455	-0.000168	0.002845	0.001212	6557.945694	46029.794391	3970.203806	24309.811163
21.037500	0.000546	0.001656	-0.000230	0.002743	6570.750438	46058.959291	3957.415937	24234.031953
21.535000	-0.000831	0.000235	-0.000167	0.001355	6570.841547	46055.633523	3961.432374	24302.720225
22.034500	-0.001502	0.000293	0.002001	0.001216	6566.205008	46075.277420	3967.839081	24309.608689
22.538500	-0.000898	0.000241	-0.000326	0.001877	6565.711665	46004.325830	3959.544592	24276.855728
23.036000	-0.001446	0.000530	0.000584	0.001363	6565.411509	46084.299714	3963.491606	24302.334623
23.536000	0.001094	0.000099	-0.001561	0.001381	6587.444911	46039.468984	3957.503314	24301.424952
24.036500	-0.000580	0.000460	-0.003425	0.001798	6569.170059	46034.000574	3951.221562	24280.798938
24.536500	0.000468	0.000110	-0.000135	0.001394	6581.855778	46039.303675	3961.411563	24300.800476
25.037000	-0.001758	0.000032	0.002063	0.001414	6562.256581	46029.575798	3967.461394	24299.794133
25.537000	-0.000716	0.000552	-0.002466	0.002187	6564.596664	46004.453401	3952.787395	24261.527604
26.035000	-0.000062	0.000318	0.000882	0.001739	6574.202161	46025.684706	3963.275229	24283.690469
26.535000	0.000228	0.001070	-0.001041	0.002265	6572.140001	46048.198491	3956.499029	24257.657066
27.038000	0.000920	0.000797	0.002735	-0.000954	6606.428133	46342.463819	3975.955425	24417.464257
27.536000	-0.000284	-0.000035	0.001304	-0.000576	6592.525237	46221.346298	3970.895403	24398.648822
28.036000	0.000512	0.000610	0.003510	0.000264	6592.134959	46201.819278	3974.713933	24356.864873
28.536500	-0.000291	0.000922	0.004570	0.000758	6580.772695	46183.690535	3976.299304	24332.316164
29.037000	-0.000013	0.000904	0.002097	0.000783	6582.991431	46179.473897	3969.314990	24331.114565
29.537000	-0.000972	0.000585	-0.003541	0.001735	6566.300070	46052.620373	3951.074298	24283.889330
30.037000	0.000666	0.001234	-0.000102	0.000907	6587.846256	46199.955965	3962.851632	24324.918193
30.537500	0.000220	0.000124	-0.000527	0.002496	6570.060300	45931.184558	3957.277917	24246.237286
31.037500	-0.002186	0.000823	-0.001029	0.003012	6544.656797	45949.331173	3954.472847	24220.749462
31.538000	-0.000023	0.000097	-0.000027	0.000878	6582.069766	46089.459535	3963.143595	24326.390309
32.035500	0.000233	0.000502	0.003756	0.000802	6584.977601	46137.392643	3973.897020	24330.160465
32.536000	-0.000175	-0.000024	-0.001638	0.004968	6545.138232	45671.831450	3947.428267	24124.399947
33.038500	-0.000146	0.001090	0.003054	0.000923	6580.606979	46184.018533	3971.596761	24324.163923
33.536000	0.000385	0.000085	-0.001981	0.002769	6569.118427	45900.224936	3952.521425	24232.761799
34.036500	-0.002292	0.000321	0.003464	0.002437	6548.732994	45956.678515	3968.516633	24249.180738
34.536500	-0.000673	0.000438	-0.003627	0.002505	6562.198378	45961.492850	3948.726633	24245.805783
35.037000	-0.001246	0.001268	-0.000067	0.003233	6550.900049	45971.683659	3956.515399	24209.873779
35.537500	-0.000242	0.000204	-0.000138	0.002289	6567.843096	45959.690256	3958.927151	24256.503325
36.037500	0.001977	0.000860	-0.000357	0.002612	6584.402339	45992.865580	3957.429467	24240.539384
36.535500	-0.001233	0.000810	0.000913	0.003363	6549.882827	45913.238409	3958.863443	24203.448225
37.035500	-0.000186	0.000352	0.000553	0.002590	6565.702426	45944.493986	3960.005611	24241.587938
37.535500	0.001884	0.000522	0.002439	0.002887	6581.172953	45931.824992	3964.411079	24226.920829
38.035500	-0.000002	0.000564	0.003358	0.002705	6566.302837	45954.173816	3967.471756	24235.925047
38.536500	-0.001817	0.000190	0.000287	0.002711	6550.466835	45916.418168	3958.933692	24235.626676
39.037000	-0.001073	0.000273	0.000494	0.002758	6556.522731	45920.000634	3959.378479	24233.321210
39.537000	0.001506	0.000808	0.002005	0.003255	6574.651334	45923.667621	3962.182877	24208.741607
40.037500	-0.000753	0.000719	0.001358	0.002888	6558.167884	45951.289811	3961.408637	24226.863799
40.538000	-0.002293	0.000138	0.000181	0.002772	6545.820810	45905.259658	3958.473430	24232.631487
41.035000	-0.000453	0.000679	0.005656	0.002502	6564.142354	45985.754792	3974.456760	24245.960185
41.535500	-0.000533	0.000762	0.003812	0.002359	6564.690145	46008.173709	3969.701387	24253.013553
42.035500	-0.000296	0.000488	0.000271	0.001258	6576.359038	46090.494308	3962.914961	24307.540495
42.535500	-0.000707	0.000977	-0.000272	0.001741	6568.560161	46091.148915	3960.073829	24283.620501
43.036500	-0.001138	0.000252	-0.000193	0.000977	6571.466317	46095.031767	3962.407896	24321.479196
43.536500	0.002618	0.001043	0.003766	-0.003067	6640.126871	46579.535926	3984.804095	24522.988570
44.037000	0.001654	0.000458	0.001305	-0.000682	6610.494498	46281.234576	3971.192323	24403.925593
44.536500	-0.000137	0.000209	0.001045	0.005100	6544.318497	45681.754372	3954.432274	24117.903584
45.040000	-0.000826	0.000534	-0.000553	-0.000664	6588.540593	46287.110546	3965.966102	24403.030516
45.535000	0.000557	0.000669	0.003724	-0.000219	6596.761517	46255.954432	3976.667610	24380.850474
46.035500	0.001297	0.000798	0.004908	0.000043	6600.962520	46242.669779	3979.256079	24367.826195
46.535500	-0.001544	0.000448	-0.002785	0.005154	6531.690537	45700.101599	3943.782528	24115.270747
47.036000	0.001730	0.001009	0.002713	0.002177	6586.039043	46050.808861	3967.145228	24262.011807
47.536000	0.000548	0.000559	0.001440	0.001954	6577.655417	46028.251314	3964.227236	24273.055402
48.080000	0.000318	0.000046	0.002236	-0.000810	6599.860218	46252.835758	3974.154727	24410.289543
48.537500	-0.002298	0.000505	-0.001415	0.005773	6519.855236	45644.594041	3945.835528	24084.875446
49.037000	0.002082	0.001366	0.000391	0.000512	6603.756371	46252.673177	3965.321240	24344.565566
49.540000	0.001870	0.001288	0.003265	-0.001990	6623.951433	46495.732107	3980.354817	24469.137238
50.037500	0.002129	0.000661	0.007148	0.001068	6599.269490	46126.669855	3982.680242	24316.938647
50.535000	-0.002420	0.000472	0.008660	0.029490	6320.233923	43365.310235	3909.105992	22952.515450
51.035500	0.035454	-0.004050	0.074400	0.540892	3971.566495	15176.525342	3170.616699	8992.913939
51.535500	-0.003665	-0.002805	-0.020780	0.156899	5413.212336	32827.954628	3560.211645	17823.263232
52.036000	-0.028516	-0.045375	-0.060545	-0.181211	8194.145566	62086.865390	4352.402097	35549.715331
52.536000	-0.009903	-0.029109	-0.025086	-0.138858	7906.275916	58631.312977	4327.292492	32504.720578
53.036500	-0.010437	-0.049860	-0.013536	-0.196349	8624.289373	63558.575932	4597.665247	36712.091495
53.536500	-0.001584	-0.038503	-0.005219	-0.180858	8535.684060	62983.209189	4567.529875	35523.093647
54.039500	0.011300	-0.020552	0.003968	-0.141370	8193.831131	60072.134431	4445.589924	32677.135217
54.537500	0.012982	-0.009967	0.010743	-0.101789	7741.625115	56374.134280	4322.819167	30072.706452
55.035000	0.023655	0.000484	0.020166	-0.067156	7475.455213	53473.523800	4234.578285	27980.697783
55.535000	0.038262	0.008964	0.035264	-0.027777	7215.254296	49994.544504	4154.296655	25796.064122
56.035500	0.047871	0.016937	0.045182	0.019854	6843.685098	45877.116878	4038.173614	23405.169938
56.536000	0.063165	0.026774	0.060332	0.024645	6943.086998	46380.315470	4069.072038	23178.852321
57.036500	0.074122	0.030229	0.072740	0.075742	6575.789260	41854.093342	3957.337804	20914.500364
57.536500	0.088554	0.038290	0.087953	0.103691	6459.537991	40106.606331	3922.679066	19784.111007
58.036500	0.106346	0.048153	0.109067	0.122494	6450.994825	39346.860889	3928.896060	19063.581638
58.540000	0.117944	0.056336	0.114853	0.145848	6353.017123	38092.648137	3882.479078	18210.979334
59.034500	0.131865	0.064481	0.134489	0.191801	6099.152149	35151.474140	3816.372109	16661.518974
59.537500	0.149088	0.073550	0.159174	0.233505	5917.369609	32810.653069	3775.704269	15390.398725
60.035000	0.167537	0.082772	0.170061	0.260601	5855.575644	31601.207235	3738.426267	14627.594192
60.535500	0.179661	0.091977	0.187778	0.283227	5782.149941	30725.174885	3727.408369	14026.082432
61.035500	0.191610	0.099230	0.202621	0.308307	5692.810320	29602.715796	3704.826899	13394.950346
61.536000	0.207524	0.108205	0.220710	0.332298	5639.183226	28692.299050	3692.047069	12824.392098
62.036000	0.219661	0.114002	0.234846	0.353972	5577.139896	27763.430158	3675.979444	12335.373256
62.536500	0.233471	0.123589	0.248471	0.370033	5562.692469	27394.255772	3670.844818	11988.389722
63.039500	0.245583	0.132317	0.261827	0.392454	5497.479835	26631.402403	3651.991264	11524.999366
63.537000	0.256850	0.137252	0.277989	0.417498	5412.703973	25553.789333	3633.896786	11034.906826
64.037500	0.265948	0.142763	0.286727	0.418959	5459.365216	25766.807654	3648.694827	11007.174775
64.535000	0.277541	0.149339	0.296651	0.428870	5469.745388	25591.197152	3648.720820	10821.511303
65.035000	0.277580	0.153582	0.295407	0.437976	5414.226939	25337.640856	3627.748837	10654.638538
65.537500	0.282932	0.157507	0.300183	0.425242	5526.137923	26218.368009	3663.526452	10888.992952
66.035500	0.289653	0.162680	0.298427	0.417099	5621.669461	26947.050154	3676.938664	11042.492170
66.535500	0.294667	0.165991	0.303838	0.420897	5629.626989	26920.015701	3680.358851	10970.541110
67.036500	0.296783	0.165260	0.308386	0.424121	5622.368146	26701.463508	3683.173320	10909.943114
67.539500	0.299694	0.168257	0.317215	0.427286	5620.716669	26692.273873	3695.317221	10850.913253
68.037000	0.303383	0.169034	0.318809	0.433186	5606.296120	26412.223784	3686.069674	10741.983841
68.537000	0.302081	0.170910	0.316372	0.440945	5547.995827	26094.737055	3664.539466	10600.977138
69.037500	0.306016	0.174086	0.321446	0.450085	5515.048788	25777.195394	3656.092084	10438.067043
69.535000	0.310280	0.174208	0.324920	0.451380	5533.794849	25715.271206	3660.608374	10415.264244
70.035500	0.312253	0.175500	0.324544	0.456839	5511.798009	25496.633027	3648.565293	10319.885884
70.538500	0.311922	0.177768	0.331805	0.466641	5448.855841	25106.534771	3643.369954	10151.581582
71.036000	0.312871	0.178889	0.328839	0.472398	5419.499265	24869.862038	3625.767222	10054.492355
71.536000	0.318484	0.178938	0.332967	0.473230	5448.690125	24830.133634	3632.378136	10040.573054
72.039000	0.318276	0.180593	0.336640	0.478462	5415.497181	24649.521606	3629.244576	9953.598076
72.536500	0.318452	0.182295	0.338387	0.487048	5365.002533	24306.157604	3615.633717	9813.149249
73.037000	0.319003	0.182151	0.337922	0.491936	5339.342106	24058.619699	3605.130701	9734.419613
73.537500	0.323894	0.185148	0.341652	0.492458	5365.199970	24180.048263	3611.410732	9726.071697
74.034000	0.326596	0.186523	0.339892	0.496531	5357.056221	24047.717796	3600.026354	9661.222526
74.535000	0.322354	0.184400	0.345529	0.500216	5310.491028	23765.641502	3603.818668	9603.059950
75.035500	0.325027	0.185879	0.342819	0.506759	5288.061172	23522.744438	3585.990831	9501.019239
75.535500	0.329795	0.185751	0.346789	0.503834	5332.840793	23656.558107	3599.239185	9546.447637
76.036000	0.331082	0.187297	0.348946	0.508459	5313.313931	23509.335364	3594.474655	9474.760204
76.539000	0.331183	0.187433	0.350902	0.514599	5278.372817	23225.225962	3586.455000	9380.762546
77.036000	0.325623	0.186934	0.349157	0.517096	5232.496575	23084.915445	3578.404172	9342.912512
77.536500	0.332790	0.189634	0.357080	0.516962	5274.029567	23217.611356	3593.763898	9344.933750
78.037000	0.334026	0.189487	0.350532	0.518228	5273.858465	23151.351145	3578.864055	9325.825632
78.537500	0.332821	0.190279	0.355200	0.522965	5240.000731	22967.435468	3578.732576	9254.791132
79.034500	0.330744	0.190835	0.349131	0.528261	5198.634493	22748.716063	3557.538346	9176.308697
79.535000	0.334068	0.190890	0.355125	0.524172	5240.227367	22939.814488	3576.314059	9236.822801
80.035500	0.337054	0.193291	0.360137	0.527582	5237.827451	22893.060972	3579.337158	9186.309695
80.536000	0.336292	0.192591	0.356680	0.528388	5228.980670	22823.547081	3571.314509	9174.426433
81.038500	0.336710	0.193095	0.356499	0.536079	5188.351309	22495.195510	3556.708883	9062.165349
81.536500	0.339826	0.193913	0.358071	0.532085	5228.057226	22714.424245	3567.009190	9120.209923
82.036500	0.341767	0.195267	0.360191	0.534571	5224.999139	22662.693832	3566.327886	9084.025122
82.537000	0.339707	0.194481	0.359060	0.535096	5210.503786	22602.841864	3563.251958	9076.405217
83.037000	0.339948	0.195811	0.363829	0.543113	5167.415466	22300.520423	3557.253372	8961.221501
83.537000	0.342369	0.194298	0.359103	0.536490	5217.598692	22531.098758	3560.752002	9056.221086
84.035000	0.342546	0.195538	0.363615	0.538826	5205.525193	22481.461549	3564.784809	9022.552411
84.535500	0.344456	0.195949	0.359078	0.539227	5213.954966	22481.870921	3555.663267	9016.778918
85.035500	0.341899	0.196369	0.357204	0.545813	5163.301372	22204.606636	3540.277394	8922.892403
85.538500	0.342881	0.197402	0.362248	0.542353	5187.781481	22406.228007	3555.742984	8972.037984
86.036500	0.344631	0.197197	0.357641	0.542208	5198.299997	22403.575156	3547.592299	8974.114480
86.536500	0.345565	0.196906	0.367968	0.542977	5199.216573	22355.781831	3565.157918	8963.146902
87.037500	0.341297	0.197481	0.362633	0.549150	5141.810029	22105.559929	3544.054232	8875.867870
87.537000	0.343964	0.196829	0.367241	0.544041	5184.433762	22304.522607	3561.836762	8948.017188
88.037000	0.348016	0.199677	0.371224	0.546493	5193.301838	22322.339867	3564.675347	8913.291059
88.535000	0.345566	0.197001	0.366647	0.544355	5191.566564	22298.151718	3560.158678	8943.564082
89.034500	0.344328	0.199094	0.369968	0.553201	5136.275443	21997.569498	3550.020284	8819.260880
89.535500	0.347348	0.199023	0.369821	0.547666	5183.102995	22240.422195	3559.906152	8896.743855
90.038500	0.348445	0.199683	0.366644	0.548250	5185.940769	22243.846200	3552.992379	8888.520233
90.536000	0.345768	0.199570	0.372496	0.548043	5172.303691	22248.005965	3564.158280	8891.423977
91.036500	0.346713	0.197545	0.364796	0.553802	5145.964440	21902.822120	3539.564761	8810.912154
91.536500	0.347947	0.199831	0.367135	0.549766	5174.816703	22182.745755	3551.118574	8867.230517
92.037000	0.346618	0.199524	0.368280	0.549778	5167.442937	22168.507756	3553.190647	8867.061917
92.537000	0.349079	0.200108	0.366950	0.550447	5177.300565	22164.698128	3549.538763	8857.683049
93.034000	0.348703	0.199496	0.369509	0.550374	5175.636390	22140.715278	3554.350477	8858.713549
93.535000	0.353402	0.201254	0.374477	0.552205	5191.486176	22137.457057	3560.120205	8833.122755
94.035000	0.351910	0.200447	0.369681	0.552781	5180.046588	22076.026343	3550.261380	8825.101125
94.538500	0.348905	0.199351	0.369376	0.553185	5161.300725	22009.605034	3548.970984	8819.481042
95.035500	0.346242	0.199356	0.366920	0.556967	5126.259362	21843.408876	3537.692230	8767.103056
95.535500	0.351686	0.200791	0.372627	0.552941	5177.928102	22084.199460	3555.360632	8822.878407
96.036500	0.349810	0.201218	0.378388	0.553535	5164.343890	22076.796361	3564.902621	8814.621515
96.537000	0.349381	0.199955	0.371325	0.555389	5151.855311	21939.026689	3548.506660	8788.901316
97.037000	0.349717	0.200680	0.366239	0.559619	5130.703405	21785.286662	3531.732185	8730.645186
97.537000	0.352813	0.201252	0.374529	0.554971	5172.951287	22014.687639	3555.125991	8794.694032
98.036500	0.347528	0.200143	0.367817	0.553778	5150.533536	22018.423786	3545.061462	8811.241206
