sample name	sample
index	492
start time	 03-11-2021  02:17:08 PM


Wavelength (nm)	Absorbance
494.344910	-0.017239
494.563924	-0.017239
494.782919	-0.017239
495.001897	-0.543030
495.220856	0.188552
495.439797	0.161401
495.658719	0.236755
495.877624	0.155174
496.096510	NaN
496.315378	NaN
496.534227	0.575470
496.753059	0.326127
496.971872	0.261653
497.190667	0.174432
497.409444	0.180415
497.628203	0.183202
497.846943	0.183235
498.065665	0.183861
498.284369	0.183168
498.503055	0.184115
498.721723	0.184904
498.940372	0.184875
499.159003	0.185425
499.377616	0.184860
499.596210	0.184426
499.814787	0.183849
500.033345	0.183153
500.251885	0.183772
500.470406	0.183527
500.688910	0.183146
500.907395	0.183025
501.125862	0.182426
501.344311	0.183389
501.562742	0.182945
501.781154	0.184278
501.999548	0.184624
502.217924	0.184975
502.436282	0.185262
502.654621	0.186638
502.872942	0.186356
503.091245	0.187313
503.309530	0.187980
503.527797	0.188828
503.746045	0.189759
503.964275	0.189941
504.182487	0.189912
504.400681	0.189295
504.618856	0.188781
504.837013	0.189240
505.055152	0.188867
505.273273	0.189157
505.491376	0.188889
505.709460	0.187974
505.927526	0.187536
506.145574	0.187297
506.363604	0.187338
506.581615	0.188603
506.799608	0.188677
507.017583	0.189001
507.235540	0.188885
507.453478	0.188572
507.671399	0.188919
507.889301	0.188895
508.107185	0.189568
508.325050	0.190694
508.542898	0.189618
508.760727	0.189596
508.978538	0.189684
509.196330	0.189338
509.414105	0.189575
509.631861	0.190123
509.849599	0.191120
510.067319	0.190975
510.285021	0.191083
510.502704	0.191642
510.720369	0.191474
510.938016	0.190827
511.155645	0.190690
511.373255	0.192124
511.590848	0.192203
511.808422	0.192556
512.025977	0.192080
512.243515	0.192519
512.461034	0.192609
512.678536	0.193141
512.896018	0.194728
513.113483	0.196559
513.330930	0.195415
513.548358	0.195397
513.765768	0.195608
513.983160	0.196822
514.200533	0.197345
514.417889	0.196671
514.635226	0.197371
514.852545	0.196598
515.069845	0.195968
515.287128	0.196841
515.504392	0.197013
515.721638	0.196749
515.938866	0.195818
516.156075	0.195682
516.373267	0.196640
516.590440	0.197165
516.807594	0.197213
517.024731	0.197171
517.241850	0.197874
517.458950	0.198117
517.676032	0.198271
517.893095	0.199693
518.110141	0.199184
518.327168	0.199618
518.544177	0.199555
518.761168	0.200225
518.978141	0.200120
519.195095	0.200239
519.412031	0.200705
519.628949	0.200705
519.845849	0.200960
520.062731	0.201712
520.279594	0.200857
520.496439	0.200689
520.713266	0.200532
520.930074	0.201362
521.146865	0.201804
521.363637	0.202565
521.580391	0.203692
521.797127	0.203570
522.013844	0.203773
522.230543	0.205158
522.447224	0.205514
522.663887	0.206778
522.880532	0.206356
523.097158	0.205862
523.313766	0.205944
523.530356	0.206229
523.746928	0.206033
523.963481	0.206089
524.180017	0.205817
524.396534	0.206624
524.613032	0.205340
524.829513	0.205660
525.045975	0.205721
525.262420	0.205227
525.478845	0.205488
525.695253	0.205513
525.911643	0.205630
526.128014	0.205785
526.344367	0.205731
526.560702	0.206643
526.777018	0.206801
526.993316	0.207155
527.209597	0.207303
527.425858	0.207082
527.642102	0.208050
527.858328	0.208531
528.074535	0.208993
528.290724	0.208896
528.506894	0.209898
528.723047	0.210836
528.939181	0.210833
529.155297	0.211592
529.371395	0.212828
529.587475	0.212605
529.803536	0.212595
530.019579	0.213270
530.235604	0.213497
530.451611	0.213306
530.667600	0.213052
530.883570	0.214271
531.099522	0.214404
531.315456	0.214050
531.531372	0.215033
531.747269	0.216029
531.963148	0.216501
532.179009	0.217413
532.394852	0.217808
532.610676	0.219095
532.826482	0.219657
533.042271	0.220255
533.258040	0.220996
533.473792	0.221000
533.689525	0.220840
533.905240	0.220832
534.120937	0.221083
534.336616	0.221032
534.552277	0.220953
534.767919	0.220643
534.983543	0.220360
535.199149	0.221287
535.414736	0.221689
535.630306	0.222309
535.845857	0.222295
536.061390	0.222441
536.276904	0.223309
536.492401	0.223442
536.707879	0.224065
536.923339	0.224747
537.138781	0.223943
537.354204	0.224244
537.569610	0.224405
537.784997	0.225093
538.000366	0.225415
538.215716	0.225955
538.431049	0.226173
538.646363	0.226525
538.861659	0.227326
539.076937	0.227768
539.292196	0.227991
539.507438	0.228004
539.722661	0.228150
539.937866	0.228191
540.153052	0.228548
540.368221	0.228957
540.583371	0.229693
540.798503	0.229673
541.013617	0.230284
541.228712	0.230638
541.443789	0.231247
541.658848	0.231189
541.873889	0.231623
542.088912	0.232023
542.303916	0.232188
542.518902	0.231208
542.733870	0.230838
542.948820	0.230574
543.163752	0.231143
543.378665	0.231508
543.593560	0.232051
543.808437	0.232469
544.023295	0.232325
544.238136	0.232507
544.452958	0.233306
544.667762	0.234124
544.882548	0.234588
545.097315	0.234528
545.312064	0.235137
545.526795	0.235423
545.741508	0.236076
545.956203	0.236517
546.170879	0.236767
546.385537	0.237254
546.600177	0.237280
546.814799	0.237921
547.029402	0.238103
547.243988	0.237908
547.458555	0.238361
547.673103	0.238640
547.887634	0.238466
548.102146	0.238783
548.316640	0.239229
548.531116	0.239753
548.745574	0.240257
548.960013	0.240373
549.174435	0.240536
549.388838	0.240751
549.603222	0.240986
549.817589	0.241188
550.031937	0.241720
550.246267	0.241690
550.460579	0.241963
550.674873	0.241502
550.889148	0.241732
551.103405	0.242226
551.317644	0.242102
551.531865	0.241879
551.746068	0.242090
551.960252	0.242416
552.174418	0.242567
552.388566	0.242990
552.602696	0.243607
552.816807	0.243999
553.030900	0.244266
553.244975	0.244773
553.459032	0.245001
553.673070	0.245369
553.887091	0.245585
554.101093	0.245992
554.315077	0.246414
554.529042	0.246693
554.742990	0.246985
554.956919	0.246786
555.170830	0.246871
555.384722	0.247172
555.598597	0.247874
555.812453	0.248099
556.026291	0.248923
556.240111	0.248775
556.453913	0.248420
556.667696	0.248820
556.881461	0.249374
557.095208	0.250204
557.308937	0.250747
557.522647	0.250961
557.736339	0.251112
557.950013	0.250574
558.163669	0.250496
558.377307	0.251198
558.590926	0.251373
558.804527	0.252029
559.018110	0.251933
559.231675	0.251759
559.445221	0.251759
559.658749	0.251627
559.872259	0.252241
560.085751	0.252781
560.299225	0.252890
560.512680	0.253279
560.726117	0.253076
560.939536	0.253173
561.152937	0.253400
561.366319	0.253261
561.579683	0.253610
561.793029	0.253372
562.006357	0.253455
562.219667	0.253665
562.432958	0.253265
562.646231	0.253527
562.859486	0.253611
563.072723	0.254324
563.285941	0.254880
563.499141	0.255150
563.712323	0.255912
563.925487	0.256284
564.138632	0.256312
564.351760	0.257264
564.564869	0.257816
564.777960	0.258628
564.991032	0.258317
565.204087	0.258762
565.417123	0.259421
565.630141	0.259231
565.843140	0.259596
566.056122	0.259857
566.269085	0.259912
566.482030	0.260006
566.694957	0.259730
566.907866	0.260072
567.120756	0.259717
567.333628	0.260127
567.546482	0.260441
567.759318	0.260287
567.972135	0.260657
568.184935	0.260712
568.397716	0.260799
568.610478	0.261226
568.823223	0.261798
569.035949	0.262568
569.248657	0.262181
569.461347	0.262024
569.674019	0.262321
569.886672	0.262519
570.099308	0.263215
570.311925	0.263305
570.524523	0.263051
570.737104	0.262843
570.949666	0.262946
571.162210	0.263221
571.374736	0.263682
571.587244	0.264090
571.799733	0.264765
572.012205	0.264208
572.224658	0.264321
572.437092	0.264872
572.649509	0.265298
572.861907	0.265150
573.074287	0.265032
573.286649	0.264853
573.498993	0.264947
573.711318	0.264631
573.923625	0.265080
574.135914	0.265497
574.348185	0.266066
574.560438	0.265944
574.772672	0.266465
574.984888	0.266975
575.197086	0.267862
575.409266	0.268302
575.621427	0.268457
575.833570	0.268473
576.045695	0.268404
576.257802	0.268411
576.469890	0.268598
576.681961	0.268447
576.894013	0.268671
577.106046	0.268746
577.318062	0.268375
577.530059	0.268362
577.742039	0.269034
577.954000	0.269121
578.165942	0.269355
578.377867	0.269994
578.589773	0.270848
578.801661	0.271196
579.013531	0.271296
579.225382	0.271676
579.437216	0.272383
579.649031	0.272404
579.860828	0.273097
580.072606	0.272909
580.284367	0.273790
580.496109	0.273718
580.707833	0.273565
580.919539	0.273757
581.131227	0.274180
581.342896	0.274317
581.554547	0.274485
581.766180	0.274413
581.977795	0.274903
582.189391	0.274194
582.400969	0.274432
582.612529	0.274953
582.824071	0.275006
583.035595	0.275610
583.247100	0.275151
583.458587	0.275211
583.670056	0.275367
583.881506	0.275415
584.092939	0.275392
584.304353	0.275924
584.515749	0.276374
584.727127	0.276860
584.938486	0.276642
585.149828	0.277594
585.361151	0.277889
585.572456	0.278121
585.783742	0.278259
585.995011	0.278756
586.206261	0.278107
586.417493	0.277920
586.628706	0.277570
586.839902	0.277992
587.051079	0.277771
587.262238	0.278109
587.473379	0.278404
587.684502	0.278741
587.895606	0.279312
588.106692	0.280242
588.317760	0.280663
588.528810	0.281611
588.739841	0.281524
588.950855	0.281864
589.161850	0.282245
589.372827	0.282514
589.583785	0.282761
589.794726	0.282857
590.005648	0.282715
590.216552	0.282771
590.427437	0.283073
590.638305	0.283155
590.849154	0.283482
591.059985	0.283801
591.270798	0.283769
591.481592	0.284001
591.692369	0.283859
591.903127	0.283901
592.113867	0.283941
592.324588	0.283349
592.535292	0.283694
592.745977	0.283830
592.956644	0.283329
593.167293	0.283817
593.377923	0.283865
593.588536	0.284227
593.799130	0.284853
594.009706	0.285320
594.220263	0.285788
594.430803	0.285787
594.641324	0.286012
594.851827	0.286634
595.062312	0.286914
595.272778	0.287446
595.483227	0.287627
595.693657	0.287446
595.904069	0.287461
596.114462	0.287870
596.324838	0.288401
596.535195	0.288811
596.745534	0.289133
596.955855	0.288964
597.166157	0.288917
597.376441	0.289360
597.586707	0.289603
597.796955	0.289913
598.007185	0.289890
598.217396	0.290014
598.427589	0.289978
598.637764	0.289911
598.847921	0.290306
599.058060	0.290495
599.268180	0.290659
599.478282	0.291104
599.688366	0.291311
599.898431	0.291623
600.108479	0.291984
600.318508	0.292215
600.528519	0.292557
600.738511	0.292932
600.948486	0.292922
601.158442	0.292993
601.368380	0.292684
601.578300	0.292793
601.788202	0.293384
601.998085	0.293670
602.207950	0.293900
602.417797	0.294125
602.627626	0.294085
602.837436	0.294277
603.047228	0.294366
603.257002	0.294908
603.466758	0.295013
603.676496	0.295069
603.886215	0.295058
604.095916	0.295329
604.305599	0.295429
604.515264	0.295592
604.724910	0.295812
604.934538	0.296152
605.144148	0.296481
605.353740	0.296989
605.563314	0.296863
605.772869	0.297023
605.982406	0.297153
606.191925	0.297282
606.401425	0.297657
606.610908	0.297969
606.820372	0.298180
607.029818	0.298159
607.239246	0.298335
607.448655	0.298765
607.658047	0.298980
607.867420	0.299182
608.076775	0.299544
608.286111	0.299445
608.495430	0.299398
608.704730	0.299284
608.914012	0.299200
609.123275	0.299089
609.332521	0.299171
609.541748	0.299318
609.750957	0.299321
609.960148	0.299409
610.169321	0.299737
610.378475	0.299957
610.587611	0.299735
610.796729	0.300080
611.005829	0.300321
611.214910	0.300174
611.423974	0.300158
611.633019	0.300494
611.842045	0.300311
612.051054	0.300191
612.260044	0.300440
612.469017	0.301108
612.677970	0.301174
612.886906	0.301277
613.095824	0.301546
613.304723	0.301451
613.513604	0.301560
613.722467	0.301994
613.931311	0.302610
614.140138	0.302608
614.348946	0.302757
614.557736	0.302831
614.766507	0.302863
614.975261	0.302988
615.183996	0.303501
615.392713	0.303537
615.601412	0.303752
615.810092	0.304151
616.018754	0.304722
616.227399	0.304778
616.436024	0.305218
616.644632	0.305484
616.853222	0.305930
617.061793	0.306146
617.270346	0.306330
617.478880	0.306384
617.687397	0.306097
617.895895	0.306020
618.104375	0.306264
618.312837	0.306395
618.521281	0.306753
618.729706	0.306963
618.938113	0.307344
619.146502	0.307627
619.354873	0.307660
619.563226	0.307864
619.771560	0.308287
619.979876	0.308503
620.188174	0.308796
620.396453	0.308948
620.604715	0.309007
620.812958	0.309011
621.021183	0.309285
621.229390	0.309655
621.437578	0.309716
621.645748	0.309637
621.853900	0.309697
622.062034	0.309697
622.270150	0.309657
622.478247	0.309767
622.686326	0.309873
622.894387	0.309834
623.102430	0.310128
623.310454	0.310089
623.518461	0.310416
623.726449	0.310773
623.934418	0.311063
624.142370	0.311250
624.350303	0.311325
624.558218	0.311499
624.766115	0.311203
624.973994	0.311221
625.181855	0.311993
625.389697	0.312310
625.597521	0.312326
625.805327	0.312804
626.013114	0.313108
626.220883	0.313404
626.428634	0.313491
626.636367	0.313994
626.844082	0.314150
627.051778	0.314158
627.259457	0.314083
627.467117	0.314556
627.674758	0.314563
627.882382	0.314747
628.089987	0.315118
628.297574	0.315606
628.505143	0.316152
628.712694	0.316495
628.920226	0.316558
629.127740	0.317011
629.335236	0.316835
629.542714	0.316944
629.750174	0.317262
629.957615	0.317185
630.165038	0.317287
630.372443	0.317130
630.579829	0.317430
630.787198	0.317693
630.994548	0.317784
631.201880	0.317845
631.409194	0.317788
631.616489	0.318053
631.823766	0.318478
632.031025	0.318616
632.238266	0.319138
632.445489	0.319347
632.652693	0.319338
632.859879	0.319520
633.067047	0.319981
633.274197	0.320383
633.481329	0.320722
633.688442	0.320836
633.895537	0.321052
634.102614	0.320886
634.309672	0.320884
634.516713	0.321306
634.723735	0.321192
634.930739	0.321725
635.137724	0.321900
635.344692	0.321739
635.551641	0.322014
635.758572	0.322175
635.965485	0.322355
636.172379	0.322662
636.379256	0.322697
636.586114	0.323171
636.792954	0.323110
636.999775	0.322871
637.206579	0.323136
637.413364	0.323131
637.620131	0.323345
637.826880	0.323911
638.033610	0.324045
638.240323	0.324334
638.447017	0.324295
638.653692	0.324457
638.860350	0.324991
639.066990	0.325127
639.273611	0.325316
639.480214	0.325412
639.686798	0.325298
639.893365	0.325567
640.099913	0.325630
640.306443	0.325940
640.512955	0.326315
640.719449	0.326450
640.925924	0.326754
641.132381	0.326794
641.338820	0.326802
641.545241	0.327112
641.751644	0.327225
641.958028	0.327616
642.164394	0.327822
642.370742	0.327990
642.577071	0.328319
642.783383	0.328588
642.989676	0.328804
643.195951	0.329106
643.402207	0.329066
643.608446	0.329033
643.814666	0.328908
644.020868	0.329100
644.227052	0.329256
644.433218	0.329299
644.639365	0.329315
644.845494	0.329791
645.051605	0.330015
645.257698	0.330298
645.463772	0.330592
645.669828	0.331138
645.875866	0.331368
646.081886	0.331515
646.287888	0.331832
646.493871	0.332079
646.699836	0.332004
646.905783	0.332066
647.111712	0.332359
647.317622	0.332420
647.523514	0.332563
647.729388	0.332957
647.935244	0.332983
648.141082	0.333551
648.346901	0.333609
648.552702	0.333693
648.758485	0.334074
648.964250	0.334198
649.169996	0.334716
649.375724	0.334743
649.581434	0.334395
649.787126	0.334699
649.992800	0.334574
650.198455	0.334834
650.404092	0.335298
650.609711	0.335328
650.815311	0.335836
651.020894	0.336025
651.226458	0.336158
651.432004	0.336925
651.637532	0.337111
651.843041	0.337509
652.048532	0.337637
652.254006	0.337808
652.459460	0.338221
652.664897	0.338122
652.870315	0.338316
653.075716	0.338565
653.281097	0.338412
653.486461	0.338635
653.691807	0.338577
653.897134	0.339064
654.102443	0.339293
654.307734	0.339318
654.513006	0.339637
654.718261	0.339955
654.923497	0.340485
655.128715	0.340975
655.333915	0.341430
655.539096	0.341675
655.744259	0.341678
655.949404	0.342120
656.154531	0.342437
656.359640	0.342973
656.564730	0.343105
656.769802	0.343212
656.974856	0.343370
657.179892	0.343425
657.384909	0.343817
657.589908	0.344190
657.794889	0.344314
657.999852	0.344754
658.204797	0.344940
658.409723	0.345351
658.614631	0.345621
658.819521	0.345838
659.024393	0.345788
659.229246	0.346041
659.434081	0.346308
659.638898	0.346478
659.843697	0.346559
660.048478	0.346640
660.253240	0.346381
660.457984	0.346548
660.662710	0.346615
660.867417	0.346912
661.072107	0.347108
661.276778	0.346795
661.481431	0.347036
661.686066	0.347006
661.890682	0.347128
662.095281	0.347644
662.299861	0.347954
662.504422	0.348506
662.708966	0.348850
662.913491	0.349016
663.117999	0.349511
663.322488	0.349879
663.526958	0.350348
663.731411	0.350867
663.935845	0.351204
664.140261	0.351494
664.344659	0.351610
664.549038	0.351747
664.753400	0.351649
664.957743	0.351997
665.162068	0.352246
665.366375	0.352685
665.570663	0.352759
665.774933	0.352628
665.979185	0.352440
666.183419	0.352304
666.387635	0.352496
666.591832	0.352919
666.796011	0.352988
667.000172	0.352854
667.204315	0.352810
667.408439	0.352899
667.612545	0.353350
667.816634	0.353771
668.020703	0.354409
668.224755	0.354617
668.428788	0.354965
668.632803	0.355377
668.836800	0.355663
669.040779	0.356192
669.244739	0.356371
669.448681	0.356601
669.652605	0.356757
669.856511	0.356830
670.060399	0.357153
670.264268	0.357315
670.468119	0.357509
670.671952	0.357822
670.875767	0.357893
671.079563	0.358139
671.283341	0.358392
671.487101	0.358763
671.690843	0.358992
671.894567	0.359164
672.098272	0.359347
672.301959	0.359457
672.505628	0.359298
672.709278	0.359743
672.912911	0.360098
673.116525	0.360197
673.320121	0.360330
673.523699	0.360439
673.727258	0.360578
673.930799	0.360904
674.134322	0.361333
674.337827	0.362206
674.541314	0.362113
674.744782	0.362505
674.948232	0.362707
675.151664	0.363034
675.355078	0.363354
675.558474	0.363817
675.761851	0.364223
675.965210	0.364112
676.168551	0.363991
676.371873	0.364318
676.575178	0.364578
676.778464	0.364993
676.981732	0.365031
677.184981	0.365314
677.388213	0.365406
677.591426	0.365382
677.794621	0.365963
677.997798	0.366286
678.200956	0.366719
678.404097	0.366845
678.607219	0.367055
678.810323	0.367327
679.013408	0.367659
679.216476	0.368000
679.419525	0.368445
679.622556	0.368746
679.825569	0.369152
680.028563	0.369283
680.231540	0.369617
680.434498	0.369806
680.637438	0.370419
680.840359	0.370524
681.043263	0.370873
681.246148	0.370908
681.449015	0.371085
681.651864	0.371373
681.854694	0.371385
682.057506	0.371394
682.260301	0.371833
682.463076	0.371789
682.665834	0.372164
682.868573	0.372361
683.071295	0.372643
683.273998	0.372824
683.476682	0.372884
683.679349	0.373064
683.881997	0.373407
684.084627	0.373484
684.287239	0.373701
684.489833	0.373868
684.692408	0.373910
684.894965	0.374251
685.097504	0.374483
685.300025	0.374583
685.502527	0.374930
685.705012	0.374970
685.907478	0.375062
686.109925	0.375406
686.312355	0.375584
686.514766	0.376050
686.717159	0.376148
686.919534	0.376450
687.121891	0.376897
687.324230	0.377273
687.526550	0.377516
687.728852	0.377714
687.931136	0.377755
688.133401	0.378170
688.335649	0.378386
688.537878	0.378633
688.740089	0.378942
688.942281	0.378971
689.144456	0.378824
689.346612	0.378895
689.548750	0.379049
689.750870	0.379375
689.952971	0.379357
690.155055	0.379468
690.357120	0.379635
690.559167	0.379787
690.761195	0.380161
690.963206	0.380770
691.165198	0.381131
691.367172	0.381577
691.569128	0.381629
691.771065	0.381937
691.972984	0.381979
692.174885	0.382258
692.376768	0.382381
692.578633	0.382375
692.780479	0.382343
692.982308	0.382712
693.184118	0.382798
693.385909	0.382966
