sample name	sample
index	1345
start time	 05-03-2021  12:51:35 PM


Wavelength (nm)	Absorbance
494.344910	-0.287354
494.563924	-0.287354
494.782919	-0.287354
495.001897	0.719341
495.220856	-0.066363
495.439797	-0.080814
495.658719	0.019153
495.877624	0.076485
496.096510	0.173702
496.315378	0.171470
496.534227	0.129652
496.753059	0.374454
496.971872	0.312720
497.190667	0.096378
497.409444	0.081954
497.628203	0.071977
497.846943	0.068902
498.065665	0.067672
498.284369	0.070053
498.503055	0.069404
498.721723	0.067709
498.940372	0.067042
499.159003	0.068186
499.377616	0.067988
499.596210	0.068231
499.814787	0.068025
500.033345	0.066896
500.251885	0.064886
500.470406	0.064032
500.688910	0.063667
500.907395	0.064314
501.125862	0.062337
501.344311	0.061494
501.562742	0.060043
501.781154	0.060190
501.999548	0.060780
502.217924	0.060010
502.436282	0.060168
502.654621	0.060903
502.872942	0.059974
503.091245	0.060713
503.309530	0.061490
503.527797	0.063085
503.746045	0.062921
503.964275	0.063065
504.182487	0.064455
504.400681	0.063501
504.618856	0.063618
504.837013	0.063839
505.055152	0.063592
505.273273	0.063144
505.491376	0.063599
505.709460	0.064118
505.927526	0.062349
506.145574	0.061095
506.363604	0.061492
506.581615	0.061125
506.799608	0.060478
507.017583	0.060226
507.235540	0.059885
507.453478	0.059930
507.671399	0.060508
507.889301	0.062298
508.107185	0.062561
508.325050	0.063701
508.542898	0.062683
508.760727	0.063446
508.978538	0.063721
509.196330	0.064280
509.414105	0.064006
509.631861	0.063212
509.849599	0.062215
510.067319	0.062912
510.285021	0.063439
510.502704	0.064305
510.720369	0.063413
510.938016	0.063862
511.155645	0.064493
511.373255	0.065692
511.590848	0.065796
511.808422	0.066475
512.025977	0.065658
512.243515	0.065416
512.461034	0.065800
512.678536	0.066272
512.896018	0.064504
513.113483	0.063610
513.330930	0.061958
513.548358	0.061744
513.765768	0.061666
513.983160	0.062475
514.200533	0.061603
514.417889	0.061732
514.635226	0.062811
514.852545	0.064003
515.069845	0.064680
515.287128	0.065408
515.504392	0.065460
515.721638	0.065437
515.938866	0.065948
516.156075	0.065779
516.373267	0.065568
516.590440	0.064586
516.807594	0.064744
517.024731	0.064256
517.241850	0.063615
517.458950	0.063666
517.676032	0.063477
517.893095	0.062469
518.110141	0.062909
518.327168	0.062148
518.544177	0.062618
518.761168	0.063003
518.978141	0.062739
519.195095	0.063303
519.412031	0.063880
519.628949	0.063642
519.845849	0.063497
520.062731	0.063100
520.279594	0.064851
520.496439	0.064506
520.713266	0.063971
520.930074	0.063975
521.146865	0.064164
521.363637	0.063816
521.580391	0.064298
521.797127	0.065109
522.013844	0.065665
522.230543	0.064710
522.447224	0.064330
522.663887	0.064465
522.880532	0.064507
523.097158	0.063305
523.313766	0.063322
523.530356	0.062529
523.746928	0.061927
523.963481	0.061457
524.180017	0.061634
524.396534	0.062489
524.613032	0.062462
524.829513	0.062538
525.045975	0.062794
525.262420	0.062790
525.478845	0.063905
525.695253	0.064847
525.911643	0.065389
526.128014	0.065631
526.344367	0.065335
526.560702	0.065877
526.777018	0.066180
526.993316	0.066625
527.209597	0.066504
527.425858	0.066312
527.642102	0.065598
527.858328	0.065669
528.074535	0.066182
528.290724	0.066391
528.506894	0.066907
528.723047	0.066774
528.939181	0.066897
529.155297	0.067193
529.371395	0.066874
529.587475	0.067400
529.803536	0.067447
530.019579	0.066635
530.235604	0.066534
530.451611	0.066351
530.667600	0.067216
530.883570	0.067554
531.099522	0.067629
531.315456	0.067898
531.531372	0.067651
531.747269	0.067615
531.963148	0.067785
532.179009	0.068043
532.394852	0.067233
532.610676	0.066542
532.826482	0.066791
533.042271	0.066531
533.258040	0.066801
533.473792	0.066895
533.689525	0.067379
533.905240	0.067680
534.120937	0.067102
534.336616	0.067404
534.552277	0.068151
534.767919	0.068336
534.983543	0.069354
535.199149	0.069369
535.414736	0.070098
535.630306	0.069617
535.845857	0.070313
536.061390	0.070954
536.276904	0.071204
536.492401	0.070614
536.707879	0.070620
536.923339	0.070187
537.138781	0.070390
537.354204	0.069393
537.569610	0.069653
537.784997	0.069383
538.000366	0.069626
538.215716	0.069840
538.431049	0.070357
538.646363	0.070306
538.861659	0.070777
539.076937	0.070976
539.292196	0.071967
539.507438	0.071858
539.722661	0.072223
539.937866	0.072281
540.153052	0.072053
540.368221	0.072342
540.583371	0.072385
540.798503	0.072213
541.013617	0.072252
541.228712	0.072083
541.443789	0.073202
541.658848	0.072797
541.873889	0.072694
542.088912	0.073361
542.303916	0.073378
542.518902	0.073412
542.733870	0.073448
542.948820	0.073413
543.163752	0.073526
543.378665	0.072877
543.593560	0.073161
543.808437	0.073606
544.023295	0.072987
544.238136	0.073128
544.452958	0.073420
544.667762	0.073733
544.882548	0.073622
545.097315	0.073794
545.312064	0.074007
545.526795	0.073927
545.741508	0.073834
545.956203	0.074513
546.170879	0.074248
546.385537	0.074332
546.600177	0.074701
546.814799	0.074899
547.029402	0.074488
547.243988	0.074359
547.458555	0.074635
547.673103	0.074819
547.887634	0.074414
548.102146	0.074251
548.316640	0.074284
548.531116	0.073643
548.745574	0.073832
548.960013	0.074156
549.174435	0.074421
549.388838	0.073817
549.603222	0.073735
549.817589	0.074356
550.031937	0.074822
550.246267	0.074630
550.460579	0.075012
550.674873	0.075055
550.889148	0.075310
551.103405	0.075397
551.317644	0.075895
551.531865	0.076111
551.746068	0.075904
551.960252	0.075828
552.174418	0.076355
552.388566	0.076364
552.602696	0.076410
552.816807	0.076310
553.030900	0.076359
553.244975	0.076513
553.459032	0.076716
553.673070	0.076624
553.887091	0.077054
554.101093	0.077063
554.315077	0.076894
554.529042	0.077289
554.742990	0.077379
554.956919	0.077028
555.170830	0.077264
555.384722	0.077009
555.598597	0.077347
555.812453	0.077485
556.026291	0.077218
556.240111	0.077616
556.453913	0.077397
556.667696	0.077720
556.881461	0.078211
557.095208	0.078509
557.308937	0.079077
557.522647	0.078991
557.736339	0.078848
557.950013	0.079205
558.163669	0.078979
558.377307	0.079035
558.590926	0.078730
558.804527	0.078559
559.018110	0.078442
559.231675	0.078122
559.445221	0.077868
559.658749	0.077751
559.872259	0.077774
560.085751	0.077574
560.299225	0.078212
560.512680	0.078198
560.726117	0.078302
560.939536	0.078017
561.152937	0.078125
561.366319	0.078336
561.579683	0.078285
561.793029	0.078369
562.006357	0.079285
562.219667	0.078515
562.432958	0.078884
562.646231	0.079209
562.859486	0.079461
563.072723	0.079128
563.285941	0.079319
563.499141	0.079419
563.712323	0.079291
563.925487	0.078863
564.138632	0.079327
564.351760	0.079319
564.564869	0.079126
564.777960	0.079273
564.991032	0.079530
565.204087	0.079563
565.417123	0.080072
565.630141	0.079915
565.843140	0.079875
566.056122	0.079776
566.269085	0.079881
566.482030	0.080014
566.694957	0.079550
566.907866	0.079737
567.120756	0.080015
567.333628	0.079846
567.546482	0.080172
567.759318	0.080614
567.972135	0.080506
568.184935	0.080553
568.397716	0.080183
568.610478	0.080564
568.823223	0.080760
569.035949	0.080710
569.248657	0.080522
569.461347	0.080360
569.674019	0.080124
569.886672	0.080502
570.099308	0.080387
570.311925	0.080669
570.524523	0.080695
570.737104	0.080618
570.949666	0.080719
571.162210	0.080821
571.374736	0.080926
571.587244	0.080941
571.799733	0.080881
572.012205	0.080915
572.224658	0.080897
572.437092	0.081033
572.649509	0.080766
572.861907	0.080577
573.074287	0.080433
573.286649	0.080489
573.498993	0.080392
573.711318	0.080259
573.923625	0.080134
574.135914	0.080482
574.348185	0.080100
574.560438	0.080225
574.772672	0.080571
574.984888	0.080975
575.197086	0.081115
575.409266	0.081121
575.621427	0.080612
575.833570	0.080773
576.045695	0.080691
576.257802	0.081053
576.469890	0.081237
576.681961	0.081180
576.894013	0.080951
577.106046	0.081016
577.318062	0.081250
577.530059	0.081845
577.742039	0.082049
577.954000	0.082037
578.165942	0.082281
578.377867	0.082377
578.589773	0.082437
578.801661	0.082580
579.013531	0.082380
579.225382	0.082385
579.437216	0.082450
579.649031	0.082453
579.860828	0.082614
580.072606	0.082407
580.284367	0.082270
580.496109	0.082080
580.707833	0.081992
580.919539	0.082136
581.131227	0.081973
581.342896	0.082071
581.554547	0.082110
581.766180	0.082218
581.977795	0.082180
582.189391	0.082404
582.400969	0.082539
582.612529	0.082742
582.824071	0.082824
583.035595	0.083076
583.247100	0.083097
583.458587	0.082978
583.670056	0.082675
583.881506	0.082950
584.092939	0.082994
584.304353	0.083220
584.515749	0.082983
584.727127	0.083215
584.938486	0.083440
585.149828	0.083772
585.361151	0.083757
585.572456	0.084178
585.783742	0.084177
585.995011	0.084346
586.206261	0.084095
586.417493	0.084404
586.628706	0.084429
586.839902	0.084317
587.051079	0.083993
587.262238	0.084274
587.473379	0.084057
587.684502	0.084293
587.895606	0.084011
588.106692	0.084194
588.317760	0.084312
588.528810	0.083839
588.739841	0.083614
588.950855	0.083990
589.161850	0.083938
589.372827	0.084150
589.583785	0.083831
589.794726	0.083811
590.005648	0.083781
590.216552	0.083772
590.427437	0.083963
590.638305	0.084629
590.849154	0.084464
591.059985	0.084526
591.270798	0.084497
591.481592	0.084781
591.692369	0.084889
591.903127	0.085040
592.113867	0.084900
592.324588	0.084990
592.535292	0.084739
592.745977	0.084671
592.956644	0.084831
593.167293	0.085044
593.377923	0.085025
593.588536	0.085139
593.799130	0.084982
594.009706	0.085163
594.220263	0.085288
594.430803	0.085432
594.641324	0.085812
594.851827	0.085773
595.062312	0.085662
595.272778	0.085697
595.483227	0.085753
595.693657	0.085911
595.904069	0.086270
596.114462	0.086561
596.324838	0.086482
596.535195	0.086489
596.745534	0.086683
596.955855	0.086825
597.166157	0.086705
597.376441	0.087155
597.586707	0.086891
597.796955	0.086835
598.007185	0.086597
598.217396	0.086784
598.427589	0.086487
598.637764	0.086405
598.847921	0.086305
599.058060	0.086406
599.268180	0.086040
599.478282	0.086344
599.688366	0.086620
599.898431	0.086727
600.108479	0.086661
600.318508	0.086917
600.528519	0.087101
600.738511	0.087141
600.948486	0.087206
601.158442	0.087403
601.368380	0.087766
601.578300	0.087688
601.788202	0.088076
601.998085	0.087905
602.207950	0.088091
602.417797	0.088016
602.627626	0.088369
602.837436	0.088569
603.047228	0.088318
603.257002	0.088319
603.466758	0.087933
603.676496	0.087710
603.886215	0.088035
604.095916	0.088063
604.305599	0.088170
604.515264	0.088113
604.724910	0.088345
604.934538	0.088824
605.144148	0.088752
605.353740	0.089225
605.563314	0.089232
605.772869	0.089165
605.982406	0.089148
606.191925	0.089276
606.401425	0.089360
606.610908	0.089297
606.820372	0.089263
607.029818	0.089288
607.239246	0.089342
607.448655	0.089660
607.658047	0.089722
607.867420	0.089740
608.076775	0.089603
608.286111	0.089456
608.495430	0.089159
608.704730	0.089035
608.914012	0.089080
609.123275	0.089144
609.332521	0.089003
609.541748	0.089231
609.750957	0.089237
609.960148	0.089283
610.169321	0.089451
610.378475	0.089881
610.587611	0.089987
610.796729	0.089866
611.005829	0.089608
611.214910	0.089541
611.423974	0.089488
611.633019	0.089751
611.842045	0.090134
612.051054	0.090214
612.260044	0.089974
612.469017	0.089884
612.677970	0.089964
612.886906	0.090105
613.095824	0.090138
613.304723	0.090172
613.513604	0.090180
613.722467	0.089844
613.931311	0.089787
614.140138	0.089881
614.348946	0.089782
614.557736	0.089988
614.766507	0.090005
614.975261	0.090076
615.183996	0.089972
615.392713	0.089797
615.601412	0.089583
615.810092	0.089492
616.018754	0.089387
616.227399	0.089721
616.436024	0.089603
616.644632	0.089605
616.853222	0.089465
617.061793	0.089446
617.270346	0.089180
617.478880	0.089399
617.687397	0.089489
617.895895	0.089679
618.104375	0.089549
618.312837	0.089531
618.521281	0.089390
618.729706	0.089403
618.938113	0.089360
619.146502	0.089670
619.354873	0.089596
619.563226	0.089510
619.771560	0.089577
619.979876	0.089761
620.188174	0.089882
620.396453	0.089855
620.604715	0.090011
620.812958	0.090140
621.021183	0.090241
621.229390	0.090523
621.437578	0.090754
621.645748	0.090850
621.853900	0.090717
622.062034	0.090797
622.270150	0.091036
622.478247	0.091288
622.686326	0.091504
622.894387	0.091508
623.102430	0.091564
623.310454	0.091615
623.518461	0.091445
623.726449	0.091742
623.934418	0.091902
624.142370	0.092225
624.350303	0.092288
624.558218	0.092271
624.766115	0.092357
624.973994	0.092393
625.181855	0.092413
625.389697	0.092435
625.597521	0.092323
625.805327	0.092209
626.013114	0.092047
626.220883	0.091786
626.428634	0.091499
626.636367	0.091775
626.844082	0.091860
627.051778	0.091911
627.259457	0.092180
627.467117	0.092385
627.674758	0.092568
627.882382	0.092959
628.089987	0.093202
628.297574	0.093482
628.505143	0.093185
628.712694	0.093050
628.920226	0.093240
629.127740	0.093108
629.335236	0.093037
629.542714	0.092814
629.750174	0.092526
629.957615	0.093051
630.165038	0.093318
630.372443	0.093510
630.579829	0.093748
630.787198	0.093734
630.994548	0.094012
631.201880	0.094163
631.409194	0.094398
631.616489	0.094679
631.823766	0.094507
632.031025	0.094536
632.238266	0.094511
632.445489	0.094567
632.652693	0.094254
632.859879	0.094127
633.067047	0.094100
633.274197	0.094187
633.481329	0.094109
633.688442	0.093867
633.895537	0.093794
634.102614	0.093739
634.309672	0.093801
634.516713	0.094393
634.723735	0.094573
634.930739	0.094894
635.137724	0.095065
635.344692	0.095103
635.551641	0.095052
635.758572	0.095128
635.965485	0.095229
636.172379	0.095167
636.379256	0.094763
636.586114	0.094595
636.792954	0.094574
636.999775	0.094850
637.206579	0.094801
637.413364	0.095142
637.620131	0.095165
637.826880	0.095274
638.033610	0.095204
638.240323	0.095517
638.447017	0.095666
638.653692	0.095654
638.860350	0.095345
639.066990	0.095489
639.273611	0.095235
639.480214	0.095192
639.686798	0.095173
639.893365	0.095435
640.099913	0.095379
640.306443	0.095433
640.512955	0.095460
640.719449	0.095641
640.925924	0.095638
641.132381	0.096018
641.338820	0.096110
641.545241	0.096385
641.751644	0.096694
641.958028	0.096801
642.164394	0.096885
642.370742	0.096792
642.577071	0.096843
642.783383	0.097009
642.989676	0.096986
643.195951	0.097178
643.402207	0.097125
643.608446	0.096865
643.814666	0.096902
644.020868	0.097158
644.227052	0.097279
644.433218	0.097264
644.639365	0.097252
644.845494	0.097459
645.051605	0.097847
645.257698	0.098052
645.463772	0.098368
645.669828	0.098720
645.875866	0.098759
646.081886	0.099017
646.287888	0.099153
646.493871	0.099172
646.699836	0.099111
646.905783	0.099165
647.111712	0.099144
647.317622	0.099149
647.523514	0.098912
647.729388	0.098966
647.935244	0.098906
648.141082	0.099041
648.346901	0.099241
648.552702	0.099333
648.758485	0.099125
648.964250	0.099410
649.169996	0.099556
649.375724	0.099894
649.581434	0.100019
649.787126	0.100126
649.992800	0.100228
650.198455	0.100144
650.404092	0.100168
650.609711	0.100352
650.815311	0.100121
651.020894	0.100093
651.226458	0.100149
651.432004	0.100103
651.637532	0.100262
651.843041	0.100183
652.048532	0.100406
652.254006	0.100566
652.459460	0.100714
652.664897	0.100869
652.870315	0.100905
653.075716	0.100941
653.281097	0.101098
653.486461	0.101080
653.691807	0.101428
653.897134	0.101347
654.102443	0.101336
654.307734	0.101175
654.513006	0.101545
654.718261	0.101722
654.923497	0.101711
655.128715	0.101821
655.333915	0.101845
655.539096	0.101698
655.744259	0.101944
655.949404	0.102126
656.154531	0.102475
656.359640	0.102327
656.564730	0.102227
656.769802	0.102409
656.974856	0.102408
657.179892	0.102517
657.384909	0.102626
657.589908	0.102648
657.794889	0.102723
657.999852	0.102406
658.204797	0.102503
658.409723	0.102753
658.614631	0.102579
658.819521	0.102522
659.024393	0.102628
659.229246	0.102688
659.434081	0.102742
659.638898	0.102713
659.843697	0.102786
660.048478	0.102624
660.253240	0.102435
660.457984	0.102619
660.662710	0.102649
660.867417	0.102728
661.072107	0.102711
661.276778	0.102825
661.481431	0.102880
661.686066	0.103225
661.890682	0.103454
662.095281	0.103627
662.299861	0.103789
662.504422	0.104056
662.708966	0.104251
662.913491	0.104335
663.117999	0.104444
663.322488	0.104564
663.526958	0.104869
663.731411	0.105034
663.935845	0.105339
664.140261	0.105384
664.344659	0.105407
664.549038	0.105335
664.753400	0.105514
664.957743	0.105588
665.162068	0.105769
665.366375	0.105747
665.570663	0.105820
665.774933	0.105763
665.979185	0.105885
666.183419	0.106194
666.387635	0.106349
666.591832	0.106386
666.796011	0.106579
667.000172	0.106653
667.204315	0.106638
667.408439	0.106757
667.612545	0.106862
667.816634	0.106869
668.020703	0.106623
668.224755	0.106646
668.428788	0.106816
668.632803	0.106878
668.836800	0.106936
669.040779	0.106876
669.244739	0.106922
669.448681	0.107149
669.652605	0.107216
669.856511	0.107469
670.060399	0.107792
670.264268	0.107828
670.468119	0.107709
670.671952	0.107631
670.875767	0.107825
671.079563	0.107877
671.283341	0.107686
671.487101	0.108013
671.690843	0.108081
671.894567	0.107813
672.098272	0.107960
672.301959	0.108351
672.505628	0.108824
672.709278	0.108920
672.912911	0.109070
673.116525	0.109234
673.320121	0.109227
673.523699	0.109335
673.727258	0.109641
673.930799	0.109621
674.134322	0.109578
674.337827	0.109452
674.541314	0.109518
674.744782	0.109445
674.948232	0.109431
675.151664	0.109478
675.355078	0.109467
675.558474	0.109584
675.761851	0.109571
675.965210	0.109569
676.168551	0.109532
676.371873	0.109706
676.575178	0.110079
676.778464	0.110302
676.981732	0.110390
677.184981	0.110445
677.388213	0.110386
677.591426	0.110721
677.794621	0.110862
677.997798	0.111138
678.200956	0.111117
678.404097	0.111024
678.607219	0.111352
678.810323	0.111336
679.013408	0.111658
679.216476	0.112020
679.419525	0.112264
679.622556	0.112321
679.825569	0.112356
680.028563	0.112547
680.231540	0.112841
680.434498	0.112868
680.637438	0.113219
680.840359	0.113347
681.043263	0.113470
681.246148	0.113424
681.449015	0.113732
681.651864	0.113865
681.854694	0.113949
682.057506	0.114007
682.260301	0.113959
682.463076	0.114009
682.665834	0.113914
682.868573	0.113950
683.071295	0.114044
683.273998	0.114231
683.476682	0.114445
683.679349	0.114614
683.881997	0.114798
684.084627	0.115026
684.287239	0.115028
684.489833	0.115093
684.692408	0.115112
684.894965	0.115044
685.097504	0.114826
685.300025	0.114759
685.502527	0.114711
685.705012	0.114554
685.907478	0.114528
686.109925	0.114525
686.312355	0.114570
686.514766	0.114564
686.717159	0.114644
686.919534	0.114689
687.121891	0.114653
687.324230	0.114902
687.526550	0.115126
687.728852	0.115125
687.931136	0.115284
688.133401	0.115375
688.335649	0.115331
688.537878	0.115451
688.740089	0.115582
688.942281	0.115675
689.144456	0.115601
689.346612	0.115538
689.548750	0.115486
689.750870	0.115618
689.952971	0.115559
690.155055	0.115727
690.357120	0.115797
690.559167	0.115879
690.761195	0.115907
690.963206	0.115876
691.165198	0.115916
691.367172	0.116175
691.569128	0.116131
691.771065	0.116422
691.972984	0.116344
692.174885	0.116654
692.376768	0.116623
692.578633	0.116735
692.780479	0.116899
692.982308	0.117045
693.184118	0.117216
693.385909	0.117453
