sample name	sample
index	1481
start time	 05-18-2021  12:34:01 PM


Wavelength (nm)	Absorbance
494.344910	0.003831
494.563924	0.003831
494.782919	0.003831
495.001897	0.132938
495.220856	-0.021236
495.439797	-0.035059
495.658719	-0.048399
495.877624	-0.058247
496.096510	-0.071219
496.315378	-0.069129
496.534227	-0.055339
496.753059	-0.035197
496.971872	-0.014102
497.190667	0.116843
497.409444	0.148216
497.628203	0.158648
497.846943	0.162868
498.065665	0.164406
498.284369	0.166457
498.503055	0.167540
498.721723	0.168274
498.940372	0.168379
499.159003	0.168246
499.377616	0.167577
499.596210	0.167087
499.814787	0.167958
500.033345	0.168541
500.251885	0.167879
500.470406	0.168407
500.688910	0.169468
500.907395	0.169783
501.125862	0.170712
501.344311	0.171331
501.562742	0.172233
501.781154	0.171982
501.999548	0.173184
502.217924	0.173458
502.436282	0.173519
502.654621	0.173642
502.872942	0.173319
503.091245	0.172819
503.309530	0.173386
503.527797	0.172247
503.746045	0.171435
503.964275	0.171012
504.182487	0.170637
504.400681	0.170554
504.618856	0.171013
504.837013	0.172005
505.055152	0.171833
505.273273	0.171431
505.491376	0.172820
505.709460	0.173343
505.927526	0.173521
506.145574	0.173506
506.363604	0.173698
506.581615	0.173782
506.799608	0.173827
507.017583	0.173835
507.235540	0.174955
507.453478	0.174764
507.671399	0.174503
507.889301	0.173258
508.107185	0.174057
508.325050	0.173908
508.542898	0.173812
508.760727	0.174100
508.978538	0.174534
509.196330	0.173822
509.414105	0.173730
509.631861	0.173425
509.849599	0.173893
510.067319	0.173784
510.285021	0.174221
510.502704	0.173865
510.720369	0.172296
510.938016	0.171710
511.155645	0.172120
511.373255	0.172356
511.590848	0.173047
511.808422	0.173701
512.025977	0.173136
512.243515	0.172408
512.461034	0.173076
512.678536	0.174281
512.896018	0.175481
513.113483	0.174882
513.330930	0.174908
513.548358	0.175790
513.765768	0.175871
513.983160	0.176309
514.200533	0.177048
514.417889	0.176849
514.635226	0.177028
514.852545	0.176186
515.069845	0.177422
515.287128	0.177607
515.504392	0.177296
515.721638	0.177493
515.938866	0.176986
516.156075	0.177363
516.373267	0.176914
516.590440	0.177040
516.807594	0.178144
517.024731	0.176899
517.241850	0.176300
517.458950	0.176247
517.676032	0.176894
517.893095	0.177501
518.110141	0.176887
518.327168	0.177795
518.544177	0.177984
518.761168	0.177856
518.978141	0.178682
519.195095	0.179756
519.412031	0.180143
519.628949	0.179242
519.845849	0.180524
520.062731	0.180686
520.279594	0.179705
520.496439	0.179495
520.713266	0.179326
520.930074	0.180004
521.146865	0.179704
521.363637	0.179453
521.580391	0.179822
521.797127	0.179213
522.013844	0.180366
522.230543	0.180674
522.447224	0.181130
522.663887	0.182094
522.880532	0.181905
523.097158	0.181819
523.313766	0.181695
523.530356	0.181885
523.746928	0.182735
523.963481	0.182632
524.180017	0.183303
524.396534	0.183417
524.613032	0.183206
524.829513	0.183293
525.045975	0.183999
525.262420	0.184726
525.478845	0.184986
525.695253	0.184798
525.911643	0.185244
526.128014	0.185269
526.344367	0.186062
526.560702	0.185557
526.777018	0.186226
526.993316	0.186206
527.209597	0.185805
527.425858	0.186104
527.642102	0.185935
527.858328	0.185846
528.074535	0.186501
528.290724	0.186555
528.506894	0.187291
528.723047	0.186914
528.939181	0.187140
529.155297	0.187716
529.371395	0.187829
529.587475	0.188160
529.803536	0.187895
530.019579	0.188821
530.235604	0.188403
530.451611	0.188754
530.667600	0.189418
530.883570	0.189878
531.099522	0.190464
531.315456	0.190842
531.531372	0.190870
531.747269	0.191597
531.963148	0.191362
532.179009	0.191932
532.394852	0.192278
532.610676	0.192426
532.826482	0.192157
533.042271	0.192125
533.258040	0.192081
533.473792	0.192876
533.689525	0.192913
533.905240	0.192525
534.120937	0.193008
534.336616	0.192657
534.552277	0.193423
534.767919	0.193967
534.983543	0.194840
535.199149	0.195628
535.414736	0.195975
535.630306	0.196567
535.845857	0.196941
536.061390	0.196659
536.276904	0.196747
536.492401	0.196407
536.707879	0.196719
536.923339	0.196150
537.138781	0.196129
537.354204	0.196273
537.569610	0.196100
537.784997	0.196788
538.000366	0.197166
538.215716	0.197684
538.431049	0.197982
538.646363	0.198243
538.861659	0.198872
539.076937	0.199114
539.292196	0.198977
539.507438	0.199830
539.722661	0.199475
539.937866	0.199678
540.153052	0.200052
540.368221	0.199676
540.583371	0.199790
540.798503	0.199403
541.013617	0.199690
541.228712	0.200436
541.443789	0.200218
541.658848	0.200733
541.873889	0.200976
542.088912	0.201423
542.303916	0.202024
542.518902	0.202303
542.733870	0.202866
542.948820	0.203084
543.163752	0.202882
543.378665	0.203203
543.593560	0.203645
543.808437	0.204107
544.023295	0.204059
544.238136	0.204636
544.452958	0.204657
544.667762	0.205089
544.882548	0.205467
545.097315	0.205330
545.312064	0.205476
545.526795	0.205107
545.741508	0.205128
545.956203	0.205635
546.170879	0.205618
546.385537	0.206033
546.600177	0.206025
546.814799	0.205877
547.029402	0.206729
547.243988	0.206921
547.458555	0.206975
547.673103	0.207413
547.887634	0.207003
548.102146	0.207528
548.316640	0.207528
548.531116	0.207830
548.745574	0.208613
548.960013	0.208409
549.174435	0.208990
549.388838	0.209905
549.603222	0.209958
549.817589	0.210867
550.031937	0.210803
550.246267	0.211377
550.460579	0.211393
550.674873	0.211030
550.889148	0.211193
551.103405	0.211138
551.317644	0.210818
551.531865	0.210791
551.746068	0.210399
551.960252	0.210540
552.174418	0.210800
552.388566	0.211185
552.602696	0.211335
552.816807	0.211802
553.030900	0.211990
553.244975	0.212343
553.459032	0.212725
553.673070	0.213120
553.887091	0.213321
554.101093	0.213429
554.315077	0.213335
554.529042	0.213353
554.742990	0.213745
554.956919	0.214002
555.170830	0.213719
555.384722	0.213477
555.598597	0.214021
555.812453	0.213793
556.026291	0.213561
556.240111	0.214477
556.453913	0.214876
556.667696	0.214569
556.881461	0.214119
557.095208	0.214566
557.308937	0.214671
557.522647	0.214384
557.736339	0.214477
557.950013	0.214877
558.163669	0.214186
558.377307	0.214529
558.590926	0.214537
558.804527	0.214882
559.018110	0.215075
559.231675	0.215353
559.445221	0.215327
559.658749	0.215996
559.872259	0.216302
560.085751	0.216696
560.299225	0.216390
560.512680	0.216661
560.726117	0.216901
560.939536	0.217053
561.152937	0.217552
561.366319	0.217857
561.579683	0.217888
561.793029	0.217872
562.006357	0.218157
562.219667	0.218433
562.432958	0.218793
562.646231	0.219271
562.859486	0.219111
563.072723	0.219476
563.285941	0.220048
563.499141	0.220464
563.712323	0.220762
563.925487	0.220902
564.138632	0.220863
564.351760	0.220738
564.564869	0.220304
564.777960	0.220268
564.991032	0.220062
565.204087	0.220008
565.417123	0.219833
565.630141	0.220050
565.843140	0.219844
566.056122	0.220388
566.269085	0.220441
566.482030	0.221306
566.694957	0.222039
566.907866	0.222143
567.120756	0.222026
567.333628	0.222095
567.546482	0.222195
567.759318	0.222715
567.972135	0.223029
568.184935	0.223560
568.397716	0.223434
568.610478	0.223351
568.823223	0.223376
569.035949	0.223530
569.248657	0.223895
569.461347	0.223809
569.674019	0.223870
569.886672	0.223539
570.099308	0.223681
570.311925	0.223766
570.524523	0.224128
570.737104	0.224196
570.949666	0.224231
571.162210	0.224485
571.374736	0.224544
571.587244	0.224415
571.799733	0.224867
572.012205	0.224874
572.224658	0.224932
572.437092	0.224728
572.649509	0.225244
572.861907	0.225551
573.074287	0.225488
573.286649	0.225912
573.498993	0.226316
573.711318	0.226604
573.923625	0.226974
574.135914	0.227186
574.348185	0.228180
574.560438	0.228757
574.772672	0.229259
574.984888	0.229220
575.197086	0.229127
575.409266	0.229378
575.621427	0.229313
575.833570	0.229606
576.045695	0.229762
576.257802	0.229490
576.469890	0.229180
576.681961	0.229122
576.894013	0.229342
577.106046	0.229088
577.318062	0.229058
577.530059	0.229090
577.742039	0.228650
577.954000	0.228688
578.165942	0.228961
578.377867	0.229464
578.589773	0.229560
578.801661	0.230204
579.013531	0.230662
579.225382	0.230975
579.437216	0.231086
579.649031	0.231629
579.860828	0.231925
580.072606	0.231410
580.284367	0.230988
580.496109	0.231288
580.707833	0.231220
580.919539	0.231264
581.131227	0.231476
581.342896	0.232002
581.554547	0.231868
581.766180	0.232011
581.977795	0.232816
582.189391	0.233101
582.400969	0.232970
582.612529	0.232823
582.824071	0.233129
583.035595	0.233380
583.247100	0.233411
583.458587	0.233433
583.670056	0.233769
583.881506	0.233843
584.092939	0.233752
584.304353	0.233941
584.515749	0.234347
584.727127	0.234572
584.938486	0.234284
585.149828	0.234338
585.361151	0.234993
585.572456	0.234619
585.783742	0.234728
585.995011	0.235322
586.206261	0.235526
586.417493	0.235207
586.628706	0.235721
586.839902	0.235731
587.051079	0.235480
587.262238	0.235361
587.473379	0.235851
587.684502	0.235837
587.895606	0.235677
588.106692	0.235876
588.317760	0.236184
588.528810	0.236088
588.739841	0.236583
588.950855	0.236556
589.161850	0.236751
589.372827	0.236758
589.583785	0.236871
589.794726	0.237107
590.005648	0.237419
590.216552	0.237678
590.427437	0.237524
590.638305	0.237721
590.849154	0.238277
591.059985	0.238455
591.270798	0.238783
591.481592	0.238775
591.692369	0.238893
591.903127	0.238923
592.113867	0.239290
592.324588	0.239733
592.535292	0.240097
592.745977	0.240576
592.956644	0.240889
593.167293	0.241327
593.377923	0.241606
593.588536	0.241683
593.799130	0.241550
594.009706	0.241491
594.220263	0.241626
594.430803	0.241267
594.641324	0.241451
594.851827	0.241147
595.062312	0.240740
595.272778	0.241277
595.483227	0.241514
595.693657	0.241880
595.904069	0.242134
596.114462	0.242136
596.324838	0.242479
596.535195	0.242496
596.745534	0.243016
596.955855	0.243207
597.166157	0.243050
597.376441	0.243219
597.586707	0.243253
597.796955	0.243143
598.007185	0.243701
598.217396	0.243821
598.427589	0.243523
598.637764	0.243748
598.847921	0.244069
599.058060	0.244550
599.268180	0.244601
599.478282	0.244682
599.688366	0.245230
599.898431	0.244991
600.108479	0.245271
600.318508	0.245723
600.528519	0.245448
600.738511	0.245191
600.948486	0.244936
601.158442	0.245362
601.368380	0.245952
601.578300	0.245830
601.788202	0.245606
601.998085	0.245561
602.207950	0.245756
602.417797	0.245839
602.627626	0.246241
602.837436	0.246520
603.047228	0.246078
603.257002	0.245976
603.466758	0.246036
603.676496	0.246354
603.886215	0.246703
604.095916	0.246588
604.305599	0.246932
604.515264	0.246936
604.724910	0.247249
604.934538	0.247603
605.144148	0.247708
605.353740	0.248103
605.563314	0.248505
605.772869	0.248485
605.982406	0.248709
606.191925	0.249070
606.401425	0.249394
606.610908	0.249448
606.820372	0.249516
607.029818	0.249856
607.239246	0.249682
607.448655	0.249135
607.658047	0.249127
607.867420	0.249298
608.076775	0.249125
608.286111	0.249048
608.495430	0.248927
608.704730	0.249239
608.914012	0.248689
609.123275	0.248582
609.332521	0.249294
609.541748	0.249503
609.750957	0.249348
609.960148	0.249277
610.169321	0.249433
610.378475	0.249802
610.587611	0.249709
610.796729	0.250186
611.005829	0.250343
611.214910	0.250431
611.423974	0.250566
611.633019	0.251275
611.842045	0.251498
612.051054	0.251802
612.260044	0.251799
612.469017	0.252006
612.677970	0.252269
612.886906	0.252435
613.095824	0.252668
613.304723	0.253029
613.513604	0.252997
613.722467	0.253500
613.931311	0.253501
614.140138	0.253495
614.348946	0.253752
614.557736	0.253712
614.766507	0.254288
614.975261	0.254485
615.183996	0.254365
615.392713	0.254541
615.601412	0.254488
615.810092	0.254737
616.018754	0.255207
616.227399	0.255282
616.436024	0.255661
616.644632	0.255628
616.853222	0.255601
617.061793	0.255861
617.270346	0.255794
617.478880	0.255882
617.687397	0.255974
617.895895	0.256042
618.104375	0.255996
618.312837	0.256057
618.521281	0.256188
618.729706	0.256341
618.938113	0.256308
619.146502	0.256313
619.354873	0.256535
619.563226	0.256616
619.771560	0.256690
619.979876	0.256923
620.188174	0.257090
620.396453	0.257228
620.604715	0.257122
620.812958	0.257316
621.021183	0.257499
621.229390	0.257715
621.437578	0.257737
621.645748	0.257552
621.853900	0.257599
622.062034	0.257412
622.270150	0.257378
622.478247	0.257587
622.686326	0.257302
622.894387	0.257564
623.102430	0.257239
623.310454	0.257352
623.518461	0.257668
623.726449	0.258000
623.934418	0.258177
624.142370	0.258405
624.350303	0.258660
624.558218	0.259297
624.766115	0.259193
624.973994	0.259578
625.181855	0.259659
625.389697	0.259889
625.597521	0.260011
625.805327	0.259974
626.013114	0.260254
626.220883	0.260125
626.428634	0.260034
626.636367	0.260233
626.844082	0.260061
627.051778	0.260285
627.259457	0.260208
627.467117	0.260520
627.674758	0.260910
627.882382	0.260776
628.089987	0.261153
628.297574	0.261097
628.505143	0.261387
628.712694	0.261807
628.920226	0.262269
629.127740	0.262524
629.335236	0.262346
629.542714	0.262625
629.750174	0.262822
629.957615	0.263009
630.165038	0.263439
630.372443	0.263519
630.579829	0.263798
630.787198	0.263495
630.994548	0.263617
631.201880	0.263619
631.409194	0.263579
631.616489	0.263766
631.823766	0.263691
632.031025	0.263799
632.238266	0.263738
632.445489	0.263686
632.652693	0.263965
632.859879	0.264392
633.067047	0.264751
633.274197	0.264989
633.481329	0.264987
633.688442	0.265344
633.895537	0.265673
634.102614	0.266375
634.309672	0.266575
634.516713	0.266806
634.723735	0.266687
634.930739	0.266891
635.137724	0.266821
635.344692	0.267057
635.551641	0.267114
635.758572	0.267170
635.965485	0.266872
636.172379	0.267030
636.379256	0.267099
636.586114	0.267106
636.792954	0.267183
636.999775	0.267544
637.206579	0.267492
637.413364	0.267541
637.620131	0.267447
637.826880	0.267525
638.033610	0.267400
638.240323	0.267413
638.447017	0.267611
638.653692	0.267683
638.860350	0.267764
639.066990	0.268293
639.273611	0.268517
639.480214	0.268712
639.686798	0.269064
639.893365	0.269519
640.099913	0.269597
640.306443	0.269501
640.512955	0.269912
640.719449	0.269783
640.925924	0.269908
641.132381	0.269974
641.338820	0.270278
641.545241	0.270527
641.751644	0.270567
641.958028	0.270901
642.164394	0.271522
642.370742	0.271296
642.577071	0.271786
642.783383	0.271703
642.989676	0.272180
643.195951	0.272335
643.402207	0.272296
643.608446	0.272587
643.814666	0.272721
644.020868	0.272653
644.227052	0.272971
644.433218	0.273143
644.639365	0.273374
644.845494	0.273083
645.051605	0.273201
645.257698	0.273106
645.463772	0.272977
645.669828	0.273220
645.875866	0.273476
646.081886	0.273405
646.287888	0.273221
646.493871	0.273314
646.699836	0.273760
646.905783	0.273951
647.111712	0.274323
647.317622	0.274723
647.523514	0.275033
647.729388	0.275140
647.935244	0.275278
648.141082	0.275814
648.346901	0.276239
648.552702	0.276345
648.758485	0.276757
648.964250	0.277062
649.169996	0.277223
649.375724	0.277222
649.581434	0.277218
649.787126	0.277577
649.992800	0.277891
650.198455	0.278054
650.404092	0.278223
650.609711	0.278220
650.815311	0.278331
651.020894	0.278526
651.226458	0.278846
651.432004	0.279291
651.637532	0.279566
651.843041	0.279533
652.048532	0.279330
652.254006	0.279445
652.459460	0.279526
652.664897	0.279663
652.870315	0.279885
653.075716	0.279820
653.281097	0.280104
653.486461	0.279967
653.691807	0.279841
653.897134	0.280181
654.102443	0.280345
654.307734	0.280246
654.513006	0.280557
654.718261	0.280576
654.923497	0.280779
655.128715	0.280626
655.333915	0.280860
655.539096	0.281251
655.744259	0.281368
655.949404	0.281366
656.154531	0.281808
656.359640	0.281867
656.564730	0.282078
656.769802	0.282297
656.974856	0.282507
657.179892	0.282935
657.384909	0.283245
657.589908	0.283395
657.794889	0.283659
657.999852	0.283881
658.204797	0.284124
658.409723	0.284234
658.614631	0.284414
658.819521	0.284375
659.024393	0.284547
659.229246	0.284710
659.434081	0.285182
659.638898	0.285642
659.843697	0.285965
660.048478	0.286118
660.253240	0.286449
660.457984	0.286588
660.662710	0.286922
660.867417	0.286981
661.072107	0.287094
661.276778	0.287088
661.481431	0.287281
661.686066	0.287398
661.890682	0.287604
662.095281	0.287815
662.299861	0.288044
662.504422	0.288209
662.708966	0.288420
662.913491	0.288529
663.117999	0.288484
663.322488	0.288515
663.526958	0.288435
663.731411	0.288541
663.935845	0.288759
664.140261	0.289005
664.344659	0.289373
664.549038	0.289428
664.753400	0.289584
664.957743	0.290118
665.162068	0.290257
665.366375	0.290743
665.570663	0.290693
665.774933	0.290565
665.979185	0.290570
666.183419	0.290584
666.387635	0.291070
666.591832	0.291424
666.796011	0.291297
667.000172	0.291357
667.204315	0.291300
667.408439	0.291681
667.612545	0.292012
667.816634	0.292476
668.020703	0.292608
668.224755	0.292837
668.428788	0.292968
668.632803	0.293352
668.836800	0.293654
669.040779	0.293941
669.244739	0.294114
669.448681	0.294305
669.652605	0.294299
669.856511	0.294581
670.060399	0.294652
670.264268	0.294652
670.468119	0.294878
670.671952	0.294875
670.875767	0.295022
671.079563	0.295319
671.283341	0.295494
671.487101	0.295741
671.690843	0.295958
671.894567	0.296137
672.098272	0.296391
672.301959	0.296487
672.505628	0.296775
672.709278	0.297075
672.912911	0.296826
673.116525	0.296854
673.320121	0.297069
673.523699	0.297503
673.727258	0.297264
673.930799	0.297443
674.134322	0.297702
674.337827	0.297899
674.541314	0.297842
674.744782	0.298567
674.948232	0.298696
675.151664	0.298539
675.355078	0.298512
675.558474	0.299000
675.761851	0.299190
675.965210	0.299269
676.168551	0.299581
676.371873	0.299670
676.575178	0.299652
676.778464	0.300362
676.981732	0.300829
677.184981	0.301011
677.388213	0.301248
677.591426	0.301416
677.794621	0.301551
677.997798	0.301638
678.200956	0.302097
678.404097	0.302373
678.607219	0.302455
678.810323	0.302533
679.013408	0.302729
679.216476	0.303041
679.419525	0.303355
679.622556	0.303606
679.825569	0.303977
680.028563	0.304201
680.231540	0.304070
680.434498	0.304249
680.637438	0.304540
680.840359	0.304550
681.043263	0.304639
681.246148	0.304943
681.449015	0.305396
681.651864	0.305384
681.854694	0.305712
682.057506	0.306061
682.260301	0.306050
682.463076	0.306163
682.665834	0.306579
682.868573	0.306865
683.071295	0.306772
683.273998	0.306870
683.476682	0.307099
683.679349	0.306995
683.881997	0.307256
684.084627	0.307411
684.287239	0.307351
684.489833	0.307402
684.692408	0.307277
684.894965	0.307653
685.097504	0.307724
685.300025	0.307748
685.502527	0.307931
685.705012	0.308145
685.907478	0.308395
686.109925	0.308607
686.312355	0.308867
686.514766	0.309254
686.717159	0.309241
686.919534	0.309611
687.121891	0.309860
687.324230	0.310224
687.526550	0.310353
687.728852	0.310319
687.931136	0.310782
688.133401	0.311085
688.335649	0.311277
688.537878	0.311579
688.740089	0.311559
688.942281	0.311822
689.144456	0.312026
689.346612	0.312341
689.548750	0.312567
689.750870	0.312707
689.952971	0.312631
690.155055	0.312712
690.357120	0.312784
690.559167	0.312830
690.761195	0.312981
690.963206	0.312883
691.165198	0.312562
691.367172	0.312893
691.569128	0.312812
691.771065	0.313008
691.972984	0.313121
692.174885	0.313312
692.376768	0.313343
692.578633	0.313338
692.780479	0.313496
692.982308	0.313970
693.184118	0.314012
693.385909	0.314572
