sample name	sample
index	745
start time	 03-25-2021  04:00:11 PM


Wavelength (nm)	Absorbance
494.344910	NaN
494.563924	NaN
494.782919	NaN
495.001897	-0.104924
495.220856	0.201519
495.439797	0.131610
495.658719	0.133750
495.877624	0.035401
496.096510	0.025353
496.315378	-0.019579
496.534227	-0.058018
496.753059	-0.017026
496.971872	-0.022700
497.190667	-0.005993
497.409444	-0.003096
497.628203	-0.000734
497.846943	-0.000065
498.065665	0.000157
498.284369	-0.000071
498.503055	0.000434
498.721723	0.000097
498.940372	0.001623
499.159003	0.001763
499.377616	0.001326
499.596210	0.000485
499.814787	0.001265
500.033345	0.001874
500.251885	0.002262
500.470406	0.002246
500.688910	0.002080
500.907395	0.001481
501.125862	0.001462
501.344311	0.002573
501.562742	0.002745
501.781154	0.002101
501.999548	0.001895
502.217924	0.001229
502.436282	0.001114
502.654621	0.001546
502.872942	0.000777
503.091245	0.001227
503.309530	0.000569
503.527797	0.000555
503.746045	0.000387
503.964275	0.000929
504.182487	0.001505
504.400681	0.001861
504.618856	0.001448
504.837013	0.001806
505.055152	0.001638
505.273273	0.001032
505.491376	0.001264
505.709460	0.001982
505.927526	0.001132
506.145574	0.001621
506.363604	0.001345
506.581615	0.001451
506.799608	0.001953
507.017583	0.001589
507.235540	0.001829
507.453478	0.002039
507.671399	0.001508
507.889301	0.001365
508.107185	0.001261
508.325050	0.001410
508.542898	0.001172
508.760727	0.001337
508.978538	0.001427
509.196330	0.001569
509.414105	0.000634
509.631861	0.000589
509.849599	0.000120
510.067319	0.000471
510.285021	0.000448
510.502704	-0.000108
510.720369	-0.000557
510.938016	-0.000042
511.155645	0.000689
511.373255	0.001222
511.590848	0.001610
511.808422	0.002357
512.025977	0.002017
512.243515	0.001927
512.461034	0.002605
512.678536	0.002661
512.896018	0.002669
513.113483	0.002619
513.330930	0.002425
513.548358	0.001413
513.765768	0.001197
513.983160	0.001062
514.200533	0.001327
514.417889	0.001461
514.635226	0.002025
514.852545	0.001512
515.069845	0.001340
515.287128	0.001906
515.504392	0.003103
515.721638	0.003266
515.938866	0.003813
516.156075	0.003768
516.373267	0.004451
516.590440	0.004125
516.807594	0.004628
517.024731	0.004488
517.241850	0.004073
517.458950	0.004253
517.676032	0.004467
517.893095	0.004422
518.110141	0.004398
518.327168	0.004201
518.544177	0.004224
518.761168	0.004367
518.978141	0.004310
519.195095	0.004532
519.412031	0.004871
519.628949	0.005535
519.845849	0.006063
520.062731	0.006622
520.279594	0.006994
520.496439	0.007078
520.713266	0.007006
520.930074	0.007247
521.146865	0.006934
521.363637	0.006562
521.580391	0.006009
521.797127	0.005503
522.013844	0.005144
522.230543	0.004767
522.447224	0.005222
522.663887	0.005695
522.880532	0.005946
523.097158	0.007081
523.313766	0.007066
523.530356	0.007752
523.746928	0.007975
523.963481	0.008678
524.180017	0.008234
524.396534	0.008061
524.613032	0.008203
524.829513	0.008607
525.045975	0.008369
525.262420	0.008560
525.478845	0.008429
525.695253	0.007824
525.911643	0.007967
526.128014	0.008648
526.344367	0.008663
526.560702	0.008725
526.777018	0.009146
526.993316	0.009334
527.209597	0.009728
527.425858	0.009773
527.642102	0.010415
527.858328	0.010495
528.074535	0.010519
528.290724	0.011708
528.506894	0.011427
528.723047	0.011065
528.939181	0.011102
529.155297	0.011310
529.371395	0.011721
529.587475	0.011943
529.803536	0.011980
530.019579	0.012636
530.235604	0.012363
530.451611	0.012626
530.667600	0.012699
530.883570	0.013135
531.099522	0.012845
531.315456	0.012839
531.531372	0.013011
531.747269	0.012946
531.963148	0.012983
532.179009	0.012678
532.394852	0.012897
532.610676	0.012809
532.826482	0.013043
533.042271	0.013393
533.258040	0.013328
533.473792	0.013418
533.689525	0.013920
533.905240	0.013956
534.120937	0.014313
534.336616	0.014574
534.552277	0.015421
534.767919	0.015344
534.983543	0.015372
535.199149	0.015713
535.414736	0.016062
535.630306	0.016075
535.845857	0.015911
536.061390	0.016167
536.276904	0.016054
536.492401	0.015937
536.707879	0.015947
536.923339	0.016020
537.138781	0.016031
537.354204	0.016262
537.569610	0.016287
537.784997	0.016812
538.000366	0.016770
538.215716	0.017107
538.431049	0.017131
538.646363	0.017562
538.861659	0.017681
539.076937	0.018173
539.292196	0.018274
539.507438	0.018643
539.722661	0.019066
539.937866	0.019193
540.153052	0.019441
540.368221	0.019569
540.583371	0.019466
540.798503	0.019661
541.013617	0.019535
541.228712	0.019450
541.443789	0.019268
541.658848	0.018914
541.873889	0.018955
542.088912	0.019074
542.303916	0.019155
542.518902	0.019355
542.733870	0.019559
542.948820	0.019647
543.163752	0.019896
543.378665	0.020120
543.593560	0.020339
543.808437	0.020231
544.023295	0.020109
544.238136	0.020085
544.452958	0.020216
544.667762	0.020721
544.882548	0.020620
545.097315	0.020696
545.312064	0.020752
545.526795	0.020707
545.741508	0.021140
545.956203	0.021259
546.170879	0.021411
546.385537	0.021085
546.600177	0.020881
546.814799	0.021537
547.029402	0.021694
547.243988	0.022064
547.458555	0.022002
547.673103	0.021928
547.887634	0.022338
548.102146	0.022712
548.316640	0.023487
548.531116	0.023490
548.745574	0.023366
548.960013	0.023149
549.174435	0.023108
549.388838	0.023540
549.603222	0.024105
549.817589	0.023844
550.031937	0.024079
550.246267	0.023460
550.460579	0.023834
550.674873	0.023953
550.889148	0.024659
551.103405	0.024741
551.317644	0.024645
551.531865	0.024714
551.746068	0.025291
551.960252	0.025223
552.174418	0.025799
552.388566	0.026048
552.602696	0.026234
552.816807	0.025952
553.030900	0.026279
553.244975	0.026774
553.459032	0.026605
553.673070	0.026763
553.887091	0.026927
554.101093	0.026771
554.315077	0.026534
554.529042	0.026304
554.742990	0.026558
554.956919	0.026512
555.170830	0.026210
555.384722	0.026545
555.598597	0.026535
555.812453	0.026857
556.026291	0.027289
556.240111	0.027476
556.453913	0.027934
556.667696	0.028139
556.881461	0.028376
557.095208	0.028724
557.308937	0.028602
557.522647	0.028545
557.736339	0.028337
557.950013	0.028417
558.163669	0.028657
558.377307	0.028707
558.590926	0.028657
558.804527	0.028646
559.018110	0.028835
559.231675	0.029282
559.445221	0.029531
559.658749	0.029732
559.872259	0.029889
560.085751	0.029743
560.299225	0.029907
560.512680	0.030400
560.726117	0.030888
560.939536	0.030935
561.152937	0.030958
561.366319	0.030958
561.579683	0.030804
561.793029	0.030956
562.006357	0.031098
562.219667	0.031344
562.432958	0.031068
562.646231	0.030707
562.859486	0.030811
563.072723	0.031028
563.285941	0.031117
563.499141	0.031814
563.712323	0.031765
563.925487	0.031854
564.138632	0.031903
564.351760	0.032141
564.564869	0.032403
564.777960	0.032591
564.991032	0.032382
565.204087	0.032350
565.417123	0.032188
565.630141	0.032467
565.843140	0.032678
566.056122	0.032536
566.269085	0.032553
566.482030	0.032491
566.694957	0.032707
566.907866	0.032721
567.120756	0.033196
567.333628	0.033152
567.546482	0.033250
567.759318	0.033166
567.972135	0.033474
568.184935	0.033692
568.397716	0.033903
568.610478	0.033644
568.823223	0.033846
569.035949	0.033886
569.248657	0.034126
569.461347	0.034204
569.674019	0.034808
569.886672	0.034846
570.099308	0.035159
570.311925	0.035251
570.524523	0.035613
570.737104	0.035718
570.949666	0.035769
571.162210	0.035824
571.374736	0.035868
571.587244	0.035859
571.799733	0.035881
572.012205	0.035782
572.224658	0.035939
572.437092	0.035829
572.649509	0.035963
572.861907	0.035893
573.074287	0.036209
573.286649	0.036395
573.498993	0.036368
573.711318	0.036618
573.923625	0.036519
574.135914	0.036594
574.348185	0.037188
574.560438	0.037311
574.772672	0.037866
574.984888	0.037611
575.197086	0.037552
575.409266	0.037908
575.621427	0.038170
575.833570	0.038800
576.045695	0.038999
576.257802	0.039027
576.469890	0.039395
576.681961	0.039075
576.894013	0.039519
577.106046	0.039963
577.318062	0.039965
577.530059	0.039958
577.742039	0.039867
577.954000	0.039925
578.165942	0.039785
578.377867	0.039942
578.589773	0.040335
578.801661	0.040639
579.013531	0.040548
579.225382	0.040826
579.437216	0.041084
579.649031	0.041318
579.860828	0.041317
580.072606	0.041578
580.284367	0.041480
580.496109	0.041591
580.707833	0.041497
580.919539	0.041444
581.131227	0.041614
581.342896	0.041855
581.554547	0.041753
581.766180	0.042164
581.977795	0.042221
582.189391	0.042354
582.400969	0.042647
582.612529	0.042654
582.824071	0.043134
583.035595	0.043082
583.247100	0.042867
583.458587	0.043159
583.670056	0.043368
583.881506	0.043751
584.092939	0.044296
584.304353	0.044001
584.515749	0.044354
584.727127	0.044436
584.938486	0.044152
585.149828	0.044055
585.361151	0.044138
585.572456	0.044299
585.783742	0.044045
585.995011	0.043742
586.206261	0.044170
586.417493	0.044009
586.628706	0.043966
586.839902	0.044675
587.051079	0.044947
587.262238	0.045055
587.473379	0.044846
587.684502	0.045115
587.895606	0.045213
588.106692	0.045215
588.317760	0.045366
588.528810	0.045791
588.739841	0.045914
588.950855	0.046315
589.161850	0.046665
589.372827	0.046861
589.583785	0.046906
589.794726	0.046785
590.005648	0.046918
590.216552	0.047532
590.427437	0.047400
590.638305	0.047519
590.849154	0.047661
591.059985	0.047792
591.270798	0.047929
591.481592	0.048527
591.692369	0.049076
591.903127	0.049383
592.113867	0.048904
592.324588	0.049156
592.535292	0.049344
592.745977	0.049420
592.956644	0.049219
593.167293	0.049497
593.377923	0.049281
593.588536	0.049491
593.799130	0.049407
594.009706	0.049546
594.220263	0.049456
594.430803	0.049590
594.641324	0.049566
594.851827	0.049553
595.062312	0.049840
595.272778	0.049898
595.483227	0.049761
595.693657	0.049862
595.904069	0.050179
596.114462	0.050372
596.324838	0.050408
596.535195	0.050455
596.745534	0.050909
596.955855	0.050711
597.166157	0.050926
597.376441	0.050951
597.586707	0.051127
597.796955	0.051096
598.007185	0.051311
598.217396	0.051449
598.427589	0.051607
598.637764	0.051812
598.847921	0.052120
599.058060	0.052153
599.268180	0.052540
599.478282	0.052739
599.688366	0.053122
599.898431	0.053171
600.108479	0.053263
600.318508	0.053628
600.528519	0.053414
600.738511	0.053508
600.948486	0.053884
601.158442	0.054018
601.368380	0.054010
601.578300	0.053887
601.788202	0.053886
601.998085	0.053680
602.207950	0.053718
602.417797	0.053863
602.627626	0.053864
602.837436	0.053662
603.047228	0.053695
603.257002	0.054019
603.466758	0.054260
603.676496	0.054438
603.886215	0.054799
604.095916	0.054875
604.305599	0.054824
604.515264	0.055041
604.724910	0.055267
604.934538	0.055177
605.144148	0.055203
605.353740	0.055208
605.563314	0.055281
605.772869	0.054886
605.982406	0.054779
606.191925	0.055188
606.401425	0.055429
606.610908	0.055377
606.820372	0.055629
607.029818	0.055430
607.239246	0.055624
607.448655	0.055667
607.658047	0.056203
607.867420	0.056210
608.076775	0.056242
608.286111	0.055898
608.495430	0.056167
608.704730	0.056061
608.914012	0.056370
609.123275	0.056356
609.332521	0.056259
609.541748	0.056291
609.750957	0.056469
609.960148	0.056571
610.169321	0.056660
610.378475	0.056695
610.587611	0.056954
610.796729	0.057222
611.005829	0.057716
611.214910	0.057990
611.423974	0.058187
611.633019	0.058289
611.842045	0.058342
612.051054	0.058465
612.260044	0.058642
612.469017	0.058778
612.677970	0.058718
612.886906	0.058602
613.095824	0.059061
613.304723	0.059173
613.513604	0.059487
613.722467	0.059472
613.931311	0.059963
614.140138	0.060038
614.348946	0.060148
614.557736	0.060293
614.766507	0.060447
614.975261	0.059967
615.183996	0.059732
615.392713	0.059923
615.601412	0.060342
615.810092	0.060334
616.018754	0.060539
616.227399	0.060751
616.436024	0.060742
616.644632	0.060771
616.853222	0.061339
617.061793	0.061608
617.270346	0.061174
617.478880	0.061254
617.687397	0.061046
617.895895	0.060855
618.104375	0.060657
618.312837	0.060720
618.521281	0.060756
618.729706	0.060612
618.938113	0.060786
619.146502	0.061387
619.354873	0.061260
619.563226	0.061484
619.771560	0.061622
619.979876	0.061811
620.188174	0.062041
620.396453	0.062296
620.604715	0.062556
620.812958	0.062576
621.021183	0.062600
621.229390	0.062500
621.437578	0.062627
621.645748	0.062498
621.853900	0.062591
622.062034	0.062488
622.270150	0.062278
622.478247	0.062214
622.686326	0.062420
622.894387	0.062594
623.102430	0.062807
623.310454	0.062938
623.518461	0.063228
623.726449	0.063377
623.934418	0.063505
624.142370	0.063919
624.350303	0.064252
624.558218	0.064232
624.766115	0.063787
624.973994	0.063858
625.181855	0.063642
625.389697	0.063497
625.597521	0.063392
625.805327	0.063674
626.013114	0.063656
626.220883	0.063556
626.428634	0.063747
626.636367	0.064270
626.844082	0.064682
627.051778	0.065284
627.259457	0.065760
627.467117	0.066124
627.674758	0.066159
627.882382	0.066390
628.089987	0.066553
628.297574	0.066608
628.505143	0.066819
628.712694	0.066862
628.920226	0.066909
629.127740	0.067141
629.335236	0.067555
629.542714	0.067753
629.750174	0.067766
629.957615	0.067869
630.165038	0.068077
630.372443	0.067879
630.579829	0.067866
630.787198	0.067837
630.994548	0.067609
631.201880	0.067481
631.409194	0.067446
631.616489	0.067421
631.823766	0.067597
632.031025	0.067515
632.238266	0.067911
632.445489	0.067914
632.652693	0.067979
632.859879	0.068085
633.067047	0.067949
633.274197	0.068108
633.481329	0.068150
633.688442	0.068293
633.895537	0.068524
634.102614	0.068549
634.309672	0.068950
634.516713	0.069062
634.723735	0.069284
634.930739	0.069477
635.137724	0.069384
635.344692	0.069535
635.551641	0.069542
635.758572	0.069405
635.965485	0.069336
636.172379	0.069146
636.379256	0.069430
636.586114	0.069662
636.792954	0.069875
636.999775	0.070053
637.206579	0.070437
637.413364	0.070579
637.620131	0.070899
637.826880	0.071173
638.033610	0.071369
638.240323	0.071366
638.447017	0.071507
638.653692	0.071673
638.860350	0.071955
639.066990	0.071969
639.273611	0.071976
639.480214	0.072168
639.686798	0.072154
639.893365	0.072170
640.099913	0.072123
640.306443	0.072126
640.512955	0.072012
640.719449	0.071913
640.925924	0.071826
641.132381	0.071892
641.338820	0.071678
641.545241	0.071745
641.751644	0.071718
641.958028	0.071737
642.164394	0.071802
642.370742	0.071841
642.577071	0.071825
642.783383	0.071992
642.989676	0.072314
643.195951	0.072665
643.402207	0.072741
643.608446	0.072773
643.814666	0.073092
644.020868	0.073219
644.227052	0.073405
644.433218	0.073507
644.639365	0.073656
644.845494	0.073785
645.051605	0.073935
645.257698	0.074040
645.463772	0.074330
645.669828	0.074357
645.875866	0.074357
646.081886	0.074640
646.287888	0.074966
646.493871	0.075030
646.699836	0.074981
646.905783	0.074911
647.111712	0.074955
647.317622	0.075161
647.523514	0.075269
647.729388	0.075617
647.935244	0.075603
648.141082	0.075739
648.346901	0.075753
648.552702	0.075745
648.758485	0.075976
648.964250	0.075981
649.169996	0.076013
649.375724	0.076194
649.581434	0.075987
649.787126	0.075892
649.992800	0.075834
650.198455	0.076015
650.404092	0.076259
650.609711	0.076160
650.815311	0.076523
651.020894	0.076649
651.226458	0.076647
651.432004	0.076821
651.637532	0.076987
651.843041	0.077188
652.048532	0.077313
652.254006	0.077236
652.459460	0.077528
652.664897	0.077685
652.870315	0.077809
653.075716	0.078134
653.281097	0.078267
653.486461	0.078529
653.691807	0.078556
653.897134	0.078696
654.102443	0.079085
654.307734	0.079064
654.513006	0.079211
654.718261	0.079333
654.923497	0.079332
655.128715	0.079479
655.333915	0.079442
655.539096	0.079731
655.744259	0.079699
655.949404	0.079742
656.154531	0.080059
656.359640	0.080164
656.564730	0.080295
656.769802	0.080399
656.974856	0.080542
657.179892	0.080872
657.384909	0.080960
657.589908	0.081208
657.794889	0.081478
657.999852	0.081523
658.204797	0.081617
658.409723	0.081724
658.614631	0.081815
658.819521	0.081982
659.024393	0.081877
659.229246	0.081991
659.434081	0.082030
659.638898	0.082002
659.843697	0.082147
660.048478	0.082122
660.253240	0.082506
660.457984	0.082713
660.662710	0.082599
660.867417	0.082793
661.072107	0.082868
661.276778	0.083054
661.481431	0.082886
661.686066	0.083039
661.890682	0.083328
662.095281	0.083196
662.299861	0.083052
662.504422	0.083292
662.708966	0.083641
662.913491	0.083706
663.117999	0.083856
663.322488	0.084310
663.526958	0.084135
663.731411	0.084113
663.935845	0.084303
664.140261	0.084527
664.344659	0.084723
664.549038	0.084883
664.753400	0.084903
664.957743	0.084883
665.162068	0.084971
665.366375	0.085179
665.570663	0.085433
665.774933	0.085573
665.979185	0.085819
666.183419	0.085971
666.387635	0.086133
666.591832	0.086532
666.796011	0.086876
667.000172	0.087004
667.204315	0.087222
667.408439	0.087430
667.612545	0.087630
667.816634	0.087645
668.020703	0.087641
668.224755	0.087569
668.428788	0.087820
668.632803	0.087986
668.836800	0.088203
669.040779	0.088690
669.244739	0.088829
669.448681	0.088839
669.652605	0.089160
669.856511	0.089410
670.060399	0.089467
670.264268	0.089463
670.468119	0.089375
670.671952	0.089463
670.875767	0.089167
671.079563	0.089133
671.283341	0.089267
671.487101	0.089370
671.690843	0.089332
671.894567	0.089435
672.098272	0.089480
672.301959	0.089499
672.505628	0.089585
672.709278	0.089847
672.912911	0.089989
673.116525	0.090180
673.320121	0.090185
673.523699	0.090440
673.727258	0.090702
673.930799	0.090920
674.134322	0.091159
674.337827	0.091369
674.541314	0.091535
674.744782	0.091634
674.948232	0.091674
675.151664	0.091908
675.355078	0.091954
675.558474	0.092031
675.761851	0.092017
675.965210	0.092192
676.168551	0.092109
676.371873	0.092179
676.575178	0.092319
676.778464	0.092416
676.981732	0.092353
677.184981	0.092541
677.388213	0.092685
677.591426	0.092811
677.794621	0.093093
677.997798	0.093331
678.200956	0.093548
678.404097	0.093816
678.607219	0.094106
678.810323	0.094403
679.013408	0.094623
679.216476	0.094831
679.419525	0.095139
679.622556	0.095166
679.825569	0.095312
680.028563	0.095426
680.231540	0.095350
680.434498	0.095411
680.637438	0.095458
680.840359	0.095416
681.043263	0.095409
681.246148	0.095413
681.449015	0.095507
681.651864	0.095548
681.854694	0.095696
682.057506	0.095898
682.260301	0.095889
682.463076	0.095864
682.665834	0.096061
682.868573	0.096190
683.071295	0.096328
683.273998	0.096372
683.476682	0.096418
683.679349	0.096467
683.881997	0.096565
684.084627	0.096757
684.287239	0.096935
684.489833	0.097153
684.692408	0.097227
684.894965	0.097235
685.097504	0.097387
685.300025	0.097517
685.502527	0.097514
685.705012	0.097633
685.907478	0.097603
686.109925	0.097979
686.312355	0.097929
686.514766	0.098064
686.717159	0.098353
686.919534	0.098534
687.121891	0.098690
687.324230	0.098999
687.526550	0.099339
687.728852	0.099611
687.931136	0.099690
688.133401	0.100005
688.335649	0.100210
688.537878	0.100169
688.740089	0.100387
688.942281	0.100489
689.144456	0.100525
689.346612	0.100431
689.548750	0.100622
689.750870	0.100757
689.952971	0.100914
690.155055	0.101139
690.357120	0.101500
690.559167	0.101486
690.761195	0.101686
690.963206	0.101906
691.165198	0.102086
691.367172	0.102190
691.569128	0.102114
691.771065	0.102218
691.972984	0.102146
692.174885	0.102242
692.376768	0.102251
692.578633	0.102328
692.780479	0.102203
692.982308	0.102227
693.184118	0.102083
693.385909	0.102180
