sample name	sample
index	1289
start time	 04-29-2021  03:03:41 PM


Wavelength (nm)	Absorbance
494.344910	-0.109985
494.563924	-0.109985
494.782919	-0.109985
495.001897	-0.049016
495.220856	-0.061793
495.439797	-0.058111
495.658719	-0.061323
495.877624	-0.044819
496.096510	-0.022775
496.315378	-0.044816
496.534227	-0.013739
496.753059	-0.025389
496.971872	-0.052723
497.190667	0.090142
497.409444	0.106456
497.628203	0.109457
497.846943	0.109256
498.065665	0.109549
498.284369	0.112252
498.503055	0.112880
498.721723	0.112452
498.940372	0.112704
499.159003	0.112804
499.377616	0.113484
499.596210	0.114820
499.814787	0.115203
500.033345	0.115516
500.251885	0.113843
500.470406	0.113922
500.688910	0.114549
500.907395	0.115883
501.125862	0.116396
501.344311	0.115860
501.562742	0.115386
501.781154	0.116053
501.999548	0.116158
502.217924	0.117224
502.436282	0.116474
502.654621	0.116495
502.872942	0.116703
503.091245	0.116891
503.309530	0.116508
503.527797	0.115917
503.746045	0.114797
503.964275	0.115526
504.182487	0.115420
504.400681	0.115603
504.618856	0.115533
504.837013	0.114368
505.055152	0.114439
505.273273	0.115053
505.491376	0.114898
505.709460	0.115132
505.927526	0.114271
506.145574	0.114441
506.363604	0.114949
506.581615	0.115303
506.799608	0.116943
507.017583	0.117039
507.235540	0.116850
507.453478	0.116573
507.671399	0.117259
507.889301	0.117556
508.107185	0.118105
508.325050	0.117922
508.542898	0.117146
508.760727	0.116804
508.978538	0.117194
509.196330	0.117652
509.414105	0.118662
509.631861	0.119149
509.849599	0.119325
510.067319	0.119612
510.285021	0.119491
510.502704	0.120346
510.720369	0.120709
510.938016	0.120796
511.155645	0.120828
511.373255	0.120366
511.590848	0.120552
511.808422	0.120166
512.025977	0.119458
512.243515	0.119978
512.461034	0.119513
512.678536	0.118797
512.896018	0.118041
513.113483	0.118176
513.330930	0.119064
513.548358	0.118416
513.765768	0.119311
513.983160	0.119549
514.200533	0.120586
514.417889	0.122139
514.635226	0.123031
514.852545	0.124167
515.069845	0.125308
515.287128	0.124930
515.504392	0.125612
515.721638	0.124797
515.938866	0.124889
516.156075	0.123880
516.373267	0.123518
516.590440	0.122838
516.807594	0.122332
517.024731	0.122191
517.241850	0.122587
517.458950	0.123151
517.676032	0.123887
517.893095	0.124479
518.110141	0.125496
518.327168	0.125519
518.544177	0.126600
518.761168	0.127461
518.978141	0.127519
519.195095	0.127927
519.412031	0.127994
519.628949	0.128737
519.845849	0.128511
520.062731	0.128377
520.279594	0.128909
520.496439	0.129404
520.713266	0.130065
520.930074	0.129898
521.146865	0.130431
521.363637	0.130221
521.580391	0.131064
521.797127	0.131456
522.013844	0.131919
522.230543	0.132560
522.447224	0.132369
522.663887	0.131507
522.880532	0.132605
523.097158	0.132495
523.313766	0.133167
523.530356	0.132705
523.746928	0.133647
523.963481	0.133566
524.180017	0.134145
524.396534	0.134900
524.613032	0.136252
524.829513	0.135956
525.045975	0.136701
525.262420	0.136892
525.478845	0.138111
525.695253	0.137904
525.911643	0.138789
526.128014	0.138762
526.344367	0.138576
526.560702	0.138300
526.777018	0.138211
526.993316	0.138024
527.209597	0.138651
527.425858	0.138604
527.642102	0.139635
527.858328	0.139126
528.074535	0.139003
528.290724	0.139429
528.506894	0.140226
528.723047	0.140631
528.939181	0.141123
529.155297	0.141463
529.371395	0.141976
529.587475	0.141858
529.803536	0.142734
530.019579	0.143161
530.235604	0.143595
530.451611	0.144067
530.667600	0.145000
530.883570	0.145625
531.099522	0.145486
531.315456	0.145901
531.531372	0.146279
531.747269	0.146654
531.963148	0.147350
532.179009	0.147488
532.394852	0.147923
532.610676	0.148222
532.826482	0.148825
533.042271	0.149294
533.258040	0.149354
533.473792	0.149462
533.689525	0.150054
533.905240	0.150512
534.120937	0.150808
534.336616	0.151087
534.552277	0.151196
534.767919	0.150948
534.983543	0.151718
535.199149	0.151995
535.414736	0.152475
535.630306	0.152585
535.845857	0.152572
536.061390	0.153000
536.276904	0.152791
536.492401	0.153296
536.707879	0.153693
536.923339	0.153943
537.138781	0.154002
537.354204	0.154225
537.569610	0.154766
537.784997	0.155210
538.000366	0.155892
538.215716	0.156836
538.431049	0.156973
538.646363	0.157243
538.861659	0.157641
539.076937	0.158081
539.292196	0.158329
539.507438	0.158920
539.722661	0.158716
539.937866	0.159276
540.153052	0.158766
540.368221	0.159300
540.583371	0.160003
540.798503	0.160286
541.013617	0.160794
541.228712	0.160668
541.443789	0.160068
541.658848	0.159839
541.873889	0.159402
542.088912	0.160184
542.303916	0.159790
542.518902	0.159951
542.733870	0.160101
542.948820	0.159332
543.163752	0.159794
543.378665	0.160518
543.593560	0.161518
543.808437	0.162127
544.023295	0.162177
544.238136	0.162645
544.452958	0.162714
544.667762	0.162712
544.882548	0.163364
545.097315	0.164048
545.312064	0.164296
545.526795	0.164104
545.741508	0.163914
545.956203	0.163973
546.170879	0.164472
546.385537	0.164843
546.600177	0.165409
546.814799	0.166302
547.029402	0.166545
547.243988	0.166395
547.458555	0.167286
547.673103	0.167837
547.887634	0.168072
548.102146	0.167670
548.316640	0.167524
548.531116	0.167239
548.745574	0.167133
548.960013	0.167180
549.174435	0.167733
549.388838	0.167822
549.603222	0.167880
549.817589	0.168328
550.031937	0.169119
550.246267	0.169706
550.460579	0.170292
550.674873	0.170527
550.889148	0.170859
551.103405	0.171019
551.317644	0.170999
551.531865	0.171070
551.746068	0.170550
551.960252	0.170938
552.174418	0.170778
552.388566	0.171051
552.602696	0.171004
552.816807	0.171291
553.030900	0.171645
553.244975	0.172076
553.459032	0.172404
553.673070	0.173628
553.887091	0.173297
554.101093	0.173974
554.315077	0.174194
554.529042	0.174601
554.742990	0.174825
554.956919	0.174786
555.170830	0.175057
555.384722	0.174991
555.598597	0.174798
555.812453	0.175419
556.026291	0.175644
556.240111	0.175597
556.453913	0.175603
556.667696	0.175374
556.881461	0.175173
557.095208	0.174636
557.308937	0.175227
557.522647	0.175097
557.736339	0.175128
557.950013	0.174553
558.163669	0.174369
558.377307	0.174558
558.590926	0.174532
558.804527	0.174988
559.018110	0.175412
559.231675	0.175066
559.445221	0.174984
559.658749	0.175050
559.872259	0.175277
560.085751	0.175895
560.299225	0.176496
560.512680	0.177148
560.726117	0.177034
560.939536	0.177116
561.152937	0.177557
561.366319	0.178040
561.579683	0.178030
561.793029	0.178562
562.006357	0.178803
562.219667	0.178341
562.432958	0.178295
562.646231	0.178944
562.859486	0.179212
563.072723	0.179344
563.285941	0.179776
563.499141	0.180621
563.712323	0.180261
563.925487	0.180296
564.138632	0.180824
564.351760	0.181159
564.564869	0.180913
564.777960	0.181250
564.991032	0.181404
565.204087	0.181206
565.417123	0.181022
565.630141	0.181517
565.843140	0.181832
566.056122	0.181848
566.269085	0.182171
566.482030	0.182142
566.694957	0.182174
566.907866	0.182416
567.120756	0.182271
567.333628	0.182504
567.546482	0.182937
567.759318	0.182751
567.972135	0.182823
568.184935	0.182224
568.397716	0.182516
568.610478	0.182283
568.823223	0.182074
569.035949	0.182337
569.248657	0.182209
569.461347	0.181470
569.674019	0.181612
569.886672	0.181590
570.099308	0.181626
570.311925	0.181520
570.524523	0.181882
570.737104	0.181921
570.949666	0.182144
571.162210	0.182090
571.374736	0.182707
571.587244	0.183004
571.799733	0.183063
572.012205	0.183097
572.224658	0.183312
572.437092	0.183222
572.649509	0.183397
572.861907	0.183580
573.074287	0.183412
573.286649	0.183519
573.498993	0.183418
573.711318	0.183324
573.923625	0.183808
574.135914	0.183903
574.348185	0.184128
574.560438	0.184578
574.772672	0.184472
574.984888	0.185090
575.197086	0.185228
575.409266	0.185193
575.621427	0.185738
575.833570	0.185828
576.045695	0.186219
576.257802	0.186490
576.469890	0.186477
576.681961	0.186871
576.894013	0.186951
577.106046	0.186939
577.318062	0.187150
577.530059	0.187074
577.742039	0.187027
577.954000	0.187048
578.165942	0.186946
578.377867	0.187067
578.589773	0.186955
578.801661	0.186913
579.013531	0.186736
579.225382	0.186726
579.437216	0.186937
579.649031	0.187231
579.860828	0.187334
580.072606	0.187642
580.284367	0.187683
580.496109	0.187984
580.707833	0.188122
580.919539	0.188474
581.131227	0.188818
581.342896	0.188700
581.554547	0.189006
581.766180	0.188978
581.977795	0.189373
582.189391	0.189988
582.400969	0.189639
582.612529	0.189777
582.824071	0.190127
583.035595	0.190208
583.247100	0.190980
583.458587	0.190743
583.670056	0.191342
583.881506	0.191385
584.092939	0.191296
584.304353	0.191758
584.515749	0.191733
584.727127	0.191959
584.938486	0.192049
585.149828	0.191638
585.361151	0.192226
585.572456	0.192237
585.783742	0.192392
585.995011	0.192354
586.206261	0.192348
586.417493	0.192961
586.628706	0.193258
586.839902	0.193533
587.051079	0.193466
587.262238	0.193337
587.473379	0.193664
587.684502	0.193487
587.895606	0.193727
588.106692	0.194462
588.317760	0.194227
588.528810	0.193940
588.739841	0.193915
588.950855	0.194387
589.161850	0.194611
589.372827	0.194557
589.583785	0.195027
589.794726	0.195282
590.005648	0.195301
590.216552	0.195699
590.427437	0.196415
590.638305	0.196518
590.849154	0.196699
591.059985	0.197214
591.270798	0.197534
591.481592	0.197757
591.692369	0.197647
591.903127	0.197707
592.113867	0.197906
592.324588	0.197236
592.535292	0.197575
592.745977	0.197766
592.956644	0.197703
593.167293	0.197865
593.377923	0.198222
593.588536	0.198439
593.799130	0.198551
594.009706	0.198566
594.220263	0.199268
594.430803	0.199598
594.641324	0.200226
594.851827	0.200031
595.062312	0.200217
595.272778	0.199951
595.483227	0.199909
595.693657	0.199931
595.904069	0.199887
596.114462	0.200002
596.324838	0.200228
596.535195	0.200086
596.745534	0.200577
596.955855	0.200654
597.166157	0.200911
597.376441	0.201345
597.586707	0.201432
597.796955	0.201861
598.007185	0.202076
598.217396	0.201783
598.427589	0.201665
598.637764	0.201514
598.847921	0.201491
599.058060	0.201521
599.268180	0.201486
599.478282	0.201803
599.688366	0.201668
599.898431	0.201805
600.108479	0.202149
600.318508	0.202618
600.528519	0.202946
600.738511	0.202823
600.948486	0.203123
601.158442	0.203591
601.368380	0.203676
601.578300	0.203829
601.788202	0.203691
601.998085	0.204187
602.207950	0.203939
602.417797	0.204390
602.627626	0.204926
602.837436	0.205074
603.047228	0.205144
603.257002	0.205729
603.466758	0.206212
603.676496	0.206505
603.886215	0.206429
604.095916	0.206920
604.305599	0.206761
604.515264	0.206962
604.724910	0.207122
604.934538	0.207013
605.144148	0.206856
605.353740	0.206694
605.563314	0.206898
605.772869	0.207253
605.982406	0.207501
606.191925	0.207750
606.401425	0.207681
606.610908	0.207561
606.820372	0.207819
607.029818	0.208126
607.239246	0.208501
607.448655	0.208191
607.658047	0.207836
607.867420	0.207766
608.076775	0.207964
608.286111	0.208215
608.495430	0.208218
608.704730	0.208211
608.914012	0.208263
609.123275	0.208356
609.332521	0.209096
609.541748	0.209294
609.750957	0.209501
609.960148	0.209628
610.169321	0.209627
610.378475	0.210180
610.587611	0.210622
610.796729	0.210777
611.005829	0.210696
611.214910	0.211181
611.423974	0.211596
611.633019	0.211544
611.842045	0.211459
612.051054	0.211715
612.260044	0.211562
612.469017	0.211596
612.677970	0.211735
612.886906	0.212257
613.095824	0.212118
613.304723	0.212124
613.513604	0.212023
613.722467	0.212101
613.931311	0.212252
614.140138	0.212509
614.348946	0.212415
614.557736	0.212626
614.766507	0.212348
614.975261	0.212179
615.183996	0.212011
615.392713	0.212656
615.601412	0.212882
615.810092	0.213326
616.018754	0.213513
616.227399	0.213964
616.436024	0.214261
616.644632	0.214754
616.853222	0.214899
617.061793	0.214901
617.270346	0.214822
617.478880	0.214971
617.687397	0.214705
617.895895	0.214949
618.104375	0.215028
618.312837	0.214740
618.521281	0.214669
618.729706	0.214852
618.938113	0.215247
619.146502	0.215211
619.354873	0.215167
619.563226	0.215069
619.771560	0.214980
619.979876	0.214737
620.188174	0.214908
620.396453	0.215082
620.604715	0.215074
620.812958	0.215221
621.021183	0.215474
621.229390	0.215774
621.437578	0.215996
621.645748	0.216065
621.853900	0.216176
622.062034	0.216034
622.270150	0.215978
622.478247	0.216152
622.686326	0.216174
622.894387	0.216287
623.102430	0.216196
623.310454	0.216312
623.518461	0.216463
623.726449	0.216643
623.934418	0.216821
624.142370	0.217032
624.350303	0.217165
624.558218	0.217221
624.766115	0.217355
624.973994	0.217647
625.181855	0.217756
625.389697	0.218002
625.597521	0.218149
625.805327	0.218548
626.013114	0.218854
626.220883	0.219362
626.428634	0.219601
626.636367	0.219663
626.844082	0.220012
627.051778	0.220511
627.259457	0.220578
627.467117	0.221044
627.674758	0.221213
627.882382	0.221294
628.089987	0.221259
628.297574	0.221688
628.505143	0.221984
628.712694	0.222136
628.920226	0.221928
629.127740	0.222239
629.335236	0.222318
629.542714	0.222346
629.750174	0.222286
629.957615	0.222017
630.165038	0.221644
630.372443	0.221567
630.579829	0.221289
630.787198	0.221551
630.994548	0.221585
631.201880	0.221696
631.409194	0.221785
631.616489	0.222025
631.823766	0.222232
632.031025	0.222648
632.238266	0.222700
632.445489	0.223149
632.652693	0.223320
632.859879	0.223469
633.067047	0.223411
633.274197	0.223578
633.481329	0.223810
633.688442	0.224184
633.895537	0.224113
634.102614	0.224427
634.309672	0.224569
634.516713	0.224835
634.723735	0.224699
634.930739	0.225023
635.137724	0.225245
635.344692	0.225391
635.551641	0.225421
635.758572	0.225844
635.965485	0.225781
636.172379	0.225828
636.379256	0.225873
636.586114	0.226190
636.792954	0.226363
636.999775	0.226577
637.206579	0.226581
637.413364	0.226915
637.620131	0.227007
637.826880	0.227605
638.033610	0.227594
638.240323	0.227547
638.447017	0.227585
638.653692	0.227506
638.860350	0.227526
639.066990	0.227973
639.273611	0.228080
639.480214	0.228167
639.686798	0.228243
639.893365	0.228590
640.099913	0.228898
640.306443	0.229122
640.512955	0.229249
640.719449	0.229301
640.925924	0.229147
641.132381	0.229171
641.338820	0.229515
641.545241	0.229447
641.751644	0.229429
641.958028	0.229657
642.164394	0.229803
642.370742	0.230015
642.577071	0.230329
642.783383	0.230516
642.989676	0.230725
643.195951	0.230892
643.402207	0.231049
643.608446	0.231394
643.814666	0.231542
644.020868	0.231928
644.227052	0.232077
644.433218	0.232213
644.639365	0.232323
644.845494	0.232618
645.051605	0.232586
645.257698	0.232789
645.463772	0.232794
645.669828	0.232928
645.875866	0.232733
646.081886	0.232702
646.287888	0.232646
646.493871	0.232818
646.699836	0.232840
646.905783	0.232998
647.111712	0.233104
647.317622	0.233225
647.523514	0.233123
647.729388	0.233616
647.935244	0.233896
648.141082	0.234095
648.346901	0.234386
648.552702	0.234706
648.758485	0.234838
648.964250	0.235040
649.169996	0.235183
649.375724	0.235688
649.581434	0.235830
649.787126	0.236282
649.992800	0.236798
650.198455	0.237052
650.404092	0.237163
650.609711	0.237581
650.815311	0.237927
651.020894	0.238241
651.226458	0.238263
651.432004	0.238339
651.637532	0.238530
651.843041	0.238472
652.048532	0.238548
652.254006	0.238710
652.459460	0.238522
652.664897	0.238567
652.870315	0.238797
653.075716	0.238801
653.281097	0.238774
653.486461	0.238858
653.691807	0.238963
653.897134	0.239167
654.102443	0.238848
654.307734	0.239314
654.513006	0.239400
654.718261	0.239576
654.923497	0.239985
655.128715	0.240618
655.333915	0.240979
655.539096	0.241370
655.744259	0.241494
655.949404	0.242058
656.154531	0.242214
656.359640	0.242476
656.564730	0.242477
656.769802	0.242581
656.974856	0.242567
657.179892	0.242568
657.384909	0.242888
657.589908	0.242932
657.794889	0.243162
657.999852	0.243626
658.204797	0.243752
658.409723	0.244263
658.614631	0.244378
658.819521	0.244637
659.024393	0.244943
659.229246	0.245141
659.434081	0.245395
659.638898	0.245736
659.843697	0.245893
660.048478	0.246226
660.253240	0.246470
660.457984	0.246613
660.662710	0.246835
660.867417	0.246984
661.072107	0.246937
661.276778	0.247260
661.481431	0.247191
661.686066	0.247115
661.890682	0.247132
662.095281	0.247292
662.299861	0.247815
662.504422	0.247969
662.708966	0.248291
662.913491	0.248866
663.117999	0.249174
663.322488	0.249745
663.526958	0.249909
663.731411	0.250561
663.935845	0.250790
664.140261	0.251083
664.344659	0.251142
664.549038	0.251130
664.753400	0.251107
664.957743	0.251237
665.162068	0.251071
665.366375	0.251482
665.570663	0.251189
665.774933	0.251186
665.979185	0.251057
666.183419	0.251175
666.387635	0.251216
666.591832	0.251309
666.796011	0.251372
667.000172	0.251602
667.204315	0.251490
667.408439	0.251778
667.612545	0.252140
667.816634	0.252421
668.020703	0.252765
668.224755	0.253114
668.428788	0.253246
668.632803	0.253613
668.836800	0.253862
669.040779	0.254396
669.244739	0.254654
669.448681	0.254576
669.652605	0.254705
669.856511	0.254650
670.060399	0.254820
670.264268	0.255178
670.468119	0.255095
670.671952	0.255224
670.875767	0.255317
671.079563	0.255611
671.283341	0.255810
671.487101	0.256143
671.690843	0.256625
671.894567	0.257064
672.098272	0.257184
672.301959	0.257540
672.505628	0.257723
672.709278	0.257830
672.912911	0.257964
673.116525	0.258108
673.320121	0.258197
673.523699	0.258315
673.727258	0.258393
673.930799	0.258508
674.134322	0.258649
674.337827	0.258881
674.541314	0.258992
674.744782	0.259385
674.948232	0.259778
675.151664	0.260089
675.355078	0.260288
675.558474	0.260643
675.761851	0.261082
675.965210	0.261148
676.168551	0.261438
676.371873	0.261385
676.575178	0.261451
676.778464	0.261598
676.981732	0.261450
677.184981	0.261636
677.388213	0.261904
677.591426	0.261957
677.794621	0.262303
677.997798	0.262643
678.200956	0.263062
678.404097	0.263499
678.607219	0.263849
678.810323	0.264049
679.013408	0.264267
679.216476	0.264340
679.419525	0.264478
679.622556	0.264820
679.825569	0.265112
680.028563	0.265331
680.231540	0.265498
680.434498	0.265639
680.637438	0.266136
680.840359	0.266346
681.043263	0.266257
681.246148	0.266448
681.449015	0.266686
681.651864	0.266511
681.854694	0.266656
682.057506	0.266591
682.260301	0.266641
682.463076	0.266738
682.665834	0.266831
682.868573	0.267186
683.071295	0.267533
683.273998	0.267792
683.476682	0.268126
683.679349	0.268508
683.881997	0.268484
684.084627	0.268947
684.287239	0.269015
684.489833	0.269168
684.692408	0.269313
684.894965	0.269367
685.097504	0.269410
685.300025	0.269465
685.502527	0.269471
685.705012	0.269870
685.907478	0.269737
686.109925	0.269795
686.312355	0.269959
686.514766	0.270092
686.717159	0.270323
686.919534	0.270500
687.121891	0.270787
687.324230	0.271028
687.526550	0.271207
687.728852	0.271682
687.931136	0.271970
688.133401	0.272201
688.335649	0.272654
688.537878	0.272798
688.740089	0.272940
688.942281	0.273062
689.144456	0.273210
689.346612	0.273097
689.548750	0.273065
689.750870	0.273363
689.952971	0.273483
690.155055	0.273373
690.357120	0.273505
690.559167	0.273448
690.761195	0.273385
690.963206	0.273584
691.165198	0.273812
691.367172	0.273925
691.569128	0.274120
691.771065	0.274178
691.972984	0.274280
692.174885	0.274291
692.376768	0.274396
692.578633	0.274630
692.780479	0.274742
692.982308	0.274872
693.184118	0.274894
