sample name	sample
index	176
start time	 02-18-2021  10:59:08 AM


Wavelength (nm)	Absorbance
494.344910	-0.022500
494.563924	-0.022500
494.782919	-0.022500
495.001897	0.180558
495.220856	0.009373
495.439797	0.010132
495.658719	0.020151
495.877624	0.018975
496.096510	0.026517
496.315378	-0.013849
496.534227	-0.011263
496.753059	0.002007
496.971872	0.025592
497.190667	0.130761
497.409444	0.152592
497.628203	0.161225
497.846943	0.167892
498.065665	0.170073
498.284369	0.172107
498.503055	0.172502
498.721723	0.174364
498.940372	0.176772
499.159003	0.177235
499.377616	0.179714
499.596210	0.179915
499.814787	0.179461
500.033345	0.179604
500.251885	0.181229
500.470406	0.181851
500.688910	0.182016
500.907395	0.182182
501.125862	0.182365
501.344311	0.180556
501.562742	0.181026
501.781154	0.181376
501.999548	0.181229
502.217924	0.180460
502.436282	0.181889
502.654621	0.181949
502.872942	0.180574
503.091245	0.180961
503.309530	0.181947
503.527797	0.182064
503.746045	0.183020
503.964275	0.183916
504.182487	0.184061
504.400681	0.183382
504.618856	0.184229
504.837013	0.184145
505.055152	0.184715
505.273273	0.185634
505.491376	0.185695
505.709460	0.185747
505.927526	0.185225
506.145574	0.185554
506.363604	0.185432
506.581615	0.184647
506.799608	0.185092
507.017583	0.184922
507.235540	0.185728
507.453478	0.186751
507.671399	0.185720
507.889301	0.185978
508.107185	0.186581
508.325050	0.187153
508.542898	0.187656
508.760727	0.188041
508.978538	0.188712
509.196330	0.188326
509.414105	0.188377
509.631861	0.188283
509.849599	0.188023
510.067319	0.188148
510.285021	0.187656
510.502704	0.188214
510.720369	0.187171
510.938016	0.187100
511.155645	0.186941
511.373255	0.187564
511.590848	0.188694
511.808422	0.188868
512.025977	0.187535
512.243515	0.187950
512.461034	0.188259
512.678536	0.189852
512.896018	0.189481
513.113483	0.190008
513.330930	0.190000
513.548358	0.190058
513.765768	0.191148
513.983160	0.192571
514.200533	0.194098
514.417889	0.193828
514.635226	0.193073
514.852545	0.193460
515.069845	0.193571
515.287128	0.193088
515.504392	0.193615
515.721638	0.193100
515.938866	0.193304
516.156075	0.192454
516.373267	0.192663
516.590440	0.193347
516.807594	0.193248
517.024731	0.193218
517.241850	0.192709
517.458950	0.192697
517.676032	0.193311
517.893095	0.193912
518.110141	0.193922
518.327168	0.194175
518.544177	0.194490
518.761168	0.195306
518.978141	0.195899
519.195095	0.196584
519.412031	0.196247
519.628949	0.196792
519.845849	0.196922
520.062731	0.197523
520.279594	0.197607
520.496439	0.197714
520.713266	0.197851
520.930074	0.197872
521.146865	0.198118
521.363637	0.198517
521.580391	0.198603
521.797127	0.199516
522.013844	0.199919
522.230543	0.200847
522.447224	0.201234
522.663887	0.201724
522.880532	0.202156
523.097158	0.202447
523.313766	0.203817
523.530356	0.203536
523.746928	0.203107
523.963481	0.203611
524.180017	0.203859
524.396534	0.204290
524.613032	0.204248
524.829513	0.203863
525.045975	0.204644
525.262420	0.204703
525.478845	0.205461
525.695253	0.205418
525.911643	0.205395
526.128014	0.205104
526.344367	0.204909
526.560702	0.205313
526.777018	0.205746
526.993316	0.206573
527.209597	0.205889
527.425858	0.205603
527.642102	0.205763
527.858328	0.206299
528.074535	0.206028
528.290724	0.206462
528.506894	0.206410
528.723047	0.206996
528.939181	0.206433
529.155297	0.207170
529.371395	0.207437
529.587475	0.207877
529.803536	0.207999
530.019579	0.209253
530.235604	0.209997
530.451611	0.210541
530.667600	0.210534
530.883570	0.210620
531.099522	0.211059
531.315456	0.211767
531.531372	0.212768
531.747269	0.213310
531.963148	0.213112
532.179009	0.213046
532.394852	0.213045
532.610676	0.213678
532.826482	0.214419
533.042271	0.214543
533.258040	0.214880
533.473792	0.214453
533.689525	0.214643
533.905240	0.215141
534.120937	0.215431
534.336616	0.215495
534.552277	0.215662
534.767919	0.215871
534.983543	0.216694
535.199149	0.217512
535.414736	0.218204
535.630306	0.218515
535.845857	0.218522
536.061390	0.219599
536.276904	0.220264
536.492401	0.221143
536.707879	0.221443
536.923339	0.221573
537.138781	0.221699
537.354204	0.221563
537.569610	0.222246
537.784997	0.223246
538.000366	0.223434
538.215716	0.223947
538.431049	0.224239
538.646363	0.223876
538.861659	0.223678
539.076937	0.223723
539.292196	0.224168
539.507438	0.224176
539.722661	0.224528
539.937866	0.224769
540.153052	0.224776
540.368221	0.224821
540.583371	0.225745
540.798503	0.226924
541.013617	0.227218
541.228712	0.227767
541.443789	0.227500
541.658848	0.227337
541.873889	0.226982
542.088912	0.227657
542.303916	0.227737
542.518902	0.229023
542.733870	0.228769
542.948820	0.228949
543.163752	0.229149
543.378665	0.230010
543.593560	0.230706
543.808437	0.231158
544.023295	0.231245
544.238136	0.231225
544.452958	0.230551
544.667762	0.230874
544.882548	0.231224
545.097315	0.231303
545.312064	0.231829
545.526795	0.231972
545.741508	0.232672
545.956203	0.232853
546.170879	0.233529
546.385537	0.233712
546.600177	0.233953
546.814799	0.234397
547.029402	0.234739
547.243988	0.234070
547.458555	0.234159
547.673103	0.234183
547.887634	0.234777
548.102146	0.234819
548.316640	0.234869
548.531116	0.235489
548.745574	0.235642
548.960013	0.236063
549.174435	0.236736
549.388838	0.236879
549.603222	0.237141
549.817589	0.237208
550.031937	0.237776
550.246267	0.238540
550.460579	0.238429
550.674873	0.238350
550.889148	0.238712
551.103405	0.238836
551.317644	0.239146
551.531865	0.239598
551.746068	0.239635
551.960252	0.239707
552.174418	0.239783
552.388566	0.239648
552.602696	0.240134
552.816807	0.240040
553.030900	0.240379
553.244975	0.240582
553.459032	0.240582
553.673070	0.241236
553.887091	0.241277
554.101093	0.241868
554.315077	0.242456
554.529042	0.242884
554.742990	0.242981
554.956919	0.243720
555.170830	0.243832
555.384722	0.244167
555.598597	0.244151
555.812453	0.244491
556.026291	0.244382
556.240111	0.244317
556.453913	0.244470
556.667696	0.245017
556.881461	0.245165
557.095208	0.245738
557.308937	0.246142
557.522647	0.246780
557.736339	0.247074
557.950013	0.247286
558.163669	0.247916
558.377307	0.248084
558.590926	0.248145
558.804527	0.248086
559.018110	0.248269
559.231675	0.248014
559.445221	0.248212
559.658749	0.248607
559.872259	0.248610
560.085751	0.248783
560.299225	0.249201
560.512680	0.249735
560.726117	0.249676
560.939536	0.249819
561.152937	0.250090
561.366319	0.249779
561.579683	0.249301
561.793029	0.249963
562.006357	0.250005
562.219667	0.249820
562.432958	0.249512
562.646231	0.249638
562.859486	0.249769
563.072723	0.250440
563.285941	0.250705
563.499141	0.251496
563.712323	0.251310
563.925487	0.252006
564.138632	0.251996
564.351760	0.252222
564.564869	0.252828
564.777960	0.253308
564.991032	0.252873
565.204087	0.253222
565.417123	0.252932
565.630141	0.253486
565.843140	0.253543
566.056122	0.254273
566.269085	0.254974
566.482030	0.255477
566.694957	0.255689
566.907866	0.256002
567.120756	0.256176
567.333628	0.256769
567.546482	0.256817
567.759318	0.256741
567.972135	0.256563
568.184935	0.257088
568.397716	0.257033
568.610478	0.257502
568.823223	0.257922
569.035949	0.258200
569.248657	0.258514
569.461347	0.258103
569.674019	0.258249
569.886672	0.258740
570.099308	0.258455
570.311925	0.258544
570.524523	0.258605
570.737104	0.259072
570.949666	0.259397
571.162210	0.259493
571.374736	0.260337
571.587244	0.260695
571.799733	0.260898
572.012205	0.261018
572.224658	0.261308
572.437092	0.260873
572.649509	0.261251
572.861907	0.260982
573.074287	0.260844
573.286649	0.261057
573.498993	0.261082
573.711318	0.261338
573.923625	0.261749
574.135914	0.261768
574.348185	0.262207
574.560438	0.261881
574.772672	0.262060
574.984888	0.262692
575.197086	0.262854
575.409266	0.263041
575.621427	0.263013
575.833570	0.262907
576.045695	0.262853
576.257802	0.262965
576.469890	0.263280
576.681961	0.263665
576.894013	0.263821
577.106046	0.263755
577.318062	0.264277
577.530059	0.264385
577.742039	0.264713
577.954000	0.265470
578.165942	0.265718
578.377867	0.265687
578.589773	0.265919
578.801661	0.265878
579.013531	0.266370
579.225382	0.266104
579.437216	0.266294
579.649031	0.266683
579.860828	0.266791
580.072606	0.266787
580.284367	0.266962
580.496109	0.267161
580.707833	0.267399
580.919539	0.266953
581.131227	0.267412
581.342896	0.267841
581.554547	0.267736
581.766180	0.267585
581.977795	0.267833
582.189391	0.268269
582.400969	0.268506
582.612529	0.268813
582.824071	0.269251
583.035595	0.269245
583.247100	0.269090
583.458587	0.269637
583.670056	0.269727
583.881506	0.270192
584.092939	0.270804
584.304353	0.271447
584.515749	0.271662
584.727127	0.271712
584.938486	0.271806
585.149828	0.272234
585.361151	0.271742
585.572456	0.272497
585.783742	0.272609
585.995011	0.272147
586.206261	0.271358
586.417493	0.271702
586.628706	0.272164
586.839902	0.272945
587.051079	0.272949
587.262238	0.273570
587.473379	0.273295
587.684502	0.273784
587.895606	0.274057
588.106692	0.274595
588.317760	0.274440
588.528810	0.275237
588.739841	0.275395
588.950855	0.275728
589.161850	0.275979
589.372827	0.276199
589.583785	0.276131
589.794726	0.276163
590.005648	0.276766
590.216552	0.277169
590.427437	0.276565
590.638305	0.276468
590.849154	0.277108
591.059985	0.277390
591.270798	0.277669
591.481592	0.277776
591.692369	0.278588
591.903127	0.278549
592.113867	0.278602
592.324588	0.278980
592.535292	0.279136
592.745977	0.279413
592.956644	0.279320
593.167293	0.279724
593.377923	0.279954
593.588536	0.279712
593.799130	0.280084
594.009706	0.280340
594.220263	0.280673
594.430803	0.280834
594.641324	0.280588
594.851827	0.281143
595.062312	0.281342
595.272778	0.281949
595.483227	0.282375
595.693657	0.282388
595.904069	0.282810
596.114462	0.282908
596.324838	0.282984
596.535195	0.283269
596.745534	0.283439
596.955855	0.283394
597.166157	0.283328
597.376441	0.283763
597.586707	0.283953
597.796955	0.284040
598.007185	0.284153
598.217396	0.284421
598.427589	0.284686
598.637764	0.284533
598.847921	0.284960
599.058060	0.285335
599.268180	0.285094
599.478282	0.285088
599.688366	0.285226
599.898431	0.285719
600.108479	0.285861
600.318508	0.285970
600.528519	0.286417
600.738511	0.286392
600.948486	0.286452
601.158442	0.286480
601.368380	0.286875
601.578300	0.287009
601.788202	0.286937
601.998085	0.287320
602.207950	0.287368
602.417797	0.287376
602.627626	0.287484
602.837436	0.287681
603.047228	0.288083
603.257002	0.288379
603.466758	0.288394
603.676496	0.288567
603.886215	0.288601
604.095916	0.288628
604.305599	0.289134
604.515264	0.289290
604.724910	0.289355
604.934538	0.289595
605.144148	0.289271
605.353740	0.289916
605.563314	0.290167
605.772869	0.290407
605.982406	0.290740
606.191925	0.290586
606.401425	0.290825
606.610908	0.290843
606.820372	0.290810
607.029818	0.291567
607.239246	0.291311
607.448655	0.291577
607.658047	0.291907
607.867420	0.292119
608.076775	0.292034
608.286111	0.292105
608.495430	0.292355
608.704730	0.292314
608.914012	0.292173
609.123275	0.292374
609.332521	0.292364
609.541748	0.292313
609.750957	0.292454
609.960148	0.292788
610.169321	0.293180
610.378475	0.293525
610.587611	0.294195
610.796729	0.294426
611.005829	0.294574
611.214910	0.294611
611.423974	0.294915
611.633019	0.294972
611.842045	0.295297
612.051054	0.295207
612.260044	0.295260
612.469017	0.295522
612.677970	0.295986
612.886906	0.296021
613.095824	0.296307
613.304723	0.296137
613.513604	0.296428
613.722467	0.296636
613.931311	0.296929
614.140138	0.296959
614.348946	0.296767
614.557736	0.296741
614.766507	0.296994
614.975261	0.296994
615.183996	0.297483
615.392713	0.297541
615.601412	0.297704
615.810092	0.298118
616.018754	0.298204
616.227399	0.298562
616.436024	0.298557
616.644632	0.298886
616.853222	0.299446
617.061793	0.299618
617.270346	0.299607
617.478880	0.299501
617.687397	0.299110
617.895895	0.299463
618.104375	0.299408
618.312837	0.299666
618.521281	0.299769
618.729706	0.299319
618.938113	0.299430
619.146502	0.299662
619.354873	0.299522
619.563226	0.299790
619.771560	0.299783
619.979876	0.299854
620.188174	0.300074
620.396453	0.300351
620.604715	0.300626
620.812958	0.300795
621.021183	0.301044
621.229390	0.301679
621.437578	0.302038
621.645748	0.302239
621.853900	0.302224
622.062034	0.302460
622.270150	0.302663
622.478247	0.303107
622.686326	0.303373
622.894387	0.303586
623.102430	0.303507
623.310454	0.303757
623.518461	0.304094
623.726449	0.304497
623.934418	0.304237
624.142370	0.304505
624.350303	0.304772
624.558218	0.304763
624.766115	0.304942
624.973994	0.305541
625.181855	0.305688
625.389697	0.305503
625.597521	0.305799
625.805327	0.306111
626.013114	0.305900
626.220883	0.306150
626.428634	0.306125
626.636367	0.306187
626.844082	0.305946
627.051778	0.306198
627.259457	0.306726
627.467117	0.306684
627.674758	0.306885
627.882382	0.307371
628.089987	0.307356
628.297574	0.307828
628.505143	0.307904
628.712694	0.308180
628.920226	0.307853
629.127740	0.307986
629.335236	0.308306
629.542714	0.308473
629.750174	0.308418
629.957615	0.308627
630.165038	0.308797
630.372443	0.309320
630.579829	0.309415
630.787198	0.309966
630.994548	0.310015
631.201880	0.310164
631.409194	0.310393
631.616489	0.310687
631.823766	0.310714
632.031025	0.310883
632.238266	0.310820
632.445489	0.311233
632.652693	0.311234
632.859879	0.311522
633.067047	0.311605
633.274197	0.311910
633.481329	0.311781
633.688442	0.312210
633.895537	0.312356
634.102614	0.312833
634.309672	0.312969
634.516713	0.313132
634.723735	0.313401
634.930739	0.313545
635.137724	0.313639
635.344692	0.314187
635.551641	0.314523
635.758572	0.314676
635.965485	0.314785
636.172379	0.315053
636.379256	0.315344
636.586114	0.315329
636.792954	0.315486
636.999775	0.315429
637.206579	0.315204
637.413364	0.315231
637.620131	0.315171
637.826880	0.315229
638.033610	0.315022
638.240323	0.315185
638.447017	0.315251
638.653692	0.315766
638.860350	0.316156
639.066990	0.316780
639.273611	0.316756
639.480214	0.317171
639.686798	0.317314
639.893365	0.317715
640.099913	0.318188
640.306443	0.318480
640.512955	0.318343
640.719449	0.318287
640.925924	0.318289
641.132381	0.318399
641.338820	0.318407
641.545241	0.318568
641.751644	0.318527
641.958028	0.318377
642.164394	0.318594
642.370742	0.318757
642.577071	0.319022
642.783383	0.319164
642.989676	0.319628
643.195951	0.319894
643.402207	0.320169
643.608446	0.320581
643.814666	0.320838
644.020868	0.321173
644.227052	0.321738
644.433218	0.321962
644.639365	0.322057
644.845494	0.322336
645.051605	0.322715
645.257698	0.322962
645.463772	0.323254
645.669828	0.323649
645.875866	0.323601
646.081886	0.323514
646.287888	0.324030
646.493871	0.324159
646.699836	0.324156
646.905783	0.324564
647.111712	0.324485
647.317622	0.324746
647.523514	0.324750
647.729388	0.324843
647.935244	0.325036
648.141082	0.325147
648.346901	0.325317
648.552702	0.325631
648.758485	0.325407
648.964250	0.325427
649.169996	0.325439
649.375724	0.325597
649.581434	0.325847
649.787126	0.325849
649.992800	0.325910
650.198455	0.326334
650.404092	0.326464
650.609711	0.326689
650.815311	0.327047
651.020894	0.327448
651.226458	0.327838
651.432004	0.327993
651.637532	0.328307
651.843041	0.328638
652.048532	0.328885
652.254006	0.328814
652.459460	0.329196
652.664897	0.329515
652.870315	0.329444
653.075716	0.329345
653.281097	0.329507
653.486461	0.329647
653.691807	0.329613
653.897134	0.329677
654.102443	0.330203
654.307734	0.330251
654.513006	0.330778
654.718261	0.330985
654.923497	0.331301
655.128715	0.332023
655.333915	0.332421
655.539096	0.332696
655.744259	0.333067
655.949404	0.333107
656.154531	0.333521
656.359640	0.333491
656.564730	0.333995
656.769802	0.334597
656.974856	0.334858
657.179892	0.335136
657.384909	0.335541
657.589908	0.335576
657.794889	0.336189
657.999852	0.336497
658.204797	0.336735
658.409723	0.336881
658.614631	0.336774
658.819521	0.336502
659.024393	0.336502
659.229246	0.336520
659.434081	0.336771
659.638898	0.336592
659.843697	0.336528
660.048478	0.336934
660.253240	0.337012
660.457984	0.337054
660.662710	0.337373
660.867417	0.337818
661.072107	0.338069
661.276778	0.338463
661.481431	0.338713
661.686066	0.338820
661.890682	0.338821
662.095281	0.338937
662.299861	0.339262
662.504422	0.339309
662.708966	0.339433
662.913491	0.339743
663.117999	0.339803
663.322488	0.339822
663.526958	0.340106
663.731411	0.340388
663.935845	0.340898
664.140261	0.341099
664.344659	0.341565
664.549038	0.341886
664.753400	0.342081
664.957743	0.342388
665.162068	0.342842
665.366375	0.343088
665.570663	0.343319
665.774933	0.343482
665.979185	0.343585
666.183419	0.343764
666.387635	0.344080
666.591832	0.344367
666.796011	0.344645
667.000172	0.345054
667.204315	0.345394
667.408439	0.345684
667.612545	0.345912
667.816634	0.346304
668.020703	0.346480
668.224755	0.346420
668.428788	0.346433
668.632803	0.346678
668.836800	0.346656
669.040779	0.346857
669.244739	0.346831
669.448681	0.347044
669.652605	0.347171
669.856511	0.347412
670.060399	0.347615
670.264268	0.347930
670.468119	0.348203
670.671952	0.348386
670.875767	0.348812
671.079563	0.349051
671.283341	0.349282
671.487101	0.349693
671.690843	0.349944
671.894567	0.350314
672.098272	0.350448
672.301959	0.350462
672.505628	0.350766
672.709278	0.350743
672.912911	0.351137
673.116525	0.351489
673.320121	0.351755
673.523699	0.351997
673.727258	0.352161
673.930799	0.352298
674.134322	0.352683
674.337827	0.352757
674.541314	0.353047
674.744782	0.353400
674.948232	0.353414
675.151664	0.353546
675.355078	0.353749
675.558474	0.354092
675.761851	0.354395
675.965210	0.354394
676.168551	0.354749
676.371873	0.354871
676.575178	0.354664
676.778464	0.355128
676.981732	0.355477
677.184981	0.355994
677.388213	0.356397
677.591426	0.356833
677.794621	0.357387
677.997798	0.358062
678.200956	0.358506
678.404097	0.358987
678.607219	0.359112
678.810323	0.359352
679.013408	0.359322
679.216476	0.359556
679.419525	0.359943
679.622556	0.360015
679.825569	0.360211
680.028563	0.360233
680.231540	0.360365
680.434498	0.360699
680.637438	0.360767
680.840359	0.360887
681.043263	0.360866
681.246148	0.361027
681.449015	0.361150
681.651864	0.361277
681.854694	0.361470
682.057506	0.361854
682.260301	0.361963
682.463076	0.362382
682.665834	0.362878
682.868573	0.363326
683.071295	0.363429
683.273998	0.363896
683.476682	0.364161
683.679349	0.364374
683.881997	0.364688
684.084627	0.365082
684.287239	0.365313
684.489833	0.365350
684.692408	0.365405
684.894965	0.365572
685.097504	0.365829
685.300025	0.366119
685.502527	0.366862
685.705012	0.367004
685.907478	0.367101
686.109925	0.367341
686.312355	0.367498
686.514766	0.367734
686.717159	0.368126
686.919534	0.368461
687.121891	0.368391
687.324230	0.368212
687.526550	0.368350
687.728852	0.368606
687.931136	0.368618
688.133401	0.368831
688.335649	0.368966
688.537878	0.369096
688.740089	0.369168
688.942281	0.369584
689.144456	0.369816
689.346612	0.370119
689.548750	0.370195
689.750870	0.370621
689.952971	0.370913
690.155055	0.371251
690.357120	0.371607
690.559167	0.371701
690.761195	0.371807
690.963206	0.372051
691.165198	0.372201
691.367172	0.372442
691.569128	0.372380
691.771065	0.372756
691.972984	0.372792
692.174885	0.372845
692.376768	0.372896
692.578633	0.372759
692.780479	0.372766
692.982308	0.373009
693.184118	0.373277
693.385909	0.373479
