sample name	sample
index	21
start time	 02-11-2021  12:03:32 PM
880	0.107073
Peak Time (s)	82.537
Peak Height 	0.1071
calc peak height	80,83
Baseline Time (s)	10.045
Baseline Value 	-0.001046
subtract baseline	10,4
Abs	0.062935
Peak Time (s)	81.535
Peak Height 	0.06293
calc peak height	80,83
Baseline Time (s)	11.052
Baseline Value 	0.00281
subtract baseline	10,3
PK_550	0.034385
Peak Time (s)	81.036
Peak Height 	0.03439
calc peak height	80,83
Baseline Time (s)	11.544
Baseline Value 	-7.2859E-5
subtract baseline	10,2
PK_880	0.043611
Peak Time (s)	82.036
Peak Height 	0.04361
calc peak height	80,83
Baseline Time (s)	10.547
Baseline Value 	0.001237
subtract baseline	10,1


Time (s)	A880-A510	A880-A775	A880-A975	A880	I510	I775	I975	I880	
0.036500	-0.004562	0.001481	-0.003317	0.006545	4444.727178	19111.734362	3229.170748	10234.045156
0.550500	-0.003502	0.001078	-0.006877	0.003759	4458.255114	19200.423287	3228.514990	10281.211910
1.057500	0.002625	-0.000103	-0.001408	0.000144	4493.060305	19291.535501	3236.286249	10342.855177
1.537500	-0.001728	-0.000038	-0.001109	0.000901	4474.705263	19265.584015	3235.890074	10329.909498
2.037500	-0.003651	-0.002328	0.004210	0.004481	4455.177165	19047.101275	3237.394833	10268.950776
2.535500	0.000454	-0.000131	0.003571	-0.000347	4487.002582	19308.920978	3241.045151	10351.272581
3.035500	-0.002480	0.000266	-0.001685	0.003403	4463.129949	19183.423598	3233.241357	10287.256852
3.535500	-0.001364	0.000271	-0.002584	0.003417	4467.039788	19183.101239	3232.459972	10287.020780
4.035500	-0.002736	0.000058	0.000887	0.005310	4455.482262	19104.753709	3233.812131	10254.911603
4.536000	-0.005397	-0.001155	-0.022957	0.001687	4458.877067	19194.403926	3216.844502	10316.480272
5.036000	-0.002749	-0.001332	-0.016925	0.001742	4468.070152	19185.767749	3221.778002	10315.544616
5.542500	0.001372	0.000968	0.005910	-0.000264	4490.009679	19347.150708	3243.025044	10349.851210
6.034000	-0.005279	0.000389	0.001416	0.000777	4462.517037	19286.229946	3238.184549	10332.025672
6.551000	-0.001732	0.000160	-0.002707	0.003142	4466.710234	19189.203327	3232.589351	10291.688633
7.037500	-0.000563	0.000422	-0.002032	0.001593	4476.392512	19256.859086	3234.497876	10318.079600
7.540000	0.000313	-0.000509	-0.001583	-0.000542	4487.198387	19302.035851	3236.728178	10354.621369
8.041000	-0.000507	-0.000144	-0.002550	-0.000289	4483.338500	19306.282556	3235.674300	10350.286387
8.538500	0.000059	-0.000384	0.007165	-0.000686	4486.798722	19312.127104	3244.503724	10357.085391
9.036000	-0.001882	0.000007	-0.003502	-0.000440	4478.947670	19317.593355	3234.983081	10352.865379
9.579500	0.001229	-0.000391	-0.009950	-0.002346	4497.019009	19374.411573	3231.090686	10385.630492
10.045000	-0.002601	-0.001211	0.010862	0.000000	4474.803783	19255.379620	3247.173184	10345.325791
10.547500	0.000000	0.000928	0.002221	0.001773	4477.764535	19269.100215	3238.019108	10315.012610
11.051500	0.002709	0.000211	0.000000	0.001300	4489.191821	19259.978677	3236.504141	10323.092445
11.544000	-0.000568	0.000000	-0.004738	0.001196	4477.797935	19255.968016	3232.517157	10324.873793
12.044000	-0.002841	-0.001258	-0.007621	-0.000137	4474.440236	19258.753967	3231.193091	10347.676592
12.542500	0.001900	-0.000498	-0.006714	0.001325	4486.187984	19232.482062	3230.719609	10322.665540
13.035000	-0.000959	-0.001487	-0.006726	0.000131	4480.210797	19240.155133	3231.727733	10343.083099
13.535500	0.000131	-0.000560	0.000208	0.001592	4478.882994	19220.181443	3236.431482	10318.107455
14.044000	0.001416	0.000936	-0.005443	0.002244	4481.150546	19251.769578	3231.020058	10306.989354
14.542000	-0.002653	-0.000027	0.001634	0.000691	4472.152822	19273.861540	3238.448867	10333.494778
15.044000	-0.000407	-0.000348	-0.009175	0.000624	4480.423698	19264.331931	3229.224162	10334.644761
15.541500	-0.000146	-0.000782	-0.005393	0.000819	4480.655177	19240.779381	3232.278832	10331.300547
16.092000	-0.004767	-0.000953	0.000314	0.000842	4464.101468	19233.532765	3237.172741	10330.915817
16.538000	-0.001992	0.001012	-0.003745	0.002002	4469.841396	19263.696880	3232.677331	10311.115241
17.038000	0.000695	0.000189	-0.005919	0.001089	4482.708147	19267.048448	3231.599181	10326.697881
17.544000	0.001015	0.000244	-0.004885	0.001975	4480.676916	19235.901380	3231.724875	10311.564708
18.042000	-0.001731	0.000451	0.006854	0.001739	4471.707059	19252.525388	3242.093848	10315.595903
18.535500	-0.002744	0.000221	0.005729	0.001611	4468.551539	19248.665113	3241.219681	10317.772567
19.047500	-0.000338	-0.001207	-0.013807	0.000877	4479.760340	19222.726206	3225.102842	10330.311856
19.552000	0.000080	0.000341	0.002581	0.001622	4478.589706	19252.739202	3238.463137	10317.584231
20.050500	-0.005694	-0.001066	-0.000288	0.003791	4450.417995	19119.432867	3234.108380	10280.671090
20.545500	0.000923	0.001361	0.001768	0.001047	4483.677739	19312.621072	3238.256227	10327.418851
21.036500	0.001289	0.000760	0.005366	0.000858	4485.668208	19297.112897	3241.560858	10330.634622
21.547500	-0.002015	-0.000251	-0.006400	-0.001100	4480.839816	19332.722864	3233.060285	10364.200663
22.045500	-0.000015	0.000060	-0.001018	0.002977	4473.411404	19191.646429	3234.180058	10294.505652
22.570000	-0.000711	0.000106	-0.003816	-0.000001	4481.571506	19304.815651	3234.334311	10345.337431
23.036000	0.001164	0.000670	0.001085	0.000569	4486.260615	19304.591345	3238.078013	10335.580210
23.558000	-0.001067	-0.001719	0.001379	0.001759	4474.003020	19170.712874	3237.300915	10315.260023
24.039500	-0.002124	-0.000707	-0.007925	0.004581	4460.216432	19103.411243	3226.934129	10267.255971
24.558000	-0.002289	-0.000236	-0.016314	-0.000577	4477.981932	19313.619461	3224.221617	10355.217533
25.052500	-0.003863	0.000730	-0.003073	0.000270	4469.344495	19318.102611	3234.740625	10340.704053
25.543000	0.000368	-0.000148	-0.003516	0.000685	4482.984242	19269.546171	3234.002670	10333.599490
26.037000	-0.003668	-0.001750	-0.003944	0.001471	4465.770831	19180.305711	3232.961409	10320.175618
26.534500	0.001520	0.000913	0.000366	-0.001099	4493.561109	19376.548960	3238.903723	10364.183395
27.038000	-0.004408	-0.001226	-0.007431	0.000942	4465.019576	19219.592352	3230.435530	10329.210425
27.536000	-0.001483	-0.000406	-0.000573	0.001959	4471.806074	19212.257826	3235.440330	10311.847285
28.042500	-0.002816	-0.000363	-0.004288	0.002207	4466.182947	19204.576478	3232.037357	10307.616686
28.551000	0.001826	-0.001136	0.008402	0.001455	4485.453923	19203.763667	3243.705814	10320.435604
29.051000	0.000624	-0.000541	-0.013320	0.000861	4483.271255	19248.243015	3225.525543	10330.591187
29.542000	0.000339	0.000325	-0.000637	0.002038	4478.030451	19236.591363	3235.316064	10310.494920
30.036000	-0.002570	-0.000730	-0.005597	0.001404	4469.908493	19220.860476	3231.604964	10321.308394
30.539500	-0.002577	-0.001792	0.008206	0.000669	4472.505401	19208.677118	3244.226186	10333.880173
31.041500	-0.000953	0.000697	0.001224	0.003485	4468.258892	19196.452836	3235.673921	10285.864962
31.537500	0.001482	0.001568	0.007055	0.003304	4477.589036	19235.732519	3240.898266	10288.939865
32.034500	-0.001598	0.000940	-0.005889	0.002839	4468.263932	19229.660002	3230.133721	10296.855491
32.544000	-0.000542	0.000974	-0.003262	0.003205	4470.720323	19217.244923	3232.060647	10290.624199
33.038000	-0.001999	-0.000451	-0.002837	0.002280	4468.823532	19198.585096	3233.216862	10306.371676
33.561500	-0.003773	0.000381	-0.010246	0.002909	4460.303885	19206.171100	3226.388211	10295.667275
34.044500	-0.002230	-0.000514	-0.008242	0.001696	4470.080829	19218.004669	3229.105835	10316.320997
34.539000	-0.004450	0.000969	0.004269	0.002472	4459.451786	19244.453254	3239.191710	10303.090694
35.043500	-0.002022	-0.000390	-0.011970	0.001946	4469.933197	19213.327481	3225.748306	10312.070242
35.536500	-0.000196	-0.000597	-0.000239	0.001466	4478.162075	19223.510544	3236.153186	10320.247603
36.102500	-0.004810	0.000320	-0.008117	0.001828	4460.457841	19244.267364	3229.099896	10314.079688
36.559000	0.000703	0.000055	0.002035	0.001934	4479.704261	19230.381406	3237.717901	10312.266850
37.051500	0.003876	0.000860	-0.002045	-0.002265	4506.339419	19418.588264	3237.821063	10384.235264
37.563500	0.000769	-0.001527	0.000028	-0.000435	4488.454350	19259.831441	3238.032259	10352.783350
38.054500	0.000834	0.000257	-0.001486	0.002893	4476.742966	19202.142971	3233.850380	10295.939174
38.538000	-0.001140	-0.000312	0.006974	-0.001085	4483.923200	19329.853361	3244.687498	10363.938868
39.037000	0.001395	0.000174	0.000421	0.000047	4488.971558	19305.570654	3237.954866	10344.527208
39.536000	0.000945	-0.000462	-0.007547	0.001132	4483.448730	19241.049024	3230.174586	10325.957115
40.036000	-0.000438	-0.000660	-0.006304	0.001627	4476.719695	19215.149650	3230.812012	10317.509573
40.540000	0.000214	-0.000441	0.001421	0.002367	4476.407433	19195.705247	3236.809840	10304.886538
41.041000	0.000316	0.000334	0.003578	0.003478	4472.803433	19183.162176	3237.716851	10285.982398
41.538000	-0.001827	-0.000253	-0.009821	0.002737	4467.810906	19188.892247	3226.890698	10298.584796
42.041000	0.002234	0.000701	0.004456	0.002831	4481.976902	19220.995425	3239.042638	10296.983544
42.536000	0.000464	0.000301	0.007243	0.000142	4485.277634	19306.770242	3243.841734	10342.890914
43.038500	0.003261	0.000935	-0.000161	0.000527	4493.973818	19316.140512	3237.033292	10336.302142
43.543000	0.000008	-0.001107	-0.007240	-0.002682	4493.814130	19360.051515	3233.696506	10391.412622
44.036500	0.005156	0.001261	-0.000468	-0.007484	4530.196587	19632.519445	3243.766303	10474.639279
44.543000	-0.035194	-0.015121	0.017427	0.171505	3893.289129	13604.090779	3125.094248	7918.069787
45.043000	-0.040509	-0.024433	0.022468	0.176113	3871.391649	13269.341860	3125.357361	7865.157870
45.535000	-0.031910	-0.023271	-0.005937	0.056434	4196.951450	16566.328942	3187.223477	9438.752069
46.038000	-0.027647	-0.017268	0.002387	-0.115861	4835.496995	23457.041293	3355.546447	12620.039349
46.538500	-0.012811	-0.007930	0.002593	-0.122242	4931.207886	24211.362068	3363.107561	12763.844877
47.038000	-0.015702	-0.006236	0.004095	-0.138378	4993.360260	25100.627874	3383.924397	13136.992296
47.539500	0.003850	0.001084	0.004869	-0.089243	4857.092738	23071.224477	3328.802928	12042.520476
48.036000	0.002642	0.003287	0.007585	-0.063181	4739.443061	21997.941278	3304.311969	11510.350251
48.544000	-0.003336	0.001746	0.018712	-0.053134	4673.672506	21497.497253	3305.415061	11313.558933
49.042000	0.004626	0.006614	0.016767	-0.050945	4697.091766	21612.015148	3301.203885	11271.304192
49.536500	0.012319	0.008473	0.017310	-0.046663	4711.070554	21508.447094	3297.429215	11189.223637
50.034500	0.008277	0.009992	0.014314	-0.023841	4603.874273	20622.053977	3272.230511	10765.146465
50.534500	0.017462	0.012575	0.036414	-0.003663	4561.888601	19922.108244	3274.055928	10408.349277
51.042000	0.020571	0.017307	0.033618	0.012548	4513.210603	19480.477294	3256.361067	10133.442962
51.537000	0.014124	0.015462	0.027924	0.031358	4423.422353	18714.668106	3234.662405	9827.073965
52.035500	0.017006	0.015546	0.027513	0.038036	4410.373284	18477.769420	3228.610182	9721.460668
52.535500	0.020543	0.018718	0.040927	0.047266	4391.013817	18263.230433	3232.169886	9578.129726
53.043000	0.021819	0.019405	0.036614	0.048343	4391.689478	18249.569422	3227.591006	9561.611881
53.542000	0.022218	0.019073	0.037431	0.046607	4398.922925	18298.960280	3229.753400	9588.274449
54.039000	0.028893	0.021071	0.035307	0.048887	4413.923874	18289.011136	3226.030423	9553.272236
54.534000	0.028189	0.021724	0.034090	0.047923	4414.815845	18346.074626	3225.817953	9568.046608
55.043500	0.027772	0.022746	0.046600	0.048116	4412.722162	18375.412471	3236.317578	9565.088271
55.537500	0.030195	0.023556	0.045172	0.048312	4420.375432	18397.165136	3234.915602	9562.081801
56.042000	0.033042	0.024610	0.037134	0.049063	4427.614907	18407.904641	3227.421054	9550.576801
56.539000	0.031277	0.025524	0.044580	0.050268	4417.370954	18397.624825	3232.727750	9532.175370
57.035500	0.031628	0.024657	0.040874	0.050561	4417.565524	18356.481628	3229.318907	9527.695341
57.536000	0.029136	0.025694	0.049449	0.051129	4407.083274	18373.100583	3236.175961	9519.051252
58.036000	0.027672	0.025079	0.036793	0.052986	4395.783611	18285.821892	3223.840539	9490.832104
58.536500	0.031052	0.024618	0.041748	0.054161	4403.273537	18228.283222	3227.013312	9473.029937
59.034000	0.029335	0.025979	0.048982	0.056418	4389.800988	18196.892823	3231.233508	9438.993196
59.534000	0.028791	0.027728	0.044607	0.061413	4371.222323	18083.668267	3223.328068	9364.280437
60.037500	0.031208	0.025473	0.039785	0.062108	4376.974356	17981.533738	3218.752114	9353.951502
60.535000	0.030416	0.024535	0.050852	0.064032	4367.912303	17883.064769	3226.367176	9325.443788
61.035000	0.029783	0.026016	0.036801	0.067697	4353.694329	17808.363079	3211.756593	9271.498605
61.535500	0.031943	0.025764	0.058701	0.069084	4356.243410	17752.552223	3228.729043	9251.199956
62.036000	0.029264	0.026235	0.041885	0.071573	4339.298337	17684.131590	3212.733836	9214.939534
62.536000	0.037916	0.026640	0.060853	0.072400	4365.033667	17669.886797	3227.744277	9202.936010
63.036000	0.033169	0.027369	0.042646	0.073933	4344.343730	17642.716790	3211.440514	9180.743305
63.534000	0.036995	0.027245	0.056980	0.076168	4349.557310	17563.374075	3221.345609	9148.540368
64.033500	0.031150	0.027534	0.051720	0.077284	4326.887872	17535.634441	3216.090762	9132.505557
64.534500	0.033789	0.028225	0.050676	0.078475	4331.574017	17518.917121	3214.267376	9115.460401
65.034500	0.033330	0.027629	0.046255	0.078483	4330.061278	17498.716854	3210.681972	9115.342185
65.535000	0.037886	0.028662	0.055826	0.081177	4336.101857	17443.339265	3216.265379	9076.940172
66.035000	0.039711	0.029073	0.063638	0.082545	4337.587618	17411.525157	3221.578529	9057.530467
66.535500	0.036974	0.029780	0.058016	0.081842	4330.984722	17458.414245	3217.515804	9067.503007
67.035500	0.038874	0.029417	0.048831	0.083393	4332.115484	17394.827887	3208.807185	9045.537742
67.536000	0.037274	0.029366	0.050423	0.083711	4325.909684	17382.576340	3209.828685	9041.036657
68.033500	0.034710	0.028976	0.053525	0.084397	4315.456239	17346.969341	3211.775373	9031.353041
68.533500	0.039683	0.030551	0.052095	0.085657	4327.405129	17357.386926	3209.608779	9013.607033
69.034000	0.040401	0.030234	0.051894	0.085243	4331.070792	17360.615776	3209.780160	9019.440572
69.534500	0.035428	0.029976	0.047638	0.085816	4313.213194	17333.130661	3205.921951	9011.377517
70.034500	0.039810	0.031349	0.043155	0.086979	4323.551764	17340.071397	3201.464704	8995.049482
70.535000	0.045186	0.030541	0.043140	0.087645	4338.811910	17291.469418	3200.930819	8985.718862
71.035500	0.042326	0.030950	0.068503	0.087837	4328.904626	17298.600035	3221.224648	8983.030438
71.536000	0.043933	0.032131	0.069321	0.088841	4330.855470	17304.408750	3221.069277	8968.990515
72.035500	0.041146	0.030719	0.060784	0.089010	4321.311239	17252.441214	3213.920639	8966.639713
72.536000	0.046231	0.032235	0.073734	0.090815	4331.904065	17242.923891	3223.098298	8941.498866
73.034000	0.041484	0.029864	0.055334	0.089394	4321.165780	17211.794474	3209.209523	8961.280822
73.534000	0.042652	0.031912	0.049023	0.091912	4316.826088	17196.411966	3202.198079	8926.263990
74.034500	0.047656	0.031169	0.062204	0.092108	4332.335104	17165.758389	3212.559305	8923.557939
74.534500	0.044679	0.031117	0.064141	0.093003	4319.832395	17134.877466	3213.403951	8911.168539
75.034500	0.037623	0.030340	0.058578	0.092894	4297.683673	17113.147196	3209.003887	8912.676543
75.535500	0.041493	0.030920	0.052132	0.094820	4303.842288	17069.406940	3202.355930	8886.085898
76.035500	0.043403	0.030940	0.069404	0.094890	4309.702526	17067.834492	3216.155451	8885.130026
76.536000	0.043194	0.030185	0.053512	0.095298	4307.735279	17030.177776	3203.066531	8879.514213
77.036000	0.046775	0.033903	0.064698	0.097813	4311.136062	17069.116276	3209.968513	8845.019253
77.536500	0.043931	0.031291	0.057441	0.097480	4303.138217	16995.420117	3204.446043	8849.573129
78.033500	0.044813	0.031808	0.060488	0.097950	4304.446603	16996.929430	3206.490849	8843.136446
78.534000	0.043939	0.032057	0.064070	0.098648	4299.458819	16982.473039	3208.793431	8833.602994
79.034500	0.038629	0.031652	0.051286	0.100001	4278.520110	16925.984615	3197.650305	8815.172203
79.534500	0.042740	0.033926	0.055052	0.102604	4283.229675	16915.393645	3198.552272	8779.848851
80.035000	0.043445	0.032773	0.058710	0.102572	4285.538680	16879.515500	3201.434132	8780.281110
80.535500	0.039926	0.031079	0.055241	0.102400	4275.082913	16830.911709	3198.858144	8782.606884
81.036000	0.041498	0.034385	0.054252	0.105791	4269.437107	16828.227363	3195.466497	8736.903187
81.535500	0.038708	0.032311	0.062935	0.105193	4262.664493	16781.255255	3202.694025	8744.932973
82.036000	0.043611	0.032805	0.054484	0.106425	4274.028190	16757.869955	3195.157028	8728.397141
82.537000	0.041233	0.032130	0.049201	0.107073	4264.654023	16715.976587	3190.622697	8719.712863
83.034000	0.041727	0.032037	0.059004	0.107737	4264.129503	16692.072271	3197.635346	8710.828609
83.534500	0.036934	0.031421	0.056202	0.110233	4241.825342	16594.283855	3193.552119	8677.566263
84.034500	0.040368	0.031481	0.071440	0.109084	4255.803636	16632.185714	3206.346064	8692.853931
84.535000	0.042489	0.032748	0.070257	0.111130	4256.034225	16607.735355	3203.786308	8665.653734
85.035000	0.042193	0.033152	0.062608	0.113006	4249.390271	16561.686544	3196.347050	8640.831712
85.540000	0.038389	0.032481	0.066345	0.112729	4238.668093	16549.382116	3199.462346	8644.481424
86.041000	0.041147	0.031383	0.073065	0.112273	4248.436786	16529.372464	3205.103901	8650.518124
