sample name	sample
index	723
start time	 03-25-2021  11:52:47 AM


Wavelength (nm)	Absorbance
494.344910	-0.076533
494.563924	-0.076533
494.782919	-0.076533
495.001897	0.016326
495.220856	-0.005864
495.439797	-0.020157
495.658719	-0.055307
495.877624	-0.058785
496.096510	-0.095935
496.315378	-0.105819
496.534227	-0.145474
496.753059	-0.163736
496.971872	-0.135868
497.190667	0.053740
497.409444	0.078624
497.628203	0.087522
497.846943	0.086205
498.065665	0.090024
498.284369	0.089471
498.503055	0.089338
498.721723	0.089828
498.940372	0.089078
499.159003	0.089298
499.377616	0.087853
499.596210	0.086393
499.814787	0.086492
500.033345	0.085392
500.251885	0.086070
500.470406	0.087824
500.688910	0.087264
500.907395	0.087739
501.125862	0.086690
501.344311	0.087925
501.562742	0.089439
501.781154	0.089822
501.999548	0.089117
502.217924	0.088573
502.436282	0.087018
502.654621	0.087693
502.872942	0.087846
503.091245	0.088420
503.309530	0.088022
503.527797	0.087422
503.746045	0.087210
503.964275	0.087414
504.182487	0.087184
504.400681	0.087212
504.618856	0.087243
504.837013	0.086415
505.055152	0.086624
505.273273	0.086680
505.491376	0.086396
505.709460	0.086476
505.927526	0.086880
506.145574	0.086540
506.363604	0.086688
506.581615	0.087136
506.799608	0.087856
507.017583	0.087592
507.235540	0.087065
507.453478	0.087528
507.671399	0.088589
507.889301	0.089204
508.107185	0.090114
508.325050	0.090245
508.542898	0.089575
508.760727	0.089636
508.978538	0.090405
509.196330	0.091187
509.414105	0.091382
509.631861	0.091139
509.849599	0.090633
510.067319	0.091015
510.285021	0.090624
510.502704	0.090814
510.720369	0.091287
510.938016	0.091069
511.155645	0.091084
511.373255	0.090698
511.590848	0.090723
511.808422	0.091975
512.025977	0.091381
512.243515	0.091942
512.461034	0.091842
512.678536	0.091745
512.896018	0.091932
513.113483	0.091395
513.330930	0.091809
513.548358	0.091354
513.765768	0.091026
513.983160	0.091626
514.200533	0.091389
514.417889	0.091717
514.635226	0.091534
514.852545	0.091317
515.069845	0.092220
515.287128	0.092241
515.504392	0.092875
515.721638	0.092493
515.938866	0.092683
516.156075	0.093572
516.373267	0.093228
516.590440	0.093206
516.807594	0.093256
517.024731	0.093190
517.241850	0.092629
517.458950	0.093087
517.676032	0.092962
517.893095	0.092760
518.110141	0.092610
518.327168	0.092288
518.544177	0.092633
518.761168	0.092808
518.978141	0.092962
519.195095	0.093540
519.412031	0.093192
519.628949	0.094019
519.845849	0.093668
520.062731	0.093792
520.279594	0.094474
520.496439	0.094639
520.713266	0.094710
520.930074	0.094442
521.146865	0.094527
521.363637	0.094396
521.580391	0.094184
521.797127	0.094558
522.013844	0.094822
522.230543	0.094845
522.447224	0.094298
522.663887	0.094365
522.880532	0.095066
523.097158	0.094953
523.313766	0.095295
523.530356	0.094873
523.746928	0.095023
523.963481	0.095107
524.180017	0.095568
524.396534	0.096856
524.613032	0.096760
524.829513	0.097025
525.045975	0.097320
525.262420	0.097499
525.478845	0.098166
525.695253	0.098263
525.911643	0.098472
526.128014	0.098298
526.344367	0.097610
526.560702	0.097463
526.777018	0.097271
526.993316	0.097863
527.209597	0.098028
527.425858	0.097898
527.642102	0.098341
527.858328	0.098049
528.074535	0.098135
528.290724	0.098817
528.506894	0.098849
528.723047	0.098538
528.939181	0.098687
529.155297	0.098719
529.371395	0.098856
529.587475	0.099153
529.803536	0.099270
530.019579	0.099115
530.235604	0.098736
530.451611	0.099661
530.667600	0.100334
530.883570	0.100008
531.099522	0.100445
531.315456	0.100835
531.531372	0.100531
531.747269	0.101072
531.963148	0.101458
532.179009	0.101866
532.394852	0.102111
532.610676	0.101917
532.826482	0.102393
533.042271	0.102023
533.258040	0.102069
533.473792	0.102243
533.689525	0.101706
533.905240	0.102004
534.120937	0.101796
534.336616	0.101908
534.552277	0.102263
534.767919	0.101800
534.983543	0.102015
535.199149	0.102112
535.414736	0.102474
535.630306	0.103285
535.845857	0.103220
536.061390	0.103524
536.276904	0.102944
536.492401	0.103091
536.707879	0.103332
536.923339	0.103467
537.138781	0.103628
537.354204	0.103535
537.569610	0.103450
537.784997	0.103556
538.000366	0.103807
538.215716	0.104383
538.431049	0.104527
538.646363	0.104786
538.861659	0.104851
539.076937	0.104176
539.292196	0.104317
539.507438	0.104382
539.722661	0.104721
539.937866	0.104574
540.153052	0.104692
540.368221	0.104445
540.583371	0.104436
540.798503	0.104502
541.013617	0.105308
541.228712	0.105705
541.443789	0.105890
541.658848	0.105772
541.873889	0.106056
542.088912	0.105918
542.303916	0.106371
542.518902	0.106758
542.733870	0.106954
542.948820	0.106835
543.163752	0.106962
543.378665	0.106748
543.593560	0.107268
543.808437	0.107603
544.023295	0.107925
544.238136	0.107735
544.452958	0.107831
544.667762	0.107733
544.882548	0.108327
545.097315	0.108146
545.312064	0.108334
545.526795	0.108350
545.741508	0.108010
545.956203	0.107726
546.170879	0.107812
546.385537	0.107854
546.600177	0.108375
546.814799	0.108447
547.029402	0.108504
547.243988	0.108922
547.458555	0.109247
547.673103	0.109713
547.887634	0.110054
548.102146	0.110589
548.316640	0.110748
548.531116	0.110764
548.745574	0.110398
548.960013	0.110735
549.174435	0.110882
549.388838	0.110632
549.603222	0.110724
549.817589	0.111137
550.031937	0.111037
550.246267	0.111239
550.460579	0.111331
550.674873	0.111979
550.889148	0.112008
551.103405	0.112413
551.317644	0.112824
551.531865	0.112738
551.746068	0.112685
551.960252	0.112810
552.174418	0.113227
552.388566	0.113472
552.602696	0.113139
552.816807	0.113079
553.030900	0.112729
553.244975	0.112701
553.459032	0.112921
553.673070	0.113067
553.887091	0.113524
554.101093	0.113030
554.315077	0.113051
554.529042	0.113595
554.742990	0.113781
554.956919	0.114084
555.170830	0.113834
555.384722	0.113535
555.598597	0.113691
555.812453	0.113300
556.026291	0.113715
556.240111	0.113832
556.453913	0.113688
556.667696	0.113944
556.881461	0.113901
557.095208	0.114243
557.308937	0.114782
557.522647	0.114826
557.736339	0.115377
557.950013	0.115048
558.163669	0.115235
558.377307	0.115384
558.590926	0.115520
558.804527	0.115945
559.018110	0.116173
559.231675	0.116149
559.445221	0.116587
559.658749	0.116289
559.872259	0.116719
560.085751	0.116707
560.299225	0.116791
560.512680	0.116931
560.726117	0.116518
560.939536	0.116598
561.152937	0.116881
561.366319	0.116983
561.579683	0.116957
561.793029	0.117393
562.006357	0.117497
562.219667	0.117418
562.432958	0.117331
562.646231	0.117606
562.859486	0.117611
563.072723	0.117652
563.285941	0.117489
563.499141	0.117559
563.712323	0.117441
563.925487	0.117501
564.138632	0.118071
564.351760	0.118301
564.564869	0.118189
564.777960	0.118204
564.991032	0.118358
565.204087	0.118505
565.417123	0.118485
565.630141	0.118483
565.843140	0.118427
566.056122	0.118039
566.269085	0.117984
566.482030	0.118323
566.694957	0.118844
566.907866	0.118447
567.120756	0.118441
567.333628	0.119048
567.546482	0.119136
567.759318	0.119260
567.972135	0.119278
568.184935	0.119485
568.397716	0.119594
568.610478	0.119435
568.823223	0.119910
569.035949	0.120024
569.248657	0.120047
569.461347	0.119748
569.674019	0.119898
569.886672	0.120133
570.099308	0.120282
570.311925	0.120266
570.524523	0.120279
570.737104	0.120546
570.949666	0.120624
571.162210	0.120725
571.374736	0.121215
571.587244	0.121345
571.799733	0.121629
572.012205	0.121646
572.224658	0.121883
572.437092	0.121589
572.649509	0.121676
572.861907	0.121595
573.074287	0.121661
573.286649	0.121527
573.498993	0.121584
573.711318	0.121702
573.923625	0.121815
574.135914	0.122020
574.348185	0.122469
574.560438	0.122239
574.772672	0.122613
574.984888	0.122845
575.197086	0.123155
575.409266	0.123112
575.621427	0.123292
575.833570	0.123028
576.045695	0.122860
576.257802	0.122786
576.469890	0.122734
576.681961	0.122564
576.894013	0.122578
577.106046	0.122382
577.318062	0.122492
577.530059	0.122119
577.742039	0.122651
577.954000	0.122575
578.165942	0.122900
578.377867	0.123144
578.589773	0.123488
578.801661	0.123329
579.013531	0.123763
579.225382	0.123934
579.437216	0.124241
579.649031	0.124352
579.860828	0.124447
580.072606	0.124239
580.284367	0.124082
580.496109	0.124159
580.707833	0.124081
580.919539	0.123661
581.131227	0.123858
581.342896	0.123821
581.554547	0.123313
581.766180	0.123482
581.977795	0.123813
582.189391	0.124322
582.400969	0.124413
582.612529	0.125010
582.824071	0.125554
583.035595	0.125754
583.247100	0.125818
583.458587	0.126378
583.670056	0.126297
583.881506	0.126449
584.092939	0.126403
584.304353	0.126525
584.515749	0.126471
584.727127	0.126560
584.938486	0.126915
585.149828	0.127368
585.361151	0.127263
585.572456	0.127790
585.783742	0.128032
585.995011	0.128192
586.206261	0.128079
586.417493	0.128286
586.628706	0.128350
586.839902	0.127855
587.051079	0.127598
587.262238	0.127942
587.473379	0.128006
587.684502	0.127709
587.895606	0.127759
588.106692	0.127904
588.317760	0.127661
588.528810	0.127750
588.739841	0.127790
588.950855	0.128149
589.161850	0.127926
589.372827	0.127818
589.583785	0.127921
589.794726	0.127847
590.005648	0.127929
590.216552	0.128021
590.427437	0.127964
590.638305	0.128302
590.849154	0.128085
591.059985	0.128318
591.270798	0.128025
591.481592	0.128043
591.692369	0.128147
591.903127	0.128199
592.113867	0.128275
592.324588	0.128408
592.535292	0.128314
592.745977	0.128346
592.956644	0.128433
593.167293	0.128677
593.377923	0.128740
593.588536	0.128958
593.799130	0.128812
594.009706	0.129051
594.220263	0.128936
594.430803	0.129208
594.641324	0.129769
594.851827	0.129909
595.062312	0.130301
595.272778	0.130710
595.483227	0.130901
595.693657	0.131129
595.904069	0.131002
596.114462	0.131241
596.324838	0.131282
596.535195	0.130987
596.745534	0.130967
596.955855	0.130757
597.166157	0.130909
597.376441	0.130915
597.586707	0.130806
597.796955	0.130994
598.007185	0.130979
598.217396	0.131088
598.427589	0.131187
598.637764	0.131329
598.847921	0.131612
599.058060	0.131668
599.268180	0.131750
599.478282	0.131804
599.688366	0.131624
599.898431	0.131755
600.108479	0.131611
600.318508	0.131933
600.528519	0.132109
600.738511	0.132204
600.948486	0.132043
601.158442	0.132375
601.368380	0.132442
601.578300	0.132660
601.788202	0.132796
601.998085	0.132870
602.207950	0.132753
602.417797	0.132855
602.627626	0.132801
602.837436	0.132995
603.047228	0.133119
603.257002	0.133492
603.466758	0.133497
603.676496	0.133826
603.886215	0.134101
604.095916	0.134354
604.305599	0.134118
604.515264	0.134196
604.724910	0.134136
604.934538	0.133788
605.144148	0.133707
605.353740	0.133744
605.563314	0.133555
605.772869	0.133306
605.982406	0.133100
606.191925	0.133360
606.401425	0.133521
606.610908	0.133681
606.820372	0.133824
607.029818	0.133879
607.239246	0.134248
607.448655	0.134047
607.658047	0.134457
607.867420	0.134671
608.076775	0.134619
608.286111	0.134788
608.495430	0.134820
608.704730	0.134893
608.914012	0.134931
609.123275	0.134715
609.332521	0.134944
609.541748	0.135089
609.750957	0.134843
609.960148	0.134864
610.169321	0.134838
610.378475	0.134831
610.587611	0.134620
610.796729	0.134864
611.005829	0.135112
611.214910	0.135179
611.423974	0.135093
611.633019	0.135413
611.842045	0.135589
612.051054	0.136142
612.260044	0.136287
612.469017	0.136503
612.677970	0.136550
612.886906	0.136692
613.095824	0.136897
613.304723	0.136865
613.513604	0.136845
613.722467	0.136806
613.931311	0.136595
614.140138	0.136447
614.348946	0.136476
614.557736	0.136569
614.766507	0.136678
614.975261	0.136921
615.183996	0.137228
615.392713	0.137448
615.601412	0.137659
615.810092	0.137462
616.018754	0.137661
616.227399	0.137988
616.436024	0.138007
616.644632	0.137868
616.853222	0.137633
617.061793	0.137720
617.270346	0.137804
617.478880	0.137609
617.687397	0.137852
617.895895	0.137906
618.104375	0.137969
618.312837	0.137993
618.521281	0.137876
618.729706	0.137932
618.938113	0.137740
619.146502	0.137726
619.354873	0.137950
619.563226	0.137694
619.771560	0.137876
619.979876	0.137808
620.188174	0.137816
620.396453	0.138188
620.604715	0.138304
620.812958	0.138326
621.021183	0.138298
621.229390	0.138269
621.437578	0.138635
621.645748	0.138627
621.853900	0.138744
622.062034	0.138914
622.270150	0.138990
622.478247	0.139080
622.686326	0.139098
622.894387	0.139276
623.102430	0.139384
623.310454	0.139409
623.518461	0.139643
623.726449	0.139797
623.934418	0.139874
624.142370	0.139908
624.350303	0.140186
624.558218	0.140294
624.766115	0.140307
624.973994	0.140393
625.181855	0.140448
625.389697	0.140234
625.597521	0.140221
625.805327	0.140169
626.013114	0.140138
626.220883	0.140070
626.428634	0.140107
626.636367	0.140061
626.844082	0.140013
627.051778	0.139922
627.259457	0.140273
627.467117	0.140419
627.674758	0.140742
627.882382	0.140802
628.089987	0.140687
628.297574	0.140871
628.505143	0.141052
628.712694	0.141192
628.920226	0.141465
629.127740	0.141114
629.335236	0.140860
629.542714	0.140702
629.750174	0.140960
629.957615	0.141240
630.165038	0.141323
630.372443	0.141705
630.579829	0.142113
630.787198	0.142127
630.994548	0.142479
631.201880	0.142849
631.409194	0.142977
631.616489	0.142656
631.823766	0.142618
632.031025	0.143014
632.238266	0.142615
632.445489	0.142569
632.652693	0.142545
632.859879	0.142638
633.067047	0.142741
633.274197	0.142794
633.481329	0.143272
633.688442	0.143466
633.895537	0.143111
634.102614	0.143205
634.309672	0.143150
634.516713	0.143333
634.723735	0.143195
634.930739	0.143050
635.137724	0.143136
635.344692	0.143020
635.551641	0.143093
635.758572	0.143355
635.965485	0.143827
636.172379	0.143834
636.379256	0.143881
636.586114	0.144013
636.792954	0.144339
636.999775	0.144301
637.206579	0.144535
637.413364	0.144465
637.620131	0.144603
637.826880	0.144462
638.033610	0.144674
638.240323	0.144707
638.447017	0.145040
638.653692	0.144754
638.860350	0.144941
639.066990	0.144844
639.273611	0.145106
639.480214	0.145069
639.686798	0.144935
639.893365	0.144810
640.099913	0.145038
640.306443	0.145118
640.512955	0.145334
640.719449	0.145475
640.925924	0.145483
641.132381	0.145368
641.338820	0.145334
641.545241	0.145510
641.751644	0.145759
641.958028	0.145804
642.164394	0.145956
642.370742	0.146076
642.577071	0.146240
642.783383	0.146549
642.989676	0.146833
643.195951	0.147004
643.402207	0.147121
643.608446	0.147197
643.814666	0.147287
644.020868	0.147187
644.227052	0.147390
644.433218	0.147266
644.639365	0.147079
644.845494	0.146834
645.051605	0.146910
645.257698	0.146895
645.463772	0.146946
645.669828	0.146832
645.875866	0.147122
646.081886	0.147046
646.287888	0.147262
646.493871	0.147471
646.699836	0.148005
646.905783	0.148145
647.111712	0.148277
647.317622	0.148224
647.523514	0.148569
647.729388	0.148280
647.935244	0.148530
648.141082	0.148521
648.346901	0.148688
648.552702	0.148649
648.758485	0.148650
648.964250	0.148793
649.169996	0.149005
649.375724	0.148801
649.581434	0.148903
649.787126	0.148894
649.992800	0.148851
650.198455	0.148995
650.404092	0.148910
650.609711	0.149184
650.815311	0.149151
651.020894	0.149422
651.226458	0.149695
651.432004	0.149779
651.637532	0.149637
651.843041	0.149887
652.048532	0.149725
652.254006	0.149829
652.459460	0.149719
652.664897	0.149839
652.870315	0.149815
653.075716	0.149852
653.281097	0.149992
653.486461	0.150334
653.691807	0.150363
653.897134	0.150658
654.102443	0.150863
654.307734	0.150839
654.513006	0.151132
654.718261	0.151288
654.923497	0.151496
655.128715	0.151769
655.333915	0.151849
655.539096	0.152164
655.744259	0.152165
655.949404	0.152263
656.154531	0.152508
656.359640	0.152532
656.564730	0.152353
656.769802	0.152337
656.974856	0.152327
657.179892	0.152424
657.384909	0.152190
657.589908	0.152235
657.794889	0.152388
657.999852	0.152616
658.204797	0.152796
658.409723	0.153031
658.614631	0.153176
658.819521	0.153374
659.024393	0.153478
659.229246	0.153747
659.434081	0.153924
659.638898	0.153923
659.843697	0.153807
660.048478	0.153828
660.253240	0.153865
660.457984	0.153895
660.662710	0.153804
660.867417	0.153928
661.072107	0.153975
661.276778	0.153908
661.481431	0.153889
661.686066	0.154184
661.890682	0.154219
662.095281	0.154407
662.299861	0.154332
662.504422	0.154253
662.708966	0.154328
662.913491	0.154369
663.117999	0.154567
663.322488	0.154656
663.526958	0.154444
663.731411	0.154505
663.935845	0.154662
664.140261	0.155003
664.344659	0.155372
664.549038	0.155494
664.753400	0.155610
664.957743	0.155856
665.162068	0.156005
665.366375	0.156071
665.570663	0.156398
665.774933	0.156445
665.979185	0.156406
666.183419	0.156299
666.387635	0.156220
666.591832	0.156275
666.796011	0.156317
667.000172	0.156313
667.204315	0.156700
667.408439	0.156639
667.612545	0.156694
667.816634	0.156749
668.020703	0.157000
668.224755	0.157358
668.428788	0.157650
668.632803	0.157675
668.836800	0.157980
669.040779	0.158104
669.244739	0.158163
669.448681	0.158224
669.652605	0.158618
669.856511	0.158828
670.060399	0.158803
670.264268	0.158975
670.468119	0.159052
670.671952	0.158855
670.875767	0.158668
671.079563	0.158663
671.283341	0.158671
671.487101	0.158441
671.690843	0.158354
671.894567	0.158216
672.098272	0.158212
672.301959	0.158492
672.505628	0.158780
672.709278	0.159017
672.912911	0.159358
673.116525	0.159638
673.320121	0.160018
673.523699	0.160167
673.727258	0.160540
673.930799	0.160732
674.134322	0.160680
674.337827	0.160845
674.541314	0.161085
674.744782	0.161334
674.948232	0.161310
675.151664	0.161241
675.355078	0.161386
675.558474	0.161388
675.761851	0.161318
675.965210	0.161624
676.168551	0.161749
676.371873	0.161811
676.575178	0.161601
676.778464	0.161716
676.981732	0.161904
677.184981	0.162122
677.388213	0.162438
677.591426	0.162609
677.794621	0.162665
677.997798	0.162706
678.200956	0.162874
678.404097	0.162834
678.607219	0.163010
678.810323	0.163244
679.013408	0.163118
679.216476	0.163113
679.419525	0.163292
679.622556	0.163433
679.825569	0.163836
680.028563	0.164003
680.231540	0.164491
680.434498	0.164520
680.637438	0.164416
680.840359	0.164684
681.043263	0.164653
681.246148	0.164863
681.449015	0.164694
681.651864	0.164479
681.854694	0.164419
682.057506	0.164449
682.260301	0.164722
682.463076	0.164624
682.665834	0.164601
682.868573	0.164644
683.071295	0.164576
683.273998	0.164853
683.476682	0.165026
683.679349	0.165045
683.881997	0.165156
684.084627	0.165169
684.287239	0.165504
684.489833	0.165692
684.692408	0.166050
684.894965	0.166059
685.097504	0.166107
685.300025	0.166180
685.502527	0.166300
685.705012	0.166263
685.907478	0.166311
686.109925	0.166407
686.312355	0.166557
686.514766	0.166348
686.717159	0.166640
686.919534	0.166812
687.121891	0.166751
687.324230	0.166891
687.526550	0.167051
687.728852	0.167202
687.931136	0.167184
688.133401	0.167055
688.335649	0.167396
688.537878	0.167261
688.740089	0.167300
688.942281	0.167493
689.144456	0.167326
689.346612	0.167158
689.548750	0.167228
689.750870	0.167433
689.952971	0.167525
690.155055	0.167474
690.357120	0.167594
690.559167	0.167653
690.761195	0.167733
690.963206	0.168216
691.165198	0.168662
691.367172	0.168694
691.569128	0.168687
691.771065	0.169066
691.972984	0.169206
692.174885	0.169250
692.376768	0.169383
692.578633	0.169454
692.780479	0.169409
692.982308	0.169269
693.184118	0.169311
693.385909	0.169419
