sample name	sample
index	1072
start time	 04-22-2021  10:38:31 AM


Wavelength (nm)	Absorbance
494.344910	0.006798
494.563924	0.006798
494.782919	0.006798
495.001897	0.061638
495.220856	-0.006807
495.439797	-0.011193
495.658719	-0.015338
495.877624	-0.011478
496.096510	-0.012452
496.315378	-0.010909
496.534227	-0.012553
496.753059	-0.015544
496.971872	-0.010012
497.190667	0.042814
497.409444	0.062471
497.628203	0.070546
497.846943	0.073398
498.065665	0.075576
498.284369	0.077524
498.503055	0.079543
498.721723	0.080741
498.940372	0.082164
499.159003	0.082764
499.377616	0.082893
499.596210	0.083075
499.814787	0.084161
500.033345	0.085473
500.251885	0.084700
500.470406	0.085102
500.688910	0.086135
500.907395	0.086455
501.125862	0.085881
501.344311	0.086291
501.562742	0.085335
501.781154	0.084798
501.999548	0.083549
502.217924	0.085595
502.436282	0.085327
502.654621	0.085933
502.872942	0.086162
503.091245	0.087684
503.309530	0.088709
503.527797	0.089856
503.746045	0.090434
503.964275	0.091317
504.182487	0.089609
504.400681	0.089408
504.618856	0.088146
504.837013	0.087872
505.055152	0.087565
505.273273	0.086709
505.491376	0.087446
505.709460	0.087308
505.927526	0.086531
506.145574	0.086841
506.363604	0.087192
506.581615	0.088003
506.799608	0.088873
507.017583	0.088725
507.235540	0.088907
507.453478	0.088285
507.671399	0.087949
507.889301	0.087960
508.107185	0.088139
508.325050	0.088405
508.542898	0.087942
508.760727	0.086388
508.978538	0.084620
509.196330	0.085122
509.414105	0.085202
509.631861	0.085755
509.849599	0.085948
510.067319	0.086800
510.285021	0.086478
510.502704	0.086684
510.720369	0.086591
510.938016	0.088591
511.155645	0.088077
511.373255	0.088870
511.590848	0.088481
511.808422	0.089220
512.025977	0.089166
512.243515	0.088980
512.461034	0.089137
512.678536	0.089881
512.896018	0.089297
513.113483	0.089227
513.330930	0.088608
513.548358	0.089034
513.765768	0.088699
513.983160	0.088150
514.200533	0.088651
514.417889	0.089380
514.635226	0.089299
514.852545	0.089765
515.069845	0.090475
515.287128	0.090961
515.504392	0.090571
515.721638	0.090831
515.938866	0.091406
516.156075	0.091848
516.373267	0.091992
516.590440	0.092220
516.807594	0.091798
517.024731	0.091710
517.241850	0.092107
517.458950	0.093031
517.676032	0.092764
517.893095	0.092710
518.110141	0.092640
518.327168	0.091872
518.544177	0.092695
518.761168	0.093235
518.978141	0.093836
519.195095	0.093657
519.412031	0.093583
519.628949	0.094346
519.845849	0.093905
520.062731	0.094006
520.279594	0.094733
520.496439	0.094086
520.713266	0.093980
520.930074	0.093381
521.146865	0.092834
521.363637	0.092084
521.580391	0.092653
521.797127	0.093731
522.013844	0.093854
522.230543	0.093774
522.447224	0.093970
522.663887	0.094576
522.880532	0.094935
523.097158	0.094944
523.313766	0.095827
523.530356	0.095229
523.746928	0.094842
523.963481	0.094873
524.180017	0.095012
524.396534	0.095761
524.613032	0.095995
524.829513	0.096254
525.045975	0.097237
525.262420	0.097476
525.478845	0.097832
525.695253	0.098857
525.911643	0.099021
526.128014	0.098837
526.344367	0.099591
526.560702	0.099358
526.777018	0.099579
526.993316	0.099474
527.209597	0.099352
527.425858	0.100173
527.642102	0.099763
527.858328	0.099802
528.074535	0.099783
528.290724	0.098678
528.506894	0.099260
528.723047	0.099621
528.939181	0.099713
529.155297	0.100288
529.371395	0.099749
529.587475	0.100228
529.803536	0.100807
530.019579	0.101568
530.235604	0.101902
530.451611	0.102233
530.667600	0.102380
530.883570	0.102663
531.099522	0.102395
531.315456	0.102010
531.531372	0.101904
531.747269	0.101737
531.963148	0.101618
532.179009	0.101997
532.394852	0.101550
532.610676	0.101482
532.826482	0.101707
533.042271	0.102258
533.258040	0.102525
533.473792	0.102640
533.689525	0.103061
533.905240	0.103317
534.120937	0.103111
534.336616	0.103838
534.552277	0.104052
534.767919	0.104394
534.983543	0.104384
535.199149	0.105228
535.414736	0.104926
535.630306	0.104390
535.845857	0.104043
536.061390	0.104126
536.276904	0.103555
536.492401	0.103741
536.707879	0.103938
536.923339	0.103618
537.138781	0.103189
537.354204	0.103820
537.569610	0.104424
537.784997	0.105266
538.000366	0.105761
538.215716	0.105967
538.431049	0.105773
538.646363	0.105970
538.861659	0.106393
539.076937	0.106596
539.292196	0.106478
539.507438	0.106968
539.722661	0.107243
539.937866	0.107561
540.153052	0.107762
540.368221	0.108482
540.583371	0.108437
540.798503	0.108639
541.013617	0.108910
541.228712	0.108966
541.443789	0.108736
541.658848	0.108673
541.873889	0.107996
542.088912	0.107991
542.303916	0.107756
542.518902	0.107585
542.733870	0.107944
542.948820	0.107746
543.163752	0.108138
543.378665	0.108244
543.593560	0.107768
543.808437	0.108499
544.023295	0.108928
544.238136	0.108886
544.452958	0.109355
544.667762	0.109167
544.882548	0.109807
545.097315	0.109621
545.312064	0.110068
545.526795	0.110915
545.741508	0.110879
545.956203	0.110657
546.170879	0.111198
546.385537	0.110906
546.600177	0.111321
546.814799	0.110830
547.029402	0.111394
547.243988	0.111424
547.458555	0.111191
547.673103	0.111333
547.887634	0.111653
548.102146	0.111399
548.316640	0.111840
548.531116	0.111567
548.745574	0.111709
548.960013	0.111635
549.174435	0.111819
549.388838	0.112361
549.603222	0.112273
549.817589	0.112159
550.031937	0.112658
550.246267	0.112877
550.460579	0.113481
550.674873	0.113650
550.889148	0.113700
551.103405	0.113150
551.317644	0.112737
551.531865	0.113075
551.746068	0.113416
551.960252	0.113336
552.174418	0.113267
552.388566	0.112916
552.602696	0.113089
552.816807	0.113051
553.030900	0.113123
553.244975	0.113622
553.459032	0.113412
553.673070	0.113104
553.887091	0.113059
554.101093	0.112911
554.315077	0.113239
554.529042	0.113127
554.742990	0.113360
554.956919	0.113604
555.170830	0.113358
555.384722	0.113675
555.598597	0.113844
555.812453	0.113917
556.026291	0.114060
556.240111	0.113682
556.453913	0.113840
556.667696	0.114066
556.881461	0.113867
557.095208	0.113925
557.308937	0.113891
557.522647	0.113879
557.736339	0.113490
557.950013	0.113670
558.163669	0.113959
558.377307	0.114606
558.590926	0.114442
558.804527	0.114904
559.018110	0.114602
559.231675	0.114465
559.445221	0.114560
559.658749	0.114612
559.872259	0.114442
560.085751	0.114490
560.299225	0.114133
560.512680	0.114481
560.726117	0.115081
560.939536	0.115458
561.152937	0.115752
561.366319	0.116001
561.579683	0.116415
561.793029	0.116479
562.006357	0.116366
562.219667	0.116495
562.432958	0.116464
562.646231	0.116207
562.859486	0.116508
563.072723	0.116695
563.285941	0.116300
563.499141	0.116621
563.712323	0.116576
563.925487	0.116578
564.138632	0.116129
564.351760	0.115533
564.564869	0.115245
564.777960	0.115162
564.991032	0.115029
565.204087	0.115311
565.417123	0.114856
565.630141	0.115387
565.843140	0.115671
566.056122	0.116327
566.269085	0.117114
566.482030	0.117145
566.694957	0.116957
566.907866	0.116806
567.120756	0.116479
567.333628	0.117023
567.546482	0.116941
567.759318	0.116874
567.972135	0.116587
568.184935	0.116354
568.397716	0.116715
568.610478	0.117054
568.823223	0.117552
569.035949	0.118135
569.248657	0.118247
569.461347	0.118239
569.674019	0.118440
569.886672	0.119022
570.099308	0.119014
570.311925	0.118896
570.524523	0.118793
570.737104	0.118780
570.949666	0.118952
571.162210	0.118615
571.374736	0.118624
571.587244	0.118588
571.799733	0.118079
572.012205	0.118116
572.224658	0.118410
572.437092	0.118187
572.649509	0.118141
572.861907	0.117932
573.074287	0.118220
573.286649	0.118142
573.498993	0.118273
573.711318	0.118683
573.923625	0.118709
574.135914	0.118308
574.348185	0.118508
574.560438	0.118424
574.772672	0.118476
574.984888	0.118255
575.197086	0.118349
575.409266	0.118542
575.621427	0.118464
575.833570	0.118569
576.045695	0.118786
576.257802	0.118544
576.469890	0.118914
576.681961	0.119017
576.894013	0.119038
577.106046	0.119103
577.318062	0.118767
577.530059	0.118562
577.742039	0.118555
577.954000	0.118365
578.165942	0.118942
578.377867	0.118778
578.589773	0.118973
578.801661	0.119334
579.013531	0.119272
579.225382	0.119353
579.437216	0.119622
579.649031	0.120153
579.860828	0.120459
580.072606	0.120512
580.284367	0.120678
580.496109	0.120059
580.707833	0.120095
580.919539	0.120342
581.131227	0.120382
581.342896	0.120555
581.554547	0.119884
581.766180	0.120002
581.977795	0.119980
582.189391	0.119906
582.400969	0.120528
582.612529	0.120266
582.824071	0.119857
583.035595	0.119885
583.247100	0.119674
583.458587	0.119998
583.670056	0.119837
583.881506	0.119913
584.092939	0.119616
584.304353	0.119560
584.515749	0.119969
584.727127	0.120692
584.938486	0.120861
585.149828	0.121332
585.361151	0.121466
585.572456	0.121362
585.783742	0.121629
585.995011	0.122231
586.206261	0.122499
586.417493	0.122208
586.628706	0.122107
586.839902	0.122416
587.051079	0.122263
587.262238	0.122265
587.473379	0.122781
587.684502	0.122274
587.895606	0.122270
588.106692	0.122302
588.317760	0.122432
588.528810	0.122051
588.739841	0.122108
588.950855	0.121911
589.161850	0.121883
589.372827	0.121670
589.583785	0.122339
589.794726	0.122017
590.005648	0.121858
590.216552	0.121514
590.427437	0.121735
590.638305	0.121741
590.849154	0.122055
591.059985	0.122063
591.270798	0.122273
591.481592	0.122010
591.692369	0.122592
591.903127	0.122840
592.113867	0.123421
592.324588	0.123824
592.535292	0.123862
592.745977	0.123770
592.956644	0.123824
593.167293	0.123662
593.377923	0.123753
593.588536	0.123289
593.799130	0.123152
594.009706	0.123242
594.220263	0.123414
594.430803	0.123374
594.641324	0.123534
594.851827	0.123764
595.062312	0.123927
595.272778	0.124097
595.483227	0.124482
595.693657	0.124627
595.904069	0.124716
596.114462	0.124200
596.324838	0.124028
596.535195	0.123841
596.745534	0.124139
596.955855	0.124273
597.166157	0.123998
597.376441	0.123975
597.586707	0.123962
597.796955	0.123715
598.007185	0.124244
598.217396	0.124566
598.427589	0.124872
598.637764	0.124572
598.847921	0.124588
599.058060	0.124959
599.268180	0.124712
599.478282	0.124794
599.688366	0.125021
599.898431	0.124781
600.108479	0.124908
600.318508	0.124747
600.528519	0.125085
600.738511	0.125106
600.948486	0.125053
601.158442	0.125398
601.368380	0.125607
601.578300	0.125601
601.788202	0.125740
601.998085	0.125751
602.207950	0.125531
602.417797	0.125454
602.627626	0.125338
602.837436	0.125529
603.047228	0.125682
603.257002	0.125610
603.466758	0.125756
603.676496	0.125734
603.886215	0.125551
604.095916	0.125975
604.305599	0.125656
604.515264	0.126128
604.724910	0.126245
604.934538	0.126260
605.144148	0.126381
605.353740	0.126485
605.563314	0.126493
605.772869	0.126647
605.982406	0.126364
606.191925	0.126752
606.401425	0.126379
606.610908	0.126332
606.820372	0.126580
607.029818	0.126805
607.239246	0.126927
607.448655	0.127019
607.658047	0.126984
607.867420	0.127326
608.076775	0.127328
608.286111	0.128022
608.495430	0.127922
608.704730	0.127987
608.914012	0.127605
609.123275	0.127646
609.332521	0.127824
609.541748	0.128040
609.750957	0.127945
609.960148	0.128300
610.169321	0.127985
610.378475	0.128119
610.587611	0.128090
610.796729	0.128624
611.005829	0.128660
611.214910	0.128774
611.423974	0.128580
611.633019	0.128796
611.842045	0.128507
612.051054	0.128339
612.260044	0.128536
612.469017	0.128486
612.677970	0.128480
612.886906	0.128539
613.095824	0.128389
613.304723	0.128608
613.513604	0.128637
613.722467	0.128746
613.931311	0.129159
614.140138	0.129282
614.348946	0.129408
614.557736	0.129363
614.766507	0.129393
614.975261	0.129160
615.183996	0.129266
615.392713	0.129239
615.601412	0.129494
615.810092	0.129181
616.018754	0.129058
616.227399	0.129056
616.436024	0.128996
616.644632	0.129280
616.853222	0.129679
617.061793	0.129711
617.270346	0.129785
617.478880	0.129827
617.687397	0.130070
617.895895	0.130322
618.104375	0.130493
618.312837	0.130601
618.521281	0.130396
618.729706	0.130266
618.938113	0.130069
619.146502	0.130402
619.354873	0.130305
619.563226	0.130284
619.771560	0.129948
619.979876	0.129576
620.188174	0.129474
620.396453	0.129593
620.604715	0.129984
620.812958	0.130251
621.021183	0.129996
621.229390	0.130057
621.437578	0.130154
621.645748	0.130380
621.853900	0.130757
622.062034	0.130941
622.270150	0.130793
622.478247	0.130789
622.686326	0.131176
622.894387	0.131338
623.102430	0.131222
623.310454	0.131332
623.518461	0.131558
623.726449	0.131480
623.934418	0.131428
624.142370	0.131499
624.350303	0.131572
624.558218	0.131244
624.766115	0.131369
624.973994	0.131624
625.181855	0.131416
625.389697	0.131329
625.597521	0.131430
625.805327	0.131554
626.013114	0.131615
626.220883	0.131556
626.428634	0.131481
626.636367	0.131509
626.844082	0.131505
627.051778	0.131726
627.259457	0.131802
627.467117	0.132109
627.674758	0.132329
627.882382	0.132543
628.089987	0.132582
628.297574	0.132942
628.505143	0.133135
628.712694	0.133023
628.920226	0.133186
629.127740	0.133296
629.335236	0.133089
629.542714	0.133094
629.750174	0.133359
629.957615	0.133400
630.165038	0.133478
630.372443	0.133588
630.579829	0.133960
630.787198	0.133797
630.994548	0.133812
631.201880	0.134008
631.409194	0.134060
631.616489	0.133781
631.823766	0.133838
632.031025	0.133837
632.238266	0.133625
632.445489	0.133803
632.652693	0.133896
632.859879	0.133999
633.067047	0.134071
633.274197	0.134052
633.481329	0.134035
633.688442	0.134234
633.895537	0.134384
634.102614	0.134693
634.309672	0.134451
634.516713	0.134548
634.723735	0.134261
634.930739	0.133971
635.137724	0.134256
635.344692	0.134462
635.551641	0.134483
635.758572	0.134206
635.965485	0.134119
636.172379	0.134298
636.379256	0.134535
636.586114	0.134792
636.792954	0.135253
636.999775	0.135329
637.206579	0.135146
637.413364	0.135206
637.620131	0.135523
637.826880	0.135596
638.033610	0.135503
638.240323	0.135417
638.447017	0.135398
638.653692	0.135260
638.860350	0.135032
639.066990	0.135273
639.273611	0.135513
639.480214	0.135599
639.686798	0.135735
639.893365	0.135981
640.099913	0.135968
640.306443	0.136183
640.512955	0.136327
640.719449	0.136639
640.925924	0.136911
641.132381	0.137093
641.338820	0.137221
641.545241	0.137448
641.751644	0.137464
641.958028	0.137745
642.164394	0.137824
642.370742	0.138177
642.577071	0.138029
642.783383	0.138073
642.989676	0.137938
643.195951	0.137771
643.402207	0.137609
643.608446	0.137679
643.814666	0.137657
644.020868	0.137859
644.227052	0.137734
644.433218	0.137950
644.639365	0.137860
644.845494	0.137664
645.051605	0.138161
645.257698	0.138238
645.463772	0.138330
645.669828	0.138300
645.875866	0.138362
646.081886	0.138135
646.287888	0.138422
646.493871	0.138571
646.699836	0.138845
646.905783	0.138758
647.111712	0.138865
647.317622	0.138976
647.523514	0.139176
647.729388	0.139245
647.935244	0.139695
648.141082	0.139727
648.346901	0.140087
648.552702	0.140387
648.758485	0.140551
648.964250	0.140769
649.169996	0.140990
649.375724	0.141291
649.581434	0.141605
649.787126	0.141666
649.992800	0.141794
650.198455	0.141705
650.404092	0.141789
650.609711	0.141708
650.815311	0.141886
651.020894	0.141880
651.226458	0.141953
651.432004	0.141812
651.637532	0.141933
651.843041	0.141969
652.048532	0.142015
652.254006	0.141951
652.459460	0.142204
652.664897	0.142315
652.870315	0.142468
653.075716	0.142543
653.281097	0.142862
653.486461	0.143012
653.691807	0.143160
653.897134	0.143315
654.102443	0.143500
654.307734	0.143567
654.513006	0.143583
654.718261	0.143740
654.923497	0.143935
655.128715	0.143964
655.333915	0.143927
655.539096	0.143869
655.744259	0.144167
655.949404	0.144422
656.154531	0.144653
656.359640	0.144664
656.564730	0.144671
656.769802	0.144517
656.974856	0.144547
657.179892	0.144497
657.384909	0.144684
657.589908	0.144644
657.794889	0.144602
657.999852	0.144520
658.204797	0.144602
658.409723	0.144743
658.614631	0.144987
658.819521	0.145187
659.024393	0.145634
659.229246	0.145848
659.434081	0.145780
659.638898	0.145735
659.843697	0.145902
660.048478	0.146112
660.253240	0.146007
660.457984	0.145874
660.662710	0.145709
660.867417	0.145452
661.072107	0.145198
661.276778	0.145430
661.481431	0.145618
661.686066	0.145662
661.890682	0.145748
662.095281	0.146116
662.299861	0.146491
662.504422	0.146647
662.708966	0.146994
662.913491	0.147215
663.117999	0.147260
663.322488	0.147486
663.526958	0.147448
663.731411	0.147583
663.935845	0.147428
664.140261	0.147639
664.344659	0.147911
664.549038	0.148003
664.753400	0.148095
664.957743	0.148024
665.162068	0.147915
665.366375	0.148168
665.570663	0.148170
665.774933	0.148405
665.979185	0.148407
666.183419	0.148532
666.387635	0.148492
666.591832	0.148610
666.796011	0.148747
667.000172	0.148864
667.204315	0.148843
667.408439	0.148901
667.612545	0.148865
667.816634	0.148747
668.020703	0.148707
668.224755	0.148873
668.428788	0.149039
668.632803	0.149360
668.836800	0.149631
669.040779	0.150054
669.244739	0.150219
669.448681	0.150243
669.652605	0.150690
669.856511	0.150745
670.060399	0.151113
670.264268	0.151418
670.468119	0.151525
670.671952	0.151690
670.875767	0.151637
671.079563	0.151794
671.283341	0.152120
671.487101	0.152079
671.690843	0.152343
671.894567	0.152157
672.098272	0.152091
672.301959	0.152049
672.505628	0.151915
672.709278	0.151976
672.912911	0.152206
673.116525	0.152461
673.320121	0.152524
673.523699	0.152624
673.727258	0.153006
673.930799	0.153431
674.134322	0.153797
674.337827	0.153895
674.541314	0.154188
674.744782	0.154300
674.948232	0.154084
675.151664	0.154179
675.355078	0.154265
675.558474	0.154209
675.761851	0.154325
675.965210	0.154212
676.168551	0.154444
676.371873	0.154459
676.575178	0.154653
676.778464	0.155074
676.981732	0.155168
677.184981	0.155094
677.388213	0.155196
677.591426	0.154955
677.794621	0.155147
677.997798	0.155378
678.200956	0.155408
678.404097	0.155198
678.607219	0.155125
678.810323	0.155167
679.013408	0.155205
679.216476	0.155184
679.419525	0.155148
679.622556	0.155043
679.825569	0.154999
680.028563	0.154887
680.231540	0.154796
680.434498	0.154980
680.637438	0.155218
680.840359	0.155371
681.043263	0.155461
681.246148	0.155497
681.449015	0.155766
681.651864	0.155733
681.854694	0.156111
682.057506	0.156224
682.260301	0.156029
682.463076	0.155803
682.665834	0.155982
682.868573	0.156413
683.071295	0.156804
683.273998	0.156969
683.476682	0.157262
683.679349	0.157291
683.881997	0.157535
684.084627	0.157830
684.287239	0.158166
684.489833	0.158197
684.692408	0.158078
684.894965	0.157907
685.097504	0.157816
685.300025	0.157780
685.502527	0.157804
685.705012	0.157812
685.907478	0.157855
686.109925	0.158026
686.312355	0.158219
686.514766	0.158186
686.717159	0.158390
686.919534	0.158468
687.121891	0.158574
687.324230	0.158668
687.526550	0.158746
687.728852	0.158690
687.931136	0.158804
688.133401	0.158867
688.335649	0.158932
688.537878	0.159060
688.740089	0.159095
688.942281	0.159017
689.144456	0.159157
689.346612	0.159203
689.548750	0.159276
689.750870	0.158942
689.952971	0.158653
690.155055	0.158592
690.357120	0.158649
690.559167	0.158870
690.761195	0.158956
690.963206	0.158867
691.165198	0.159156
691.367172	0.159287
691.569128	0.159389
691.771065	0.159695
691.972984	0.159931
692.174885	0.159968
692.376768	0.160042
692.578633	0.160233
692.780479	0.160303
692.982308	0.160181
693.184118	0.160328
693.385909	0.160502
