sample name	sample
index	90
start time	 02-15-2021  10:31:14 AM


Wavelength (nm)	Absorbance
494.344910	0.084400
494.563924	0.084400
494.782919	0.084400
495.001897	0.010476
495.220856	0.062752
495.439797	0.030255
495.658719	0.027239
495.877624	0.006810
496.096510	0.014472
496.315378	0.056144
496.534227	0.002633
496.753059	-0.030810
496.971872	-0.032752
497.190667	0.022169
497.409444	0.056443
497.628203	0.069264
497.846943	0.078287
498.065665	0.077499
498.284369	0.078161
498.503055	0.083758
498.721723	0.083974
498.940372	0.085487
499.159003	0.086584
499.377616	0.087426
499.596210	0.088237
499.814787	0.087770
500.033345	0.089034
500.251885	0.089216
500.470406	0.090108
500.688910	0.092338
500.907395	0.091463
501.125862	0.090389
501.344311	0.090447
501.562742	0.087992
501.781154	0.089230
501.999548	0.092031
502.217924	0.094362
502.436282	0.093572
502.654621	0.093643
502.872942	0.096008
503.091245	0.096162
503.309530	0.097450
503.527797	0.096862
503.746045	0.096502
503.964275	0.094964
504.182487	0.094426
504.400681	0.093823
504.618856	0.092398
504.837013	0.092164
505.055152	0.093882
505.273273	0.092991
505.491376	0.095288
505.709460	0.093839
505.927526	0.093974
506.145574	0.093273
506.363604	0.093394
506.581615	0.092913
506.799608	0.090643
507.017583	0.089941
507.235540	0.091145
507.453478	0.092874
507.671399	0.091920
507.889301	0.091390
508.107185	0.092729
508.325050	0.094080
508.542898	0.096690
508.760727	0.097437
508.978538	0.098413
509.196330	0.097809
509.414105	0.096524
509.631861	0.096698
509.849599	0.097748
510.067319	0.095979
510.285021	0.096027
510.502704	0.093720
510.720369	0.095892
510.938016	0.095170
511.155645	0.094430
511.373255	0.093943
511.590848	0.096117
511.808422	0.095591
512.025977	0.096720
512.243515	0.095798
512.461034	0.097428
512.678536	0.096575
512.896018	0.096702
513.113483	0.097575
513.330930	0.098211
513.548358	0.098816
513.765768	0.099420
513.983160	0.100509
514.200533	0.101272
514.417889	0.100216
514.635226	0.099401
514.852545	0.099101
515.069845	0.098568
515.287128	0.097010
515.504392	0.095084
515.721638	0.095678
515.938866	0.094504
516.156075	0.094266
516.373267	0.096096
516.590440	0.096009
516.807594	0.096440
517.024731	0.097708
517.241850	0.099829
517.458950	0.102187
517.676032	0.101258
517.893095	0.102351
518.110141	0.102886
518.327168	0.101844
518.544177	0.104161
518.761168	0.103772
518.978141	0.103697
519.195095	0.103881
519.412031	0.104035
519.628949	0.103122
519.845849	0.101669
520.062731	0.101199
520.279594	0.101703
520.496439	0.101369
520.713266	0.102566
520.930074	0.103073
521.146865	0.102653
521.363637	0.102300
521.580391	0.105010
521.797127	0.106004
522.013844	0.106615
522.230543	0.107878
522.447224	0.107161
522.663887	0.108138
522.880532	0.108926
523.097158	0.110108
523.313766	0.110794
523.530356	0.109473
523.746928	0.110547
523.963481	0.112060
524.180017	0.111933
524.396534	0.112197
524.613032	0.112278
524.829513	0.112596
525.045975	0.113347
525.262420	0.112925
525.478845	0.114521
525.695253	0.113734
525.911643	0.113434
526.128014	0.113398
526.344367	0.115158
526.560702	0.114656
526.777018	0.113379
526.993316	0.112306
527.209597	0.112286
527.425858	0.112341
527.642102	0.113151
527.858328	0.112705
528.074535	0.113513
528.290724	0.112199
528.506894	0.112700
528.723047	0.113730
528.939181	0.114546
529.155297	0.114563
529.371395	0.114678
529.587475	0.116209
529.803536	0.116778
530.019579	0.116624
530.235604	0.117123
530.451611	0.118120
530.667600	0.117511
530.883570	0.118270
531.099522	0.118254
531.315456	0.118284
531.531372	0.116704
531.747269	0.117052
531.963148	0.116217
532.179009	0.116531
532.394852	0.115865
532.610676	0.117075
532.826482	0.116389
533.042271	0.117561
533.258040	0.117528
533.473792	0.117848
533.689525	0.118145
533.905240	0.119650
534.120937	0.120165
534.336616	0.120475
534.552277	0.120177
534.767919	0.119593
534.983543	0.119764
535.199149	0.120539
535.414736	0.121290
535.630306	0.121132
535.845857	0.120575
536.061390	0.120442
536.276904	0.118915
536.492401	0.119377
536.707879	0.121014
536.923339	0.121613
537.138781	0.120671
537.354204	0.121013
537.569610	0.121277
537.784997	0.121571
538.000366	0.121299
538.215716	0.123782
538.431049	0.123017
538.646363	0.122103
538.861659	0.120884
539.076937	0.121717
539.292196	0.121958
539.507438	0.122041
539.722661	0.122465
539.937866	0.123257
540.153052	0.121880
540.368221	0.122425
540.583371	0.122100
540.798503	0.122721
541.013617	0.122544
541.228712	0.122140
541.443789	0.122987
541.658848	0.123200
541.873889	0.123036
542.088912	0.124094
542.303916	0.124779
542.518902	0.125776
542.733870	0.127191
542.948820	0.127417
543.163752	0.128072
543.378665	0.127089
543.593560	0.127275
543.808437	0.127287
544.023295	0.127083
544.238136	0.127671
544.452958	0.127864
544.667762	0.126686
544.882548	0.127107
545.097315	0.127245
545.312064	0.127835
545.526795	0.128328
545.741508	0.128566
545.956203	0.128807
546.170879	0.128403
546.385537	0.128721
546.600177	0.129217
546.814799	0.129449
547.029402	0.129252
547.243988	0.129715
547.458555	0.129650
547.673103	0.129927
547.887634	0.130691
548.102146	0.130924
548.316640	0.131788
548.531116	0.132493
548.745574	0.133039
548.960013	0.133387
549.174435	0.133826
549.388838	0.134073
549.603222	0.134330
549.817589	0.134514
550.031937	0.134922
550.246267	0.134332
550.460579	0.134483
550.674873	0.134394
550.889148	0.133865
551.103405	0.133974
551.317644	0.134599
551.531865	0.134617
551.746068	0.134840
551.960252	0.135298
552.174418	0.136051
552.388566	0.136620
552.602696	0.136505
552.816807	0.137368
553.030900	0.137371
553.244975	0.136988
553.459032	0.136867
553.673070	0.137342
553.887091	0.137647
554.101093	0.137658
554.315077	0.137310
554.529042	0.138049
554.742990	0.138112
554.956919	0.138074
555.170830	0.138436
555.384722	0.139521
555.598597	0.138407
555.812453	0.137868
556.026291	0.137154
556.240111	0.137326
556.453913	0.136793
556.667696	0.137451
556.881461	0.137719
557.095208	0.137832
557.308937	0.138303
557.522647	0.139321
557.736339	0.140119
557.950013	0.140159
558.163669	0.140242
558.377307	0.140845
558.590926	0.140998
558.804527	0.141122
559.018110	0.141692
559.231675	0.140719
559.445221	0.141246
559.658749	0.141688
559.872259	0.142696
560.085751	0.143521
560.299225	0.143437
560.512680	0.143712
560.726117	0.144528
560.939536	0.144664
561.152937	0.145716
561.366319	0.145000
561.579683	0.145101
561.793029	0.144894
562.006357	0.143525
562.219667	0.144442
562.432958	0.143691
562.646231	0.143375
562.859486	0.143057
563.072723	0.142303
563.285941	0.142909
563.499141	0.141595
563.712323	0.142751
563.925487	0.143895
564.138632	0.143074
564.351760	0.143745
564.564869	0.144000
564.777960	0.144194
564.991032	0.144781
565.204087	0.145368
565.417123	0.146818
565.630141	0.146040
565.843140	0.146187
566.056122	0.146368
566.269085	0.146720
566.482030	0.147037
566.694957	0.147110
566.907866	0.146817
567.120756	0.146629
567.333628	0.146152
567.546482	0.146074
567.759318	0.145766
567.972135	0.146544
568.184935	0.146852
568.397716	0.146150
568.610478	0.146028
568.823223	0.146923
569.035949	0.147456
569.248657	0.148233
569.461347	0.148399
569.674019	0.149240
569.886672	0.149252
570.099308	0.149148
570.311925	0.149170
570.524523	0.149313
570.737104	0.147998
570.949666	0.147780
571.162210	0.147444
571.374736	0.147943
571.587244	0.148268
571.799733	0.148354
572.012205	0.148412
572.224658	0.149683
572.437092	0.150784
572.649509	0.151918
572.861907	0.151632
573.074287	0.151867
573.286649	0.151901
573.498993	0.151733
573.711318	0.151981
573.923625	0.152671
574.135914	0.153074
574.348185	0.152945
574.560438	0.153454
574.772672	0.153243
574.984888	0.153956
575.197086	0.154306
575.409266	0.154316
575.621427	0.154509
575.833570	0.153613
576.045695	0.153466
576.257802	0.153034
576.469890	0.152662
576.681961	0.152957
576.894013	0.151979
577.106046	0.151924
577.318062	0.151793
577.530059	0.151585
577.742039	0.152209
577.954000	0.152314
578.165942	0.152515
578.377867	0.152856
578.589773	0.152475
578.801661	0.152747
579.013531	0.153268
579.225382	0.153649
579.437216	0.154230
579.649031	0.153427
579.860828	0.152702
580.072606	0.152704
580.284367	0.152702
580.496109	0.154007
580.707833	0.154221
580.919539	0.154513
581.131227	0.154604
581.342896	0.154635
581.554547	0.154965
581.766180	0.155973
581.977795	0.156892
582.189391	0.157593
582.400969	0.157133
582.612529	0.156767
582.824071	0.156759
583.035595	0.157437
583.247100	0.157013
583.458587	0.158151
583.670056	0.158181
583.881506	0.157642
584.092939	0.157410
584.304353	0.157850
584.515749	0.158347
584.727127	0.157648
584.938486	0.156936
585.149828	0.157756
585.361151	0.157274
585.572456	0.157069
585.783742	0.157326
585.995011	0.157107
586.206261	0.157147
586.417493	0.157387
586.628706	0.157935
586.839902	0.157654
587.051079	0.157192
587.262238	0.157342
587.473379	0.157643
587.684502	0.157249
587.895606	0.157764
588.106692	0.157849
588.317760	0.158016
588.528810	0.158496
588.739841	0.159544
588.950855	0.160070
589.161850	0.159972
589.372827	0.160046
589.583785	0.160399
589.794726	0.160610
590.005648	0.160498
590.216552	0.161153
590.427437	0.160786
590.638305	0.160345
590.849154	0.160366
591.059985	0.160816
591.270798	0.161123
591.481592	0.161800
591.692369	0.161743
591.903127	0.162313
592.113867	0.161593
592.324588	0.162253
592.535292	0.162801
592.745977	0.162447
592.956644	0.162119
593.167293	0.161719
593.377923	0.161967
593.588536	0.161815
593.799130	0.161932
594.009706	0.162744
594.220263	0.163273
594.430803	0.163427
594.641324	0.164132
594.851827	0.165032
595.062312	0.165525
595.272778	0.165045
595.483227	0.165688
595.693657	0.165923
595.904069	0.166035
596.114462	0.165991
596.324838	0.165930
596.535195	0.166019
596.745534	0.165775
596.955855	0.166318
597.166157	0.166324
597.376441	0.166557
597.586707	0.166352
597.796955	0.166791
598.007185	0.165891
598.217396	0.165819
598.427589	0.165071
598.637764	0.165527
598.847921	0.164883
599.058060	0.166037
599.268180	0.165909
599.478282	0.165704
599.688366	0.165880
599.898431	0.166208
600.108479	0.166608
600.318508	0.167456
600.528519	0.167549
600.738511	0.168023
600.948486	0.167365
601.158442	0.167752
601.368380	0.167994
601.578300	0.167617
601.788202	0.167760
601.998085	0.168539
602.207950	0.168297
602.417797	0.168651
602.627626	0.168747
602.837436	0.169068
603.047228	0.168674
603.257002	0.168838
603.466758	0.169253
603.676496	0.169918
603.886215	0.169535
604.095916	0.170097
604.305599	0.169834
604.515264	0.169806
604.724910	0.170155
604.934538	0.170286
605.144148	0.170802
605.353740	0.170517
605.563314	0.171009
605.772869	0.171327
605.982406	0.171301
606.191925	0.171513
606.401425	0.171554
606.610908	0.170799
606.820372	0.171491
607.029818	0.171494
607.239246	0.171581
607.448655	0.171013
607.658047	0.170674
607.867420	0.170518
608.076775	0.170707
608.286111	0.171336
608.495430	0.171961
608.704730	0.172177
608.914012	0.172412
609.123275	0.172565
609.332521	0.172705
609.541748	0.173199
609.750957	0.173134
609.960148	0.173512
610.169321	0.172918
610.378475	0.173375
610.587611	0.173206
610.796729	0.173433
611.005829	0.173731
611.214910	0.173255
611.423974	0.172441
611.633019	0.172711
611.842045	0.172627
612.051054	0.172959
612.260044	0.172641
612.469017	0.173335
612.677970	0.173443
612.886906	0.173378
613.095824	0.174347
613.304723	0.174942
613.513604	0.174980
613.722467	0.175008
613.931311	0.175696
614.140138	0.176135
614.348946	0.176242
614.557736	0.176056
614.766507	0.176411
614.975261	0.176674
615.183996	0.177201
615.392713	0.178314
615.601412	0.178482
615.810092	0.178150
616.018754	0.178106
616.227399	0.177677
616.436024	0.177789
616.644632	0.177735
616.853222	0.177792
617.061793	0.177982
617.270346	0.177524
617.478880	0.177283
617.687397	0.178051
617.895895	0.177755
618.104375	0.178145
618.312837	0.178139
618.521281	0.178202
618.729706	0.177778
618.938113	0.177748
619.146502	0.177756
619.354873	0.178216
619.563226	0.177614
619.771560	0.177656
619.979876	0.177591
620.188174	0.177846
620.396453	0.177916
620.604715	0.178119
620.812958	0.178430
621.021183	0.178552
621.229390	0.178603
621.437578	0.178621
621.645748	0.179660
621.853900	0.179761
622.062034	0.180203
622.270150	0.180131
622.478247	0.180317
622.686326	0.179830
622.894387	0.179677
623.102430	0.179610
623.310454	0.179973
623.518461	0.179597
623.726449	0.179665
623.934418	0.179918
624.142370	0.180694
624.350303	0.180925
624.558218	0.181356
624.766115	0.181651
624.973994	0.181783
625.181855	0.181655
625.389697	0.182160
625.597521	0.182648
625.805327	0.182481
626.013114	0.182423
626.220883	0.183314
626.428634	0.183391
626.636367	0.183677
626.844082	0.183989
627.051778	0.184823
627.259457	0.185153
627.467117	0.184548
627.674758	0.184603
627.882382	0.185165
628.089987	0.184680
628.297574	0.184886
628.505143	0.184941
628.712694	0.185466
628.920226	0.184724
629.127740	0.184002
629.335236	0.184441
629.542714	0.184765
629.750174	0.184043
629.957615	0.183523
630.165038	0.183615
630.372443	0.183888
630.579829	0.183045
630.787198	0.183792
630.994548	0.184376
631.201880	0.184639
631.409194	0.184611
631.616489	0.185269
631.823766	0.186129
632.031025	0.186136
632.238266	0.186608
632.445489	0.187222
632.652693	0.187025
632.859879	0.187239
633.067047	0.187416
633.274197	0.187331
633.481329	0.187590
633.688442	0.187697
633.895537	0.188020
634.102614	0.187880
634.309672	0.188279
634.516713	0.188860
634.723735	0.189133
634.930739	0.189360
635.137724	0.189641
635.344692	0.189702
635.551641	0.189863
635.758572	0.189922
635.965485	0.190652
636.172379	0.190308
636.379256	0.190380
636.586114	0.190191
636.792954	0.190250
636.999775	0.190710
637.206579	0.190388
637.413364	0.190455
637.620131	0.190646
637.826880	0.190615
638.033610	0.191021
638.240323	0.191062
638.447017	0.191014
638.653692	0.191110
638.860350	0.191082
639.066990	0.191283
639.273611	0.191536
639.480214	0.191866
639.686798	0.191674
639.893365	0.191367
640.099913	0.191386
640.306443	0.191699
640.512955	0.191641
640.719449	0.192043
640.925924	0.192417
641.132381	0.192386
641.338820	0.192386
641.545241	0.192588
641.751644	0.193442
641.958028	0.193592
642.164394	0.193620
642.370742	0.193900
642.577071	0.193465
642.783383	0.193875
642.989676	0.194146
643.195951	0.194111
643.402207	0.194216
643.608446	0.193965
643.814666	0.194004
644.020868	0.194103
644.227052	0.194095
644.433218	0.194682
644.639365	0.194831
644.845494	0.195099
645.051605	0.195133
645.257698	0.195173
645.463772	0.195610
645.669828	0.196122
645.875866	0.196517
646.081886	0.196517
646.287888	0.196459
646.493871	0.196424
646.699836	0.196442
646.905783	0.197165
647.111712	0.197474
647.317622	0.197483
647.523514	0.197718
647.729388	0.197671
647.935244	0.197814
648.141082	0.198159
648.346901	0.198562
648.552702	0.198607
648.758485	0.198345
648.964250	0.198320
649.169996	0.198803
649.375724	0.198330
649.581434	0.198820
649.787126	0.199126
649.992800	0.199147
650.198455	0.198922
650.404092	0.198882
650.609711	0.199029
650.815311	0.198761
651.020894	0.198655
651.226458	0.199170
651.432004	0.199023
651.637532	0.199223
651.843041	0.199439
652.048532	0.199483
652.254006	0.199545
652.459460	0.199861
652.664897	0.200904
652.870315	0.201266
653.075716	0.201832
653.281097	0.201985
653.486461	0.202316
653.691807	0.202192
653.897134	0.202755
654.102443	0.203275
654.307734	0.203463
654.513006	0.203313
654.718261	0.203274
654.923497	0.202693
655.128715	0.203146
655.333915	0.203341
655.539096	0.203669
655.744259	0.203874
655.949404	0.204213
656.154531	0.204320
656.359640	0.204544
656.564730	0.204607
656.769802	0.204768
656.974856	0.204554
657.179892	0.204639
657.384909	0.204962
657.589908	0.205326
657.794889	0.205374
657.999852	0.205586
658.204797	0.205592
658.409723	0.205807
658.614631	0.206442
658.819521	0.206923
659.024393	0.206723
659.229246	0.206869
659.434081	0.206522
659.638898	0.206672
659.843697	0.206339
660.048478	0.206648
660.253240	0.206946
660.457984	0.207060
660.662710	0.207097
660.867417	0.207613
661.072107	0.207650
661.276778	0.207979
661.481431	0.208085
661.686066	0.208969
661.890682	0.208874
662.095281	0.209356
662.299861	0.209218
662.504422	0.209711
662.708966	0.209719
662.913491	0.209978
663.117999	0.210160
663.322488	0.210684
663.526958	0.210644
663.731411	0.211030
663.935845	0.210827
664.140261	0.211327
664.344659	0.211370
664.549038	0.211574
664.753400	0.212052
664.957743	0.212110
665.162068	0.211810
665.366375	0.211741
665.570663	0.211906
665.774933	0.211913
665.979185	0.212227
666.183419	0.212592
666.387635	0.213258
666.591832	0.213149
666.796011	0.213418
667.000172	0.213986
667.204315	0.214208
667.408439	0.214181
667.612545	0.214444
667.816634	0.214349
668.020703	0.214265
668.224755	0.213894
668.428788	0.213882
668.632803	0.214498
668.836800	0.214424
669.040779	0.214889
669.244739	0.215123
669.448681	0.215258
669.652605	0.215545
669.856511	0.215768
670.060399	0.216293
670.264268	0.216779
670.468119	0.216630
670.671952	0.216669
670.875767	0.216844
671.079563	0.217378
671.283341	0.217658
671.487101	0.217540
671.690843	0.217762
671.894567	0.218114
672.098272	0.218375
672.301959	0.217955
672.505628	0.217967
672.709278	0.217857
672.912911	0.217513
673.116525	0.217709
673.320121	0.218305
673.523699	0.218371
673.727258	0.217939
673.930799	0.218030
674.134322	0.218531
674.337827	0.218948
674.541314	0.219357
674.744782	0.219321
674.948232	0.219832
675.151664	0.219678
675.355078	0.220095
675.558474	0.220651
675.761851	0.221258
675.965210	0.221738
676.168551	0.222027
676.371873	0.222065
676.575178	0.222968
676.778464	0.223150
676.981732	0.223626
677.184981	0.223423
677.388213	0.223533
677.591426	0.223242
677.794621	0.223499
677.997798	0.223653
678.200956	0.223807
678.404097	0.223714
678.607219	0.223390
678.810323	0.223824
679.013408	0.224256
679.216476	0.224716
679.419525	0.225069
679.622556	0.225153
679.825569	0.225275
680.028563	0.225481
680.231540	0.225705
680.434498	0.226086
680.637438	0.225740
680.840359	0.225662
681.043263	0.225721
681.246148	0.225344
681.449015	0.225335
681.651864	0.225662
681.854694	0.225869
682.057506	0.225798
682.260301	0.225809
682.463076	0.226041
682.665834	0.226561
682.868573	0.226621
683.071295	0.227299
683.273998	0.227340
683.476682	0.227569
683.679349	0.228282
683.881997	0.228350
684.084627	0.228684
684.287239	0.228978
684.489833	0.229248
684.692408	0.228902
684.894965	0.229248
685.097504	0.229684
685.300025	0.229262
685.502527	0.228918
685.705012	0.229334
685.907478	0.229384
686.109925	0.229358
686.312355	0.229271
686.514766	0.229942
686.717159	0.229436
686.919534	0.229367
687.121891	0.229772
687.324230	0.229995
687.526550	0.230456
687.728852	0.230442
687.931136	0.230640
688.133401	0.231118
688.335649	0.231700
688.537878	0.232346
688.740089	0.232641
688.942281	0.233200
689.144456	0.233229
689.346612	0.233253
689.548750	0.233930
689.750870	0.234005
689.952971	0.233689
690.155055	0.233341
690.357120	0.233059
690.559167	0.233358
690.761195	0.233214
690.963206	0.233376
691.165198	0.233455
691.367172	0.233282
691.569128	0.233742
691.771065	0.233955
691.972984	0.233919
692.174885	0.234221
692.376768	0.234257
692.578633	0.234368
692.780479	0.234789
692.982308	0.234854
693.184118	0.234952
693.385909	0.235181
