sample name	sample
index	514
start time	 03-11-2021  03:28:29 PM
880	0.256412
Peak Time (s)	92.036
Peak Height 	0.2564
calc peak height	90,93
Baseline Time (s)	9.035
Baseline Value 	-0.005435
subtract baseline	10,4
Abs	0.150518
Peak Time (s)	91.064
Peak Height 	0.1505
calc peak height	90,93
Baseline Time (s)	9.035
Baseline Value 	-2.1278E-4
subtract baseline	10,3
PK_550	0.083728
Peak Time (s)	90.035
Peak Height 	0.08373
calc peak height	90,93
Baseline Time (s)	9.035
Baseline Value 	5.4389E-4
subtract baseline	10,2
PK_880	0.145675
Peak Time (s)	90.035
Peak Height 	0.1457
calc peak height	90,93
Baseline Time (s)	8.54
Baseline Value 	0.001983
subtract baseline	10,1


Time (s)	A880-A510	A880-A775	A880-A975	A880	I510	I775	I975	I880	
0.035500	-0.000296	-0.000197	0.001844	0.002769	7011.636779	45058.364323	3979.297634	23954.884209
0.535500	-0.003498	-0.001097	-0.002796	0.005136	6959.433735	44743.129130	3961.677533	23840.562544
1.036000	-0.003264	-0.000747	-0.001535	0.003748	6974.568335	44910.562156	3968.306934	23907.548732
1.536500	-0.000828	-0.000214	-0.001488	0.001121	7022.185236	45216.718530	3975.038275	24034.878017
2.037000	0.000286	-0.000246	0.001836	0.000906	7034.767000	45234.521509	3984.010695	24045.327512
2.537000	-0.002738	-0.000155	-0.000462	0.002347	6992.624950	45103.350528	3974.533464	23975.351642
3.037000	0.000129	-0.000100	0.002840	-0.000478	7046.425171	45383.610715	3990.105591	24112.764580
3.534500	-0.000088	0.000634	0.004414	0.001224	7028.207682	45289.245699	3989.778994	24029.873047
4.037500	0.001211	-0.000250	0.004128	0.000779	7044.768358	45246.442053	3990.185911	24051.511940
4.535500	-0.000620	-0.000726	-0.004948	0.001489	7020.676055	45131.319760	3965.415314	24017.015055
5.035500	0.002225	0.000602	-0.000553	0.000735	7054.847286	45333.832293	3978.380192	24053.673802
5.536000	0.000489	0.000511	-0.000001	0.000669	7038.949870	45331.320965	3979.944217	24056.855281
6.036000	0.001141	-0.000239	0.006415	-0.000089	7052.362338	45332.113305	3998.290911	24093.793901
6.536500	0.001600	0.000411	0.002539	0.000596	7050.213119	45328.778783	3986.593672	24060.437887
7.036500	0.001805	-0.000507	-0.001699	-0.000221	7059.946387	45318.874007	3977.897379	24100.217769
7.537000	-0.000705	0.000989	-0.000148	0.000689	7027.440220	45376.044046	3979.522721	24055.903502
8.036500	0.001652	0.000448	-0.000631	0.000118	7055.260292	45378.941546	3979.744142	24083.695142
8.540000	0.000000	0.000262	-0.002956	-0.000217	7042.719389	45393.510566	3974.709355	24100.028141
9.035000	-0.000102	0.000000	0.000000	0.000000	7039.684574	45346.734253	3981.645299	24089.451373
9.535500	0.000982	-0.000003	0.001341	0.000240	7047.707666	45323.023975	3984.445859	24077.743028
10.035500	-0.000316	0.000123	-0.000720	0.000114	7036.573027	45347.637721	3979.529038	24083.888533
10.536000	-0.000398	0.000426	0.001853	0.000183	7035.134253	45370.438562	3985.894793	24080.509394
11.036000	0.001287	-0.000555	-0.000692	-0.000630	7058.916319	45354.051420	3981.488723	24120.205420
11.536500	0.002465	-0.000254	0.006335	-0.000068	7064.791281	45328.579216	3998.031930	24092.764784
12.036500	-0.003191	-0.000461	0.001270	0.004005	6972.855640	44913.425617	3974.720096	23895.133525
12.537000	-0.000061	-0.000301	0.004097	0.000033	7039.756315	45314.109257	3992.015769	24087.822747
13.040000	0.000918	0.000430	-0.000675	-0.001188	7060.719036	45504.914180	3982.950120	24147.462281
13.535000	0.000946	-0.000043	0.005103	-0.001204	7061.136834	45460.207670	3997.785721	24148.241854
14.035500	-0.003012	0.000024	0.000549	0.004478	6970.100477	44914.471157	3971.707583	23872.271434
14.535500	-0.000643	-0.000083	-0.000970	0.002220	7013.542364	45122.622445	3973.570044	23981.488900
15.036000	0.002579	0.000065	0.006488	0.000068	7064.585495	45346.426011	3998.074310	24086.118951
15.547500	0.002217	0.000100	0.004310	-0.000766	7069.095301	45431.243399	3994.615203	24126.810368
16.036000	-0.002445	0.000193	-0.002106	0.005006	6970.469261	44879.916617	3963.724904	23846.827045
16.536500	0.001577	-0.000257	0.002423	-0.001146	7066.605115	45433.510975	3990.749180	24145.369607
17.037000	0.001171	0.000344	0.002713	-0.000854	7059.940557	45463.706474	3990.743620	24131.110394
17.542000	0.002536	0.001090	0.005028	-0.002176	7085.677815	45666.483102	4000.099958	24195.796616
18.035000	-0.000284	-0.000189	0.003949	0.002473	7014.538933	45087.804140	3985.399966	23969.227407
18.535000	0.000897	0.000044	-0.002613	0.000941	7040.234984	45259.321858	3972.653807	24043.608014
19.035500	0.001116	-0.000317	0.005513	0.000422	7047.262200	45274.729689	3994.655397	24068.902094
19.535500	0.000199	-0.000752	0.002274	0.000422	7038.547339	45232.422098	3986.362044	24068.908739
20.036000	-0.000899	-0.000255	-0.002469	0.002049	7012.741750	45122.600746	3970.227767	23989.821717
20.539500	-0.000414	-0.000541	0.004158	0.000646	7030.599693	45231.149213	3990.602450	24057.994166
21.036500	0.000911	0.000275	0.001974	0.001066	7039.186981	45269.674551	3983.955249	24037.550043
21.536500	0.001499	0.000281	0.001496	0.000934	7046.032967	45283.144380	3983.074386	24043.981342
22.042500	-0.001179	-0.000788	0.008106	0.000248	7027.117830	45245.742640	4001.787957	24077.341724
22.537500	0.001307	-0.000185	0.000134	0.000818	7045.312888	45249.046582	3979.910030	24049.628049
23.067500	-0.000074	-0.000337	0.004136	0.000753	7032.808498	45240.586536	3990.274045	24052.778725
23.534500	0.000016	0.000643	0.004441	0.001429	7027.254296	45270.176336	3989.323243	24019.927460
24.475000	-0.000485	-0.000330	-0.001175	0.000611	7030.258973	45255.112928	3977.117957	24059.709303
24.997500	0.001326	0.000205	0.008885	0.000999	7043.763785	45269.372919	4001.862269	24040.812801
25.089500	-0.000790	-0.000132	0.002351	0.000853	7025.076718	45250.717084	3985.456393	24047.903800
25.536500	-0.001599	-0.000553	0.000333	0.000343	7022.240821	45259.436208	3981.618841	24072.725730
26.036000	0.000758	0.000028	0.000055	0.000853	7039.757846	45266.340835	3979.620925	24047.926239
26.540000	-0.003287	-0.000102	0.003913	0.001858	6992.057741	45155.966757	3986.876546	23999.061251
27.037000	-0.000411	-0.000338	-0.001509	0.000560	7031.446208	45259.259729	3976.402622	24062.191885
27.535000	0.000981	-0.000037	0.000894	-0.000514	7054.892693	45393.321526	3985.228294	24114.533440
28.035000	0.002086	0.000975	0.004632	-0.002027	7079.922372	45640.563696	3998.691975	24188.510551
28.535000	-0.001590	0.000272	0.002587	0.005439	6974.400395	44845.660304	3974.423176	23825.946637
29.036000	0.001495	-0.000135	0.002236	-0.000737	7061.914622	45405.469142	3989.222112	24125.394833
29.535500	0.000402	-0.000024	0.000724	-0.000982	7053.837476	45440.351314	3985.988178	24137.397425
30.036500	-0.000734	0.000306	-0.000014	0.005350	6983.254094	44857.637704	3968.103467	23830.257011
30.536500	0.000186	-0.001033	0.005491	-0.001484	7056.547135	45390.715020	3999.506031	24161.893075
31.039500	-0.001381	-0.000391	0.003146	0.001644	7012.008973	45148.698901	3985.467737	24009.446857
31.537000	-0.000491	0.000530	0.000741	0.002114	7015.971580	45192.433957	3978.162144	23986.627124
32.037500	-0.003660	-0.000563	0.003925	0.004556	6963.329394	44850.370378	3980.044522	23868.517103
32.535000	-0.003525	-0.000267	-0.001764	0.004167	6968.217817	44916.413095	3966.681661	23887.282268
33.035500	0.002249	0.000785	0.001550	-0.000396	7065.867545	45462.099254	3986.599990	24108.754655
33.535500	0.001500	-0.000146	0.003239	-0.000691	7061.532299	45399.978941	3991.673542	24123.169379
34.035500	0.001526	0.000791	0.004803	0.001637	7039.599640	45264.279859	3989.716250	24009.778796
34.536500	0.000116	-0.000201	0.001421	0.002785	7015.374627	45056.527048	3978.186192	23954.136554
35.036500	-0.000698	-0.000419	-0.000468	0.001420	7020.583513	45167.675869	3976.858597	24020.333582
35.539000	-0.000660	-0.000503	0.003543	0.001638	7018.888556	45138.468725	3986.496828	24009.768752
36.037000	-0.001741	-0.000686	-0.000436	0.001747	7007.648726	45110.009829	3976.112001	24004.446407
36.537500	-0.000763	-0.000470	0.001822	0.002386	7010.843279	45069.065907	3980.212889	23973.466125
37.037500	0.001265	0.000264	0.002363	0.001885	7034.765765	45188.903090	3982.858388	23997.748173
37.534500	-0.000430	-0.000216	0.002177	0.001525	7022.121648	45177.211374	3983.303398	24015.238885
38.035500	-0.000015	-0.000422	0.003426	0.002646	7015.443157	45048.463776	3983.627964	23960.838278
38.535500	-0.000347	-0.000349	0.004546	0.001524	7022.920088	45164.435629	3989.349235	24015.274591
39.035500	-0.000267	-0.000393	0.007594	0.002019	7018.993994	45112.117462	3995.898541	23991.242484
39.536000	-0.001599	-0.000424	0.006271	0.001592	7010.457794	45150.631282	3993.596182	24012.012314
40.039000	0.000998	0.000118	0.004203	0.002558	7025.865573	45109.414916	3985.832962	23965.139418
40.537000	0.001479	0.000513	0.003732	0.002306	7032.802223	45172.195621	3985.274271	23977.335006
41.037000	-0.001343	-0.000132	0.002680	0.001789	7011.006080	45159.820386	3983.911371	24002.442827
41.537500	0.000970	0.000824	0.002903	0.002223	7028.770197	45210.424601	3983.373269	23981.348665
42.035000	-0.000885	-0.000318	0.002274	0.002192	7011.525511	45102.546397	3981.851537	23982.848452
42.535000	0.000175	0.000539	0.003004	0.002392	7019.646037	45166.402526	3983.200012	23973.167608
43.035500	-0.000187	-0.000061	0.001538	0.001494	7024.722459	45195.378405	3981.757016	24016.764693
43.535500	-0.001243	-0.000251	-0.001204	0.001859	7011.291117	45141.413485	3973.892441	23999.035924
44.036000	-0.001656	0.000444	0.000988	0.002957	6997.063459	45102.363418	3976.656869	23945.820135
44.539000	-0.002261	-0.000360	0.000839	0.004604	6975.942186	44865.314053	3972.123520	23866.216205
45.036500	-0.000180	0.000459	0.001692	-0.000629	7044.925229	45452.925787	3987.557248	24120.116015
45.537000	0.001818	0.000069	0.002881	-0.000571	7063.422123	45409.238981	3990.448799	24117.298064
46.034500	-0.002112	-0.001050	0.002844	0.004815	6975.361439	44778.513857	3976.650707	23856.041916
46.537500	-0.001810	0.000285	-0.001668	0.004862	6977.747126	44902.702554	3965.181723	23853.780062
47.035000	0.000442	0.000192	0.006075	-0.000250	7047.237644	45389.817595	3997.830804	24101.637062
47.535500	-0.000522	-0.000121	-0.001532	0.002244	7014.462300	45116.667079	3972.095719	23980.360967
48.035500	-0.000670	-0.000021	-0.003951	0.003517	7001.073054	45003.054959	3962.836157	23918.716676
48.538500	-0.001029	-0.000260	0.000735	0.005541	6978.701747	44784.610635	3969.502672	23821.051136
49.039000	0.001326	0.000179	0.003396	-0.000430	7057.380853	45406.210541	3991.408243	24110.424188
49.536500	0.000875	-0.000301	0.005157	-0.000706	7055.712873	45386.254667	3996.640403	24123.917333
50.036500	-0.001025	-0.000036	0.001102	0.004158	6991.707336	44939.602856	3973.908208	23887.728336
50.536500	-0.002141	-0.000345	0.002888	0.005186	6971.626951	44810.673066	3975.823412	23838.167223
51.037500	-0.000011	-0.000367	0.008898	-0.000523	7045.528605	45362.004444	4005.840681	24114.969129
51.535000	0.000741	-0.000578	0.004875	-0.005957	7104.795921	45874.725687	4009.509710	24381.847017
52.035000	-0.046937	-0.016958	-0.011304	0.261771	4941.283801	25282.462671	3466.696222	14505.641639
52.535000	-0.051876	-0.014748	-0.022766	0.073861	6003.371987	37528.620721	3761.572590	20778.498777
53.035500	-0.049073	-0.024129	-0.026786	-0.114074	7706.875064	55094.365974	4227.240021	30448.873905
53.539000	-0.026155	-0.068570	0.001714	-0.231995	9542.727673	64700.626587	4768.052717	39037.218650
54.036000	-0.020123	-0.028403	0.007680	-0.156645	8564.849622	59898.200381	4489.037444	33284.168153
54.536500	-0.003868	-0.016271	0.012558	-0.133769	8479.353731	58507.396322	4423.651749	31726.087831
55.036500	0.012523	-0.005197	0.020232	-0.110626	8393.514055	56985.800479	4369.581835	30231.199323
55.537000	0.020805	0.000555	0.026895	-0.091700	8260.850138	55372.386910	4328.062223	29066.512187
56.034500	0.034601	0.013247	0.028174	-0.035354	7761.862471	50362.654052	4155.429200	25884.963898
56.535000	0.020383	0.011731	0.037842	0.014087	7100.916863	45117.550002	4043.670986	23413.782506
57.035000	0.040670	0.022095	0.046425	0.030692	7136.566000	44516.451592	4022.347464	22644.975023
57.535500	0.051541	0.029092	0.049609	0.023733	7313.519110	45872.654035	4049.376181	22963.579255
58.038500	0.067781	0.036604	0.067853	0.038106	7332.468833	45200.436510	4059.860262	22311.041613
58.536000	0.079420	0.045505	0.083907	0.101220	6838.637630	40246.425610	3938.529936	19688.079776
59.036500	0.083587	0.049447	0.086727	0.133535	6592.347416	37890.065347	3868.920360	18485.622112
59.537000	0.088456	0.053787	0.096562	0.146708	6522.695086	37187.330458	3861.338125	18020.541464
60.036500	0.098385	0.059507	0.104351	0.153821	6546.164743	37077.736580	3862.868137	17775.208947
60.534000	0.103027	0.063234	0.108826	0.163664	6502.933039	36601.078053	3850.776445	17442.304082
61.034500	0.110186	0.067638	0.115081	0.168662	6520.830410	36555.097633	3853.594287	17276.111531
61.535000	0.117060	0.071204	0.121740	0.182855	6460.566675	35743.725580	3836.823720	16814.511093
62.035000	0.124146	0.075932	0.127641	0.178127	6558.355586	36464.751152	3860.568015	16966.604826
62.535000	0.134306	0.079693	0.126558	0.188080	6560.096098	35990.819928	3835.924834	16648.331114
63.036000	0.134296	0.081261	0.121908	0.195073	6501.768976	35581.075322	3810.594411	16429.010881
63.542000	0.138410	0.081057	0.128258	0.193656	6547.754608	35672.199914	3827.416894	16473.164612
64.036000	0.139014	0.083056	0.130288	0.196219	6531.396161	35629.782074	3826.252262	16393.409977
64.537000	0.139114	0.084119	0.136989	0.202109	6483.492839	35268.948678	3828.024488	16211.898627
65.037500	0.142629	0.085600	0.135701	0.199497	6534.207255	35574.692091	3830.924234	16292.093489
65.537000	0.143677	0.085478	0.140565	0.199941	6539.252352	35532.299776	3840.667348	16278.443322
66.034500	0.143380	0.086563	0.135825	0.207669	6472.883362	35038.227977	3813.435698	16042.819205
66.535000	0.143548	0.086705	0.133433	0.204943	6496.674026	35250.631865	3814.155165	16125.454992
67.038000	0.145611	0.085797	0.137316	0.203000	6529.872750	35327.527559	3826.792706	16184.663535
67.536000	0.144899	0.086714	0.132093	0.204389	6512.420351	35292.431134	3812.462208	16142.314194
68.036000	0.141649	0.084979	0.136481	0.211071	6431.064591	34672.307563	3807.540344	15940.407243
68.536000	0.143170	0.085831	0.135007	0.209359	6457.344996	34859.987292	3808.051764	15991.847192
69.036500	0.143961	0.086066	0.139875	0.209024	6466.536302	34901.809962	3819.254486	16001.920113
69.536500	0.143861	0.085351	0.136713	0.210428	6454.261662	34746.504061	3809.416782	15959.708418
70.037000	0.140691	0.085210	0.136669	0.217815	6369.249282	34200.687091	3793.621445	15739.773066
70.534500	0.142756	0.085750	0.144108	0.217244	6390.280681	34280.683881	3810.657448	15756.641319
71.035000	0.144495	0.085178	0.138195	0.215901	6415.033525	34336.226028	3800.898101	15796.392085
71.538000	0.141475	0.086460	0.143199	0.218867	6367.111230	34214.931993	3805.237985	15708.746851
72.035000	0.136620	0.084331	0.133061	0.225399	6277.754809	33598.321508	3770.334691	15517.810397
72.535500	0.141545	0.084932	0.141118	0.222063	6342.355224	33877.106751	3794.043905	15614.975488
73.036000	0.143037	0.085280	0.136484	0.224317	6336.342018	33741.855163	3779.637684	15549.254940
73.536000	0.141514	0.085520	0.140076	0.226185	6309.722522	33626.748361	3783.221815	15495.034672
74.036500	0.139189	0.084221	0.137790	0.232718	6241.169530	33079.122515	3765.032282	15307.268233
74.536500	0.140571	0.084522	0.143567	0.229990	6272.805614	33289.729777	3782.566503	15385.335074
75.037000	0.145680	0.085681	0.143730	0.231262	6302.614771	33281.898593	3780.262337	15348.889386
75.535000	0.145556	0.084984	0.147364	0.231595	6299.051285	33210.116302	3787.142681	15339.362791
76.037500	0.142043	0.084925	0.140422	0.233408	6257.791077	33080.112903	3769.005978	15287.616200
76.535000	0.139735	0.084837	0.142163	0.235608	6223.262030	32921.963427	3768.064333	15225.100052
77.035500	0.142641	0.084168	0.137816	0.235531	6246.072875	32881.166558	3759.361964	15227.292808
77.536000	0.142106	0.084792	0.144355	0.237243	6228.874188	32806.398674	3769.207035	15178.866608
78.036000	0.143162	0.085057	0.135804	0.242251	6198.847733	32482.471347	3741.824437	15038.306180
78.536500	0.143718	0.084641	0.137121	0.240333	6217.613211	32584.680291	3748.281253	15091.958230
79.036500	0.141387	0.084830	0.140578	0.239613	6205.380568	32646.683159	3756.688286	15112.146783
79.537000	0.140227	0.084434	0.146150	0.240619	6189.011943	32551.118117	3765.970467	15083.936235
80.037500	0.141237	0.084690	0.142057	0.246397	6153.253020	32177.554130	3746.024201	14923.167586
80.537500	0.140893	0.084421	0.136094	0.243929	6169.130377	32325.719727	3739.070079	14991.569486
81.034500	0.139778	0.083319	0.147815	0.241943	6175.669882	32385.536447	3766.667470	15046.904397
81.535500	0.141669	0.083326	0.142467	0.242109	6188.648840	32374.718626	3755.460772	15042.264520
82.035500	0.139606	0.083116	0.137382	0.247977	6129.389528	31966.292664	3733.617101	14879.561924
82.536000	0.143412	0.085612	0.140000	0.246819	6166.353721	32211.205824	3741.086259	14911.501173
83.036500	0.143586	0.085521	0.147252	0.246076	6173.231970	32255.136621	3757.115274	14932.043386
83.536500	0.142598	0.084044	0.146764	0.245581	6169.525842	32188.959248	3757.128941	14945.729289
84.037000	0.139479	0.083347	0.138159	0.251467	6102.724281	31749.613434	3728.291264	14783.822443
84.537000	0.141439	0.083759	0.137735	0.248147	6141.721137	31997.879701	3733.976318	14874.870669
85.037500	0.142655	0.084072	0.145439	0.246987	6159.433227	32096.450752	3751.620897	14906.861838
85.535000	0.142289	0.083823	0.142611	0.247649	6151.760934	32035.513181	3744.630935	14888.608402
86.035500	0.137824	0.083051	0.133820	0.252349	6084.155992	31671.792556	3718.137085	14759.769523
86.536000	0.142524	0.084246	0.134673	0.248486	6147.278254	32007.796801	3727.305294	14865.566010
87.036000	0.142279	0.082853	0.142338	0.248236	6147.314223	31931.554670	3742.917993	14872.442682
87.536000	0.143110	0.084348	0.147317	0.249970	6140.598280	31915.567855	3749.399976	14824.794154
88.036500	0.139486	0.083077	0.138369	0.255159	6075.782099	31488.441855	3721.503702	14683.385933
88.537000	0.142454	0.083996	0.145216	0.250230	6133.802543	31874.843295	3744.679479	14817.681800
89.037500	0.142660	0.083614	0.147261	0.250797	6131.122925	31811.794172	3747.631433	14802.142510
89.540000	0.142339	0.082528	0.145652	0.250544	6130.624048	31756.579347	3744.921848	14809.079947
90.035000	0.145675	0.083728	0.146860	0.251691	6146.876612	31760.053285	3745.043791	14777.709611
90.535000	0.143189	0.082802	0.146279	0.252004	6126.101692	31678.034520	3743.261718	14769.158740
91.064500	0.141211	0.083090	0.150518	0.251928	6112.066925	31702.142542	3751.896489	14771.239268
91.544000	0.142193	0.082348	0.145245	0.251106	6125.378451	31707.386885	3742.989895	14793.688560
92.036000	0.138831	0.081261	0.146259	0.256412	6061.931526	31287.777053	3734.490149	14649.514516
92.536500	0.142800	0.082385	0.146913	0.253290	6113.746615	31565.834721	3741.965004	14734.144680
93.036500	0.141991	0.083366	0.150115	0.253522	6106.086674	31615.138804	3747.890191	14727.827747
93.537000	0.142432	0.082419	0.144097	0.252597	6116.132994	31613.665033	3737.753225	14752.990613
94.034000	0.140481	0.082123	0.143942	0.258744	6056.992411	31192.125127	3725.372652	14586.685560
94.534000	0.144251	0.082002	0.143480	0.253800	6120.681881	31507.111954	3734.159490	14720.263131
95.035000	0.144695	0.082567	0.148152	0.255024	6114.929601	31463.877696	3740.980618	14687.063054
95.535500	0.141999	0.081191	0.149576	0.253653	6105.179140	31463.532704	3746.550805	14724.261989
96.036000	0.140131	0.081885	0.145826	0.260180	6044.090826	31083.591602	3726.246750	14548.160879
96.535500	0.142511	0.082132	0.146717	0.255608	6094.598419	31397.168342	3736.981395	14671.252194
