sample name	sample
index	592
start time	 03-16-2021  04:32:11 PM
880	0.430252
Peak Time (s)	182.037
Peak Height 	0.4303
calc peak height	180,183
Baseline Time (s)	11.039
Baseline Value 	-1.892E-4
subtract baseline	10,4
Abs	0.279007
Peak Time (s)	181.037
Peak Height 	0.279
calc peak height	180,183
Baseline Time (s)	11.039
Baseline Value 	0.003862
subtract baseline	10,3
PK_550	0.156238
Peak Time (s)	181.037
Peak Height 	0.1562
calc peak height	180,183
Baseline Time (s)	10.035
Baseline Value 	0.001307
subtract baseline	10,2
PK_880	0.266523
Peak Time (s)	181.037
Peak Height 	0.2665
calc peak height	180,183
Baseline Time (s)	9.534
Baseline Value 	-1.1415E-4
subtract baseline	10,1


Time (s)	A880-A510	A880-A775	A880-A975	A880	I510	I775	I975	I880	
0.034500	-0.003145	-0.000572	-0.004226	0.004368	5547.100792	33487.801201	3636.939733	18164.357999
0.538000	-0.001498	-0.001065	-0.005445	0.003317	5563.794130	33527.163813	3636.632743	18201.439534
1.035500	-0.001405	-0.001222	-0.003945	0.001805	5573.769795	33622.871843	3642.158673	18254.939673
1.539000	0.000763	-0.001196	-0.005646	-0.001507	5608.125814	33859.973669	3645.132421	18372.815578
2.035500	-0.000935	-0.000792	-0.010450	0.003576	5565.680544	33528.166176	3627.066483	18192.314153
2.536500	0.001784	-0.000358	-0.007993	-0.000315	5607.047178	33834.777003	3638.618644	18330.306084
3.036500	0.000831	-0.001304	-0.005024	-0.003147	5618.919337	33969.391142	3649.322562	18431.489769
3.536500	0.002128	-0.000713	-0.000541	-0.000968	5613.341222	33855.996003	3653.615108	18353.579468
4.037000	-0.002025	-0.001913	-0.011192	0.002981	5562.608870	33491.127062	3626.801805	18213.334345
4.537000	0.000068	-0.001471	-0.001644	-0.001513	5603.782514	33840.855160	3652.573021	18373.029393
5.037000	0.003497	-0.000853	-0.001297	-0.001309	5624.167898	33870.314020	3652.838233	18365.728612
5.535000	-0.000343	0.000286	0.004847	-0.000184	5592.842693	33871.297267	3662.258211	18325.616906
6.035500	-0.000106	-0.000952	-0.000064	-0.000816	5598.305341	33828.177945	3654.222479	18348.158819
6.536000	0.002774	-0.001300	-0.000849	-0.001177	5618.754857	33829.075461	3653.429458	18361.037655
7.036000	0.002217	-0.000200	-0.002860	0.000018	5607.680841	33822.316843	3647.464680	18318.434012
7.536000	0.001467	0.000285	0.008418	-0.000033	5603.270791	33860.488730	3668.738988	18320.250821
8.036500	0.002677	-0.000271	0.001598	-0.000222	5612.098352	33834.334947	3656.221239	18326.989816
8.536500	-0.000260	-0.000999	-0.004538	-0.000782	5597.118945	33822.399681	3645.840767	18346.941725
9.037000	0.001693	-0.000913	0.001058	-0.000707	5608.947427	33823.159024	3656.118076	18344.268553
9.534500	0.000000	0.000369	0.000511	-0.000002	5593.854528	33864.259649	3653.775368	18319.138201
10.035000	0.001455	0.000000	-0.001225	0.000084	5602.460493	33831.848723	3650.378248	18316.085439
10.535500	-0.000145	0.000058	0.001099	0.000235	5591.458762	33825.214178	3654.430301	18310.703383
11.038500	-0.000353	-0.000165	0.000000	0.000000	5591.631197	33826.077216	3652.817198	18319.071333
11.535500	0.002093	0.000535	-0.006095	0.000355	5604.772018	33850.628082	3640.872701	18306.441500
12.036000	0.000924	-0.000425	-0.000415	0.003381	5578.469231	33567.792462	3645.765560	18199.181652
12.536500	0.002503	0.000473	-0.007251	0.000417	5606.967828	33841.860343	3638.636529	18304.251539
13.036500	0.003316	-0.000494	0.001262	-0.002174	5628.512779	33957.781842	3659.252531	18396.649603
13.537000	0.000605	-0.000242	-0.002312	-0.000711	5602.114287	33871.263905	3649.836014	18344.401899
14.051000	-0.001528	-0.001211	-0.000147	0.004223	5557.991650	33453.067566	3644.704451	18169.467284
14.534500	0.000092	-0.001353	0.003472	0.001872	5582.693752	33608.843080	3655.806799	18252.571426
15.035500	0.000920	-0.000165	-0.003539	0.001370	5591.023918	33728.710824	3643.711510	18270.394918
15.543500	0.003134	-0.000489	0.008233	0.000141	5612.695700	33792.983942	3668.057392	18314.067508
16.035500	-0.001532	-0.000883	-0.002287	0.003003	5565.535827	33562.222866	3643.007518	18212.552159
16.536000	0.001495	0.000136	0.003536	0.000277	5601.497423	33827.811475	3658.921425	18309.219926
17.036000	0.000993	0.000053	0.001912	-0.000184	5601.240153	33854.724638	3656.737169	18325.635167
17.536500	0.001237	0.000413	0.000565	-0.000232	5603.078296	33883.797253	3654.305879	18327.333907
18.036500	-0.001843	-0.000062	-0.005532	0.003714	5559.191238	33569.950412	3635.749780	18187.437181
18.537000	0.000250	-0.000749	-0.005099	0.000511	5592.204879	33748.188076	3642.417431	18300.884734
19.037500	-0.001037	-0.001111	-0.000227	0.000556	5583.863744	33719.216829	3651.356248	18299.276447
19.538000	0.002195	0.000410	0.001218	0.002195	5593.844103	33710.894058	3650.996515	18241.140335
20.035500	0.002757	0.000116	-0.004608	0.003627	5588.387434	33588.667002	3637.597300	18190.486995
20.538500	0.000936	-0.000013	-0.002754	0.001810	5588.360358	33708.205739	3644.346681	18254.760784
21.035500	0.000691	-0.000077	0.000081	0.001147	5590.976634	33750.724379	3650.830626	18278.278329
21.535500	0.003027	0.000100	-0.003655	0.002047	5599.997185	33699.384533	3642.247703	18246.370547
22.036500	0.001277	-0.000383	-0.004887	0.002971	5583.230871	33599.737931	3638.287537	18213.675219
22.536000	-0.000190	-0.000600	-0.001159	0.001651	5582.309601	33677.860678	3647.590375	18260.401412
23.037000	0.002978	-0.000957	-0.002835	0.000720	5608.053826	33718.595346	3646.211776	18293.479125
23.534500	0.000145	-0.000169	0.002542	0.001627	5584.558131	33710.139731	3654.526095	18261.260516
24.037500	0.000864	0.000198	0.001072	0.002057	5586.364701	33705.686244	3650.981108	18246.022210
24.535000	-0.001415	-0.000036	-0.000970	0.001922	5572.980890	33698.642841	3647.439582	18250.818750
25.035500	0.000631	0.000090	-0.004904	0.002252	5583.690617	33684.194818	3639.575764	18239.131340
25.535500	0.003040	-0.000907	-0.001614	0.001483	5603.630287	33668.006732	3647.059863	18266.376568
26.035500	0.004003	0.000326	-0.002468	0.003581	5596.492198	33606.764196	3641.610053	18192.127413
26.536500	0.000271	-0.000492	0.002735	0.001980	5583.137390	33662.213490	3654.226989	18248.753619
27.036500	0.003425	-0.000237	0.000173	0.001523	5605.806532	33712.670633	3650.301991	18264.951531
27.536500	0.000769	0.000314	0.001941	0.001759	5587.640526	33735.031249	3653.157704	18256.590348
28.037500	-0.000783	-0.000697	-0.007898	0.004681	5559.768971	33457.004508	3629.685989	18153.356280
28.537000	-0.000266	0.000237	-0.001588	0.000666	5588.001504	33807.312689	3648.623752	18295.386418
29.034500	0.002141	-0.000435	0.002775	-0.000296	5609.178807	33827.947358	3658.568078	18329.619346
29.537500	0.004269	-0.000287	-0.001182	-0.000165	5621.809534	33829.140903	3650.922203	18324.936935
30.038000	0.001261	-0.000479	-0.002344	0.006984	5558.164728	33310.602321	3635.599142	18072.443061
30.535500	0.002974	-0.000104	-0.004212	0.000444	5609.768200	33798.777550	3644.175990	18303.276504
31.036000	0.002758	-0.000088	0.002027	0.000318	5609.195853	33808.904015	3656.011764	18307.743961
31.540500	0.005939	0.000905	0.001945	0.001175	5623.902081	33818.536182	3654.255013	18277.285940
32.037000	-0.000604	-0.000642	-0.001322	0.003784	5566.443856	33524.101078	3643.346285	18184.960824
32.537000	0.001507	-0.000558	-0.002736	0.002197	5589.517405	33642.190268	3643.664930	18241.066097
33.067500	0.003939	0.000309	0.002039	0.000807	5613.571762	33802.393415	3655.119712	18290.385724
33.537500	0.002273	0.000245	0.000708	0.000857	5602.745777	33794.276987	3652.539660	18288.607026
34.035000	-0.000801	0.000541	-0.000361	0.007181	5544.212473	33368.287367	3638.868089	18065.554956
34.537500	0.002723	0.001360	0.004777	0.001813	5599.561402	33805.573687	3658.367021	18254.686936
35.035500	0.002005	0.000143	-0.004189	0.002158	5592.885431	33694.622438	3641.061880	18242.456544
35.536000	0.004223	0.000319	0.001279	0.003264	5599.869563	33628.736406	3649.122934	18203.337501
36.036000	0.001302	0.000357	0.000736	0.005073	5570.285412	33503.652444	3644.766972	18139.557485
36.536500	0.002253	0.001053	0.004888	0.003780	5584.280257	33644.141857	3654.886500	18185.107375
37.036500	0.002350	0.000750	-0.001551	0.003818	5584.646670	33620.024203	3642.863112	18183.772729
37.536000	0.001058	0.001058	0.001337	0.003795	5576.723976	33643.447718	3648.244481	18184.583281
38.034500	0.003637	0.000988	-0.001937	0.005908	5579.626969	33489.255435	3638.312703	18110.195303
38.535000	0.002808	0.000797	0.001591	0.003789	5587.695123	33625.393480	3648.728343	18184.796852
39.035000	0.002927	-0.000023	0.002278	0.003195	5592.162585	33609.360723	3651.109058	18205.762480
39.535500	0.001544	0.000642	0.003777	0.003721	5580.212311	33619.207712	3652.920584	18187.168680
40.039000	-0.001297	0.000118	0.003066	0.004937	5554.999722	33496.388671	3649.333527	18144.331761
40.536000	0.000321	0.000828	-0.003807	0.004354	5568.652809	33587.655941	3637.733736	18164.864198
41.036500	0.000401	-0.000245	0.002790	0.003497	5574.481376	33572.351400	3651.500052	18195.097634
41.536500	0.000059	0.000689	-0.004591	0.003761	5570.710522	33619.694465	3637.383470	18185.764907
42.037000	0.002203	-0.000344	-0.001756	0.004676	5578.367746	33482.182130	3640.905838	18153.508490
42.537000	0.002676	-0.000198	0.002012	0.003427	5589.134292	33580.631470	3650.182080	18197.569539
43.037500	0.002465	0.001048	0.002657	0.004585	5580.573092	33586.851864	3649.228196	18156.734244
43.535000	0.002910	0.000440	0.005115	0.003710	5588.826280	33605.708823	3655.442711	18187.567792
44.038000	0.003311	0.000350	-0.001754	0.005155	5582.298040	33497.349580	3640.029037	18136.659126
44.536000	0.000418	0.001312	0.005519	0.004674	5567.263443	33599.185186	3654.395890	18153.588922
45.035500	0.003566	0.000956	0.000310	0.000045	5616.029042	33902.824245	3653.312628	18317.479887
45.536500	0.005609	0.001185	0.000304	0.001386	5620.470565	33823.486016	3650.800571	18269.810784
46.036500	0.001842	0.000995	0.003499	0.007430	5559.004227	33382.695967	3645.516115	18056.846887
46.537000	0.004744	0.001466	0.001099	0.002325	5609.063438	33776.675610	3650.533172	18236.526388
47.037000	0.004642	0.001431	0.007253	0.002456	5607.595019	33764.851892	3661.815387	18231.883021
47.537000	0.003408	0.000546	0.000105	0.001645	5604.928840	33759.625621	3649.948489	18260.619046
48.037500	-0.000403	-0.000769	-0.003748	0.006750	5549.320023	33306.700938	3633.466133	18080.653088
48.554500	0.004904	0.001592	0.005126	0.002247	5610.570149	33791.205828	3658.207432	18239.294015
49.035500	-0.001105	0.000652	-0.002950	0.005131	5554.985146	33520.322962	3637.878142	18137.484777
49.539000	0.002839	0.001019	0.003133	0.004182	5585.423371	33613.247092	3650.862558	18170.908414
50.063000	0.002057	0.000981	-0.004227	0.008520	5553.588567	33305.281531	3629.380272	18018.751547
50.536500	0.004583	0.001353	0.005642	0.002761	5605.299206	33737.660314	3658.211047	18221.103481
51.036500	0.004182	0.001408	0.003171	0.002197	5606.324777	33781.624510	3654.636315	18241.050516
51.537000	0.004043	0.001727	0.003938	0.000399	5616.811128	33932.591054	3659.448028	18304.889488
52.037000	0.003665	0.000851	0.003190	0.008325	5564.751369	33309.852059	3643.292045	18025.545587
52.537000	0.004105	0.000041	0.003214	0.016882	5514.830897	32660.833670	3627.713153	17729.665763
53.035000	0.009045	-0.004971	0.005718	0.307163	4240.311270	17975.276448	3247.293697	10481.006116
53.538000	-0.010043	-0.017619	-0.006660	-0.070895	6003.760980	37876.458919	3781.976794	21060.331461
54.038500	-0.017305	-0.012263	-0.013277	-0.171166	6752.545378	47508.652873	4008.066267	25787.236028
54.535500	0.000934	-0.034168	0.005969	-0.310071	8445.891461	61302.829917	4520.079224	34428.836422
55.035500	0.002500	-0.019221	0.013566	-0.220792	7425.896510	52114.440282	4232.461129	28562.663086
55.536000	-0.012959	-0.010663	-0.003946	-0.154367	6642.755845	45974.269914	3988.195431	24917.322558
56.036500	-0.013119	-0.008406	-0.012156	-0.190757	6971.131829	49983.690685	4064.998503	26845.211987
56.537000	0.000605	-0.003464	-0.006678	-0.218017	7377.158086	53607.991746	4160.711245	28398.985334
57.037000	0.011422	0.001883	0.001519	-0.211999	7427.256181	53529.709732	4167.342076	28047.543736
57.537000	0.017890	0.005684	0.004459	-0.196684	7335.323011	52204.920082	4130.124098	27174.775167
58.038000	0.020859	0.008060	0.011324	-0.166493	7063.930042	49145.751047	4062.793368	25541.881643
58.535500	0.023808	0.010509	0.012784	-0.131384	6764.471195	45794.984092	3971.817424	23780.375988
59.035500	0.031385	0.011478	0.025299	-0.091372	6484.101254	42106.509614	3902.534669	21939.051663
59.535500	0.035132	0.013330	0.021699	-0.054136	6215.771017	39038.284210	3807.407591	20371.363346
60.036000	0.042443	0.017356	0.035627	-0.029392	6084.059843	37354.502283	3783.674777	19401.520947
60.536500	0.046471	0.018812	0.041051	-0.003093	5923.325996	35438.666583	3739.508927	18429.580551
61.036500	0.050139	0.020311	0.050408	0.026548	5745.981275	33396.628250	3698.577974	17402.354424
61.537500	0.056323	0.024244	0.057750	0.048428	5643.840615	32161.776807	3670.397776	16687.843463
62.037500	0.058613	0.027103	0.052268	0.084175	5438.060045	30027.238896	3595.420500	15595.219134
62.535000	0.062317	0.029434	0.061515	0.099923	5367.774842	29201.833504	3584.236111	15141.700218
63.038000	0.065187	0.032768	0.068899	0.121221	5263.942337	28135.832699	3560.850792	14553.921288
63.535000	0.069894	0.037437	0.074839	0.122534	5282.738647	28331.607525	3568.543694	14518.606213
64.054500	0.068883	0.040442	0.069465	0.117170	5307.058277	28826.531375	3568.527238	14663.497676
64.536000	0.070538	0.039683	0.072325	0.120975	5295.014176	28555.489242	3566.948924	14560.534125
65.039500	0.074047	0.040981	0.075868	0.124255	5296.292175	28438.613335	3567.387325	14472.499318
65.539000	0.076085	0.041798	0.074240	0.126653	5294.281054	28345.773765	3560.698725	14408.556055
66.037000	0.073000	0.044404	0.074590	0.137941	5215.310142	27842.034312	3542.837839	14112.244513
66.537500	0.082418	0.044483	0.076393	0.133736	5290.098184	28089.389128	3552.594104	14221.736284
67.035000	0.082512	0.046432	0.076721	0.137075	5272.072745	28008.876489	3547.687870	14134.716458
67.538000	0.085419	0.047029	0.092431	0.139301	5275.841375	27914.828652	3569.924480	14077.067597
68.035500	0.082689	0.047560	0.090679	0.147044	5218.481423	27502.748555	3554.193366	13878.844620
68.535500	0.086274	0.049291	0.088571	0.143465	5257.570870	27805.481419	3556.608510	13970.033111
69.036000	0.088207	0.049244	0.085458	0.144795	5260.887857	27726.634173	3549.340632	13936.061344
69.535500	0.093537	0.050857	0.098605	0.147233	5276.870504	27679.470076	3566.985590	13874.050432
70.036500	0.090606	0.051529	0.083100	0.156119	5212.228684	27215.150768	3527.421083	13650.993099
70.536500	0.094238	0.052062	0.093471	0.151446	5257.473585	27508.428326	3551.559901	13767.718029
71.036500	0.095894	0.052926	0.096505	0.154428	5250.193991	27388.647229	3551.645780	13693.083149
71.534500	0.100719	0.053991	0.094626	0.157399	5260.382162	27281.394554	3543.769774	13619.220046
72.035000	0.095247	0.055140	0.093482	0.166056	5183.812698	26863.374217	3528.122975	13406.863295
72.535000	0.100205	0.055519	0.106322	0.161855	5233.166850	27117.545239	3555.558453	13509.391883
73.035500	0.104834	0.056857	0.104548	0.164890	5241.860564	27023.053862	3547.707029	13435.223014
73.535500	0.105562	0.057827	0.106256	0.167719	5230.408228	26920.033023	3545.889117	13366.571349
74.036000	0.104575	0.058506	0.102678	0.175295	5184.290083	26541.448174	3528.053999	13184.856862
74.536000	0.109443	0.059699	0.105459	0.171708	5229.821206	26803.155578	3538.181118	13270.503541
75.036500	0.113812	0.062374	0.106855	0.176733	5226.258116	26674.164466	3532.392299	13150.743684
75.537000	0.113475	0.061543	0.109401	0.178222	5216.364419	26547.440472	3534.073843	13115.520896
76.037000	0.114234	0.063016	0.114254	0.180705	5207.062043	26492.532350	3537.858118	13057.053089
76.537500	0.115351	0.063283	0.112229	0.182960	5200.941324	26384.745040	3531.038109	13004.236771
77.037500	0.120314	0.066811	0.121669	0.187129	5205.209967	26350.068644	3539.445521	12907.323034
77.537500	0.122108	0.067492	0.116818	0.190064	5199.076056	26228.631419	3527.062245	12839.632718
78.035000	0.118837	0.066927	0.115725	0.191985	5171.383804	26095.459118	3522.329354	12795.600425
78.536000	0.124508	0.067041	0.121131	0.194026	5190.710316	25992.757636	3527.615977	12749.012298
79.036000	0.123653	0.069291	0.125322	0.197064	5169.986286	25950.874998	3529.436816	12680.068914
79.536000	0.125165	0.070276	0.129607	0.199983	5162.544682	25848.420087	3531.601980	12614.297713
80.037000	0.130154	0.071042	0.124433	0.202668	5174.744567	25747.164050	3519.244026	12554.160397
80.537000	0.128159	0.072092	0.126931	0.204709	5153.409108	25695.118547	3519.956814	12508.716394
81.037500	0.131473	0.073064	0.131004	0.207952	5153.788565	25576.208049	3521.253148	12436.940946
81.543000	0.134581	0.073971	0.131311	0.210444	5157.025362	25493.541763	3517.845889	12382.128479
82.038000	0.129203	0.073672	0.133139	0.218574	5086.941449	25059.187788	3508.117872	12205.530617
82.535500	0.135773	0.075373	0.136870	0.215837	5134.997888	25286.846156	3518.105249	12264.622594
83.035500	0.137859	0.077298	0.138082	0.218956	5129.613998	25225.345567	3515.144188	12197.317161
83.536000	0.138810	0.076968	0.140620	0.221920	5119.153339	25056.587727	3514.485503	12133.799268
84.036500	0.139018	0.077661	0.133219	0.229226	5082.667767	24721.681738	3492.111476	11979.092914
84.536500	0.144317	0.079257	0.135403	0.226236	5125.335918	24953.410515	3499.897005	12042.092999
85.036000	0.145016	0.079571	0.142031	0.228252	5118.503074	24867.130158	3506.914474	11999.568290
85.537000	0.144600	0.080276	0.149889	0.231987	5097.096912	24714.379220	3513.251224	11921.299006
86.035000	0.145755	0.082308	0.147636	0.233739	5094.040703	24728.454785	3507.095838	11884.828320
86.538000	0.144843	0.081849	0.150371	0.235217	5081.822783	24631.283658	3509.021491	11854.161479
87.035500	0.148350	0.082309	0.155590	0.237302	5089.080292	24550.098212	3513.847853	11811.077780
87.535500	0.149896	0.084579	0.147862	0.240768	5079.285461	24490.514074	3496.766768	11739.926386
88.035500	0.148283	0.085477	0.151615	0.249049	5029.491080	24126.523861	3489.982063	11572.216536
88.536000	0.152909	0.085635	0.148157	0.245540	5070.351277	24306.541725	3490.057047	11642.890341
89.036000	0.156405	0.086718	0.150058	0.247809	5076.581337	24248.170469	3489.509184	11597.123596
89.536500	0.152901	0.086304	0.157775	0.250891	5043.347878	24076.936988	3496.449105	11535.326529
90.037000	0.154900	0.087638	0.158811	0.258543	5015.222067	23770.976391	3486.564442	11383.810857
90.537500	0.162258	0.089470	0.165023	0.254762	5070.993488	24042.581577	3501.554209	11458.350831
91.038000	0.159694	0.089145	0.160920	0.256196	5050.810383	23957.086163	3493.205858	11430.003240
91.535500	0.160260	0.090374	0.164639	0.261190	5028.671048	23775.245270	3491.298693	11332.011505
92.035500	0.158794	0.091480	0.157441	0.267405	4990.801150	23531.030020	3471.568425	11211.630456
92.536000	0.163861	0.091711	0.170364	0.263718	5034.017882	23718.085447	3496.090869	11282.836718
93.036000	0.164377	0.093244	0.172017	0.266077	5024.849008	23678.501514	3495.030673	11237.214691
93.536000	0.164382	0.094016	0.164671	0.271463	4998.293101	23458.852073	3476.179616	11133.952859
94.036500	0.167048	0.094750	0.166512	0.276464	4986.871646	23257.788299	3471.585553	11039.228152
94.537000	0.168774	0.096110	0.175279	0.273142	5011.638028	23478.504832	3489.341488	11102.032438
95.037000	0.171955	0.095453	0.168160	0.273966	5023.304994	23408.442958	3477.619375	11086.408623
95.543000	0.167320	0.095677	0.170333	0.278584	4977.877875	23201.964680	3474.054335	10999.404767
96.037500	0.175630	0.097741	0.180051	0.279122	5015.971149	23273.436074	3487.545971	10989.326523
96.535500	0.173717	0.097683	0.173677	0.279589	5004.231157	23248.787264	3477.464606	10980.575529
97.035500	0.177557	0.099255	0.182249	0.282571	5008.451726	23182.792082	3485.688468	10925.004127
97.536000	0.175683	0.100286	0.176686	0.288600	4969.860612	22950.650637	3468.749825	10813.813731
