sample name	sample
index	1399
start time	 05-10-2021  11:03:25 AM
880	0.559764
Peak Time (s)	91.535
Peak Height 	0.5598
calc peak height	90,93
Baseline Time (s)	9.537
Baseline Value 	-0.002483
subtract baseline	10,4
Abs	0.381447
Peak Time (s)	91.535
Peak Height 	0.3814
calc peak height	90,93
Baseline Time (s)	11.036
Baseline Value 	-4.2563E-4
subtract baseline	10,3
PK_550	0.200327
Peak Time (s)	90.037
Peak Height 	0.2003
calc peak height	90,93
Baseline Time (s)	9.04
Baseline Value 	8.829E-4
subtract baseline	10,2
PK_880	0.361014
Peak Time (s)	90.037
Peak Height 	0.361
calc peak height	90,93
Baseline Time (s)	11.036
Baseline Value 	-3.9545E-4
subtract baseline	10,1


Time (s)	A880-A510	A880-A775	A880-A975	A880	I510	I775	I975	I880	
0.037000	-0.002344	-0.000872	0.000431	0.005290	6351.602559	44621.728105	3903.058415	23097.083458
0.535000	-0.001384	-0.000451	-0.001545	0.004687	6364.223207	44720.088308	3899.624269	23125.169292
1.038000	-0.000530	-0.000906	0.006226	0.003870	6377.777526	44754.935764	3921.283253	23163.362004
1.535500	-0.000266	0.000022	0.003215	0.001620	6398.258516	45062.072565	3919.346635	23268.844477
2.035500	-0.000000	-0.001056	0.002865	0.003958	6381.363938	44732.031211	3912.533236	23159.235842
2.535500	-0.001325	-0.000616	0.000896	0.000641	6397.596047	45095.120519	3915.943284	23314.868198
3.036000	0.003490	0.001459	0.007448	0.000570	6437.725888	45303.911454	3932.856225	23318.208135
3.536500	0.000968	-0.000165	0.000607	0.000948	6413.855134	45109.184805	3914.434617	23300.435181
4.036500	-0.000158	-0.000045	0.000284	0.005217	6369.863676	44708.179190	3902.873299	23100.479653
4.540000	-0.000010	-0.000192	0.002655	0.000736	6407.578778	45127.133921	3920.168662	23310.421317
5.037500	0.000791	0.000226	0.003004	0.000738	6414.127917	45167.594623	3921.053122	23310.337875
5.537500	0.001867	0.000359	-0.001824	0.000675	6423.487015	45186.542386	3908.986907	23313.284092
6.035500	0.002243	0.000253	0.002317	0.000273	6429.894649	45215.437772	3920.488803	23332.236089
6.535500	-0.001000	-0.000053	-0.004271	0.000220	6403.698535	45190.805588	3903.980075	23334.719878
7.038500	0.001502	-0.000356	0.000584	-0.000045	6426.411748	45187.136109	3916.892055	23347.241539
7.536000	0.000928	-0.000225	0.003716	0.000218	6419.525840	45174.199450	3924.194566	23334.822299
8.036000	0.000248	-0.000558	-0.003252	0.000108	6414.837472	45152.532516	3906.820382	23339.998276
8.536500	0.000962	-0.000253	0.002183	0.000187	6420.053671	45174.503023	3920.363556	23336.261961
9.039500	0.002473	0.000000	0.003782	0.000495	6429.963277	45169.202466	3923.654811	23321.775916
9.537000	-0.000273	0.000301	-0.001240	0.000000	6411.455217	45246.635103	3912.160506	23345.099381
10.037500	0.002185	0.000740	0.001784	-0.000092	6432.421693	45298.415815	3920.060318	23349.438809
10.535000	-0.000468	0.000405	-0.001791	-0.000289	6412.222382	45284.878419	3911.500237	23358.723947
11.035500	0.000000	-0.000061	0.000000	-0.000461	6417.478502	45256.355051	3916.466737	23366.869238
11.536000	-0.003061	-0.000875	-0.000006	0.003062	6363.807237	44835.836039	3907.553981	23201.179670
12.035500	-0.001441	-0.000275	0.001512	0.003566	6372.845180	44845.041696	3910.107127	23177.548776
12.536000	0.001702	0.000404	0.001583	-0.000626	6432.847545	45317.684691	3920.906237	23374.653535
13.036500	0.002167	-0.000278	0.006664	-0.000926	6439.160907	45280.435699	3934.690594	23388.815407
13.537000	-0.001981	-0.000735	-0.001931	0.004203	6363.313746	44739.311609	3899.869943	23147.773467
14.037000	-0.000103	-0.000399	0.002796	0.001768	6398.377294	45006.937262	3917.905000	23261.886976
14.539500	-0.000208	-0.000298	0.001636	0.001832	6396.994598	45010.464815	3914.802166	23258.853255
15.035000	0.001262	0.000999	0.002443	-0.000280	6426.371431	45342.080045	3922.217376	23358.328387
15.535500	-0.001880	0.000684	0.001410	0.004204	6364.122809	44875.992895	3908.243771	23147.733248
16.035500	0.001575	-0.000154	0.002558	-0.001255	6436.984959	45324.591992	3924.998863	23404.378549
16.535000	0.001883	0.000957	0.004235	-0.000028	6429.410298	45313.322996	3926.148846	23346.437937
17.036000	0.002492	0.000492	-0.000511	-0.002446	6454.438099	45504.292862	3920.210508	23460.820818
17.542000	0.000911	0.000497	0.004194	0.002716	6398.908138	45001.818476	3919.046789	23217.358023
18.036500	0.000549	0.000075	-0.001092	0.002740	6395.755138	44958.703823	3905.632907	23216.242272
18.539500	0.002012	-0.000529	0.004411	0.000641	6424.961363	45103.566027	3924.888040	23314.891661
19.037000	0.002652	0.000133	0.002699	0.001031	6427.021597	45130.003332	3919.533112	23296.543021
19.534500	-0.000518	-0.000719	0.002457	0.002027	6392.877639	44950.925630	3916.387244	23249.715454
20.035000	0.001869	0.000787	0.004437	0.001235	6418.904134	45173.784896	3923.440156	23286.941372
20.535500	0.000754	0.000112	0.005400	0.001072	6411.084653	45123.938561	3926.313909	23294.593615
21.035500	0.000410	0.000490	0.000714	0.001422	6405.396950	45126.665039	3913.506123	23278.111055
21.535000	0.000071	-0.000052	0.001538	0.002450	6394.222586	44974.484020	3912.990571	23229.850386
22.036000	0.000526	0.000552	-0.004259	0.001541	6405.374667	45121.164493	3900.704966	23272.526946
22.536500	0.002917	0.000364	0.004625	0.001286	6427.094277	45127.642262	3923.788029	23284.511521
23.039500	0.001685	0.000210	0.002780	0.001082	6418.641182	45132.532458	3919.606219	23294.112925
23.537000	0.002116	0.001080	0.002874	0.001552	6418.323090	45171.436479	3918.651509	23272.007304
24.037500	0.001312	0.000590	0.002793	0.001201	6414.597100	45157.815953	3919.337770	23288.503940
24.537500	0.002056	0.000816	0.002970	0.001790	6415.874951	45122.598915	3918.289520	23260.828256
25.035000	0.000084	0.000439	0.001148	0.001337	6403.419426	45129.942083	3914.818467	23282.105521
25.535000	0.001580	-0.000182	0.003123	0.001421	6414.999878	45061.629831	3919.618320	23278.181864
26.035500	0.002933	0.000306	0.006874	0.001336	6426.820702	45117.252362	3929.415004	23282.187190
26.535500	0.001710	0.000553	0.002838	0.001534	6415.142322	45121.947531	3918.607786	23272.883852
27.036500	-0.000297	0.000303	0.001295	0.001610	6398.079015	45090.307320	3914.501940	23269.309914
27.536500	0.001095	-0.000025	-0.000097	-0.001128	6431.978154	45324.901919	3917.912952	23398.387843
28.040000	-0.001311	0.000624	0.000311	0.005950	6354.609607	44702.006934	3901.106925	23066.318679
28.540000	0.003055	0.000159	-0.000147	-0.000037	6439.153397	45236.406245	3915.019369	23346.835453
29.037000	0.002429	0.000241	0.002007	-0.000115	6434.625706	45251.938388	3920.684524	23350.509559
29.535000	0.003676	-0.000186	-0.003090	-0.000414	6447.401546	45239.471581	3908.538436	23364.619840
30.035000	0.000802	-0.000171	-0.001075	0.004500	6383.482375	44765.032235	3901.266961	23133.916344
30.535500	0.002345	0.000203	0.007069	0.000096	6432.185027	45227.692760	3933.101453	23340.550468
31.036000	0.002059	0.000136	0.003525	0.003412	6402.610659	44899.706707	3915.585271	23184.795201
31.536000	0.002165	0.000130	0.001911	0.000188	6429.951271	45211.749177	3919.672561	23336.254682
32.036500	-0.000226	0.000310	0.002617	0.004729	6373.266337	44789.291357	3909.961378	23123.221421
32.537500	0.002612	-0.000715	0.005570	-0.001101	6444.284317	45254.901715	3932.324509	23397.090766
33.036500	0.003371	-0.000413	0.001450	-0.000413	6444.874896	45217.322746	3920.027336	23364.583775
33.537000	0.001994	0.000531	0.000757	0.000147	6428.871350	45254.728441	3916.841946	23338.148258
34.034500	0.000800	-0.000568	-0.002019	0.002269	6401.661869	44942.107115	3904.490670	23238.366666
34.535500	0.001451	0.000461	0.004058	0.002709	6403.390967	44999.127337	3918.720329	23217.723110
35.034500	0.000662	0.000170	0.003713	0.002362	6399.765869	45004.478431	3918.724013	23233.961868
35.535500	-0.000016	0.000950	-0.002875	0.004981	6372.932237	44826.710418	3895.579205	23111.480166
36.036000	-0.000571	0.000662	-0.003322	0.003866	6377.478408	44906.648358	3897.243312	23163.562071
36.547000	-0.001301	-0.000513	-0.000349	0.001480	6390.947300	45023.753606	3910.676490	23275.413933
37.036000	0.000625	-0.000283	0.005823	0.001860	6403.573037	45009.217198	3925.380234	23257.533197
37.540000	0.001830	-0.000024	0.006162	0.002017	6412.153655	45019.040310	3925.846503	23250.156704
38.036500	0.001461	0.001097	0.001987	0.002743	6403.189529	45057.329348	3913.385094	23216.099930
38.537500	-0.001850	-0.000577	-0.002226	0.001520	6386.150579	45013.652923	3905.849439	23273.521174
39.034500	0.001512	0.000318	0.005040	0.002449	6406.013913	45010.372913	3921.881982	23229.908830
39.535500	-0.001384	-0.000447	-0.002189	0.003638	6372.729663	44821.556017	3900.636748	23174.212353
40.035500	0.001618	0.001150	0.001963	0.002660	6405.149265	45070.513421	3913.533097	23219.988003
40.535500	0.000677	0.000321	0.002999	0.002221	6401.048710	45032.772952	3917.271550	23240.609175
41.036000	0.000692	-0.000079	0.004347	0.001834	6404.336348	45031.522918	3921.680409	23258.756517
41.536000	0.000106	0.000069	0.002071	0.003590	6385.224121	44876.001959	3911.458925	23176.466928
42.039500	0.001320	-0.000684	0.001009	0.001652	6410.970322	44990.502422	3913.670223	23267.318187
42.537000	-0.000559	0.000268	0.005772	0.001955	6393.128930	45053.460027	3925.007573	23253.088607
43.037500	0.001576	0.000460	0.003370	0.002489	6406.206359	45020.216075	3917.531736	23228.003371
43.535000	0.000046	0.000419	-0.001746	0.003632	6384.389217	44905.697924	3901.759534	23174.486933
44.034500	0.002966	0.001141	0.006074	-0.001372	6449.459358	45462.682944	3934.320033	23409.923974
44.535500	0.003832	0.000539	0.006704	0.000140	6444.121121	45256.227005	3932.051705	23338.517645
45.036000	0.000210	0.000536	0.003133	0.000106	6414.546012	45259.233179	3922.990498	23340.086742
45.536000	-0.000151	0.000066	0.000708	0.003691	6382.306108	44865.958131	3907.769153	23171.730581
46.036500	-0.001283	0.000289	-0.003918	0.005188	6360.991548	44743.096555	3892.472842	23101.835746
46.537000	0.003456	0.000571	0.002861	-0.000034	6442.438714	45276.195569	3922.654726	23346.689292
47.037000	0.001600	0.000764	0.006848	0.000304	6424.339607	45262.074447	3931.998515	23330.746224
47.536500	-0.001109	0.000042	0.001069	0.004230	6370.159040	44811.628938	3907.320545	23146.530054
48.037000	-0.001679	0.000609	-0.001649	0.003514	6371.342372	44935.538855	3902.298686	23180.008773
48.535000	0.001867	0.000770	0.005616	0.000439	6425.431534	45249.574864	3928.489746	23324.415368
49.035000	0.002261	0.000243	0.006105	0.000194	6430.695016	45222.150723	3930.372795	23335.953966
49.535500	-0.001069	-0.000212	-0.001322	0.004016	6372.214975	44807.713035	3901.859752	23156.518961
50.036000	0.001018	0.000844	0.002634	0.002771	6399.339721	45030.224087	3914.952511	23214.820962
50.536000	0.003161	0.000676	-0.000751	0.001175	6430.021431	45168.727213	3910.429834	23289.733095
51.036500	0.006112	0.001050	0.007042	0.007180	6404.943282	44624.798677	3914.949653	23009.200320
51.539500	0.017688	-0.007235	0.062231	0.328663	4591.706700	22447.896079	3410.890903	12470.261376
52.037000	0.018613	-0.013310	0.008729	0.154137	5458.513612	31691.542142	3602.305870	17224.352697
52.537500	0.011547	-0.035559	-0.016045	-0.143924	7947.502526	57199.117245	4291.938249	31394.623280
53.037500	0.014939	-0.116733	-0.011092	-0.287166	9994.649540	65535.000000	4892.469111	42544.482173
53.535000	0.016499	-0.091324	-0.004254	-0.261263	9605.219878	65463.929061	4803.255788	40246.651113
54.035000	0.021429	-0.042483	0.009885	-0.188666	8630.646512	62135.674298	4552.892697	34491.249783
54.535500	0.024779	-0.026459	0.014440	-0.151590	8198.756165	59334.647669	4427.525140	31902.789016
55.036000	0.030070	-0.017087	0.023300	-0.128056	7978.740476	57525.306308	4373.961001	30370.757014
55.536000	0.034326	-0.012091	0.033052	-0.114858	7874.247282	56504.232072	4361.643929	29547.285418
56.036500	0.047220	-0.005797	0.047631	-0.100206	7853.940656	55483.165307	4361.381420	28661.866471
56.537000	0.066874	0.005805	0.070739	-0.036125	7367.406537	49502.617545	4222.185473	25122.075496
57.036000	0.094855	0.023649	0.096130	0.023182	7053.061418	45262.855800	4116.493994	22280.218200
57.537500	0.111103	0.036486	0.120275	0.102389	6485.910691	39264.987089	3961.548309	19042.298964
58.034500	0.133868	0.049837	0.138385	0.147774	6301.404461	36681.978348	3891.770727	17436.380663
58.534500	0.154398	0.060380	0.164773	0.189895	6134.035800	34315.706807	3853.472344	16088.911122
59.035500	0.180317	0.077021	0.187800	0.239171	5962.093300	32044.353356	3792.579426	14669.765637
59.535500	0.204967	0.095167	0.218225	0.280440	5845.270919	30535.302232	3768.480045	13599.059707
60.036000	0.225947	0.106755	0.235401	0.317480	5736.548065	28964.559484	3725.864621	12720.991743
60.536500	0.241974	0.119661	0.258369	0.367550	5518.946770	26830.128305	3670.772916	11647.009491
61.039500	0.257278	0.128065	0.271268	0.409171	5362.045734	25071.094673	3616.026208	10843.852247
61.536000	0.273279	0.136757	0.290957	0.447204	5237.807885	23625.299545	3582.908137	10174.275851
62.037000	0.281495	0.144326	0.302506	0.470821	5154.620949	22874.840510	3561.868917	9787.048229
62.537500	0.287783	0.151363	0.314030	0.478675	5146.330211	22837.383674	3568.204394	9662.868810
63.034500	0.292414	0.155301	0.315255	0.481443	5156.202563	22891.102846	3565.536139	9619.650376
63.558000	0.297129	0.159866	0.326330	0.478327	5198.157355	23247.083071	3590.457236	9668.335904
64.038500	0.301965	0.164246	0.329045	0.480619	5211.948588	23344.938705	3591.212250	9632.484699
64.535500	0.304351	0.165986	0.330154	0.481396	5220.709596	23390.223174	3591.804437	9620.371681
65.038500	0.308152	0.168871	0.327723	0.483003	5232.719852	23450.531517	3584.618911	9595.404972
65.536500	0.308547	0.171756	0.333650	0.494685	5171.601646	23039.210801	3574.491189	9416.595612
66.036500	0.312330	0.175805	0.339355	0.492211	5205.286945	23343.403447	3588.924608	9454.060763
66.537000	0.317662	0.179174	0.337673	0.494445	5222.145999	23396.807804	3581.980780	9420.224418
67.034000	0.319058	0.181915	0.340292	0.496314	5219.565988	23437.920623	3583.304691	9392.047865
67.537500	0.319566	0.182631	0.344117	0.505395	5173.251098	23046.866001	3574.066319	9256.843715
68.034500	0.323988	0.183390	0.340116	0.503631	5206.573937	23164.006259	3570.167762	9282.883702
68.535000	0.326542	0.185910	0.348976	0.504606	5215.156086	23236.089706	3583.998165	9268.476043
69.036000	0.328999	0.188052	0.350656	0.505925	5221.360503	23274.572636	3584.636641	9249.035145
69.539000	0.329431	0.189439	0.340424	0.513674	5181.751328	22978.895573	3553.433929	9136.024091
70.036500	0.331610	0.190131	0.351313	0.510990	5208.000853	23135.227000	3576.867929	9174.937956
70.539500	0.333301	0.191836	0.353901	0.513621	5202.904618	23092.234864	3576.793411	9136.791116
71.037000	0.334805	0.192288	0.355039	0.515340	5201.740209	23033.498071	3575.774080	9111.983262
71.537500	0.334670	0.193106	0.358203	0.518002	5186.649880	22948.418987	3576.654633	9073.775840
72.040000	0.337591	0.192797	0.359420	0.520400	5189.463592	22824.106124	3574.587587	9039.555185
72.535000	0.338320	0.193755	0.358693	0.520720	5191.668444	22853.308525	3572.759002	9034.996046
73.035500	0.342111	0.195915	0.360187	0.522535	5202.338694	22869.100771	3572.197248	9009.230846
73.535500	0.339296	0.197120	0.364078	0.530244	5146.034897	22572.927709	3565.574233	8901.023037
74.035500	0.342892	0.198587	0.362704	0.525342	5191.393733	22862.941755	3571.692351	8969.605634
74.536000	0.345151	0.200334	0.365307	0.526248	5198.702577	22901.563132	3574.654600	8956.873045
75.038500	0.343770	0.200394	0.365912	0.526117	5191.951209	22910.333471	3575.944324	8958.717862
75.536000	0.343723	0.199098	0.372008	0.525709	5193.896074	22869.517468	3587.421054	8964.446055
76.037000	0.346037	0.201832	0.368869	0.529237	5187.354148	22833.125544	3575.657250	8915.041933
76.537500	0.346211	0.204173	0.368816	0.529997	5184.207027	22905.705649	3574.235513	8904.460620
77.037500	0.343532	0.202770	0.367166	0.530514	5167.097522	22817.632054	3570.457693	8897.267139
77.535000	0.346699	0.203584	0.362085	0.531609	5178.174008	22804.770030	3559.794211	8882.057292
78.035000	0.345190	0.202606	0.366112	0.533156	5161.849406	22689.585847	3564.058801	8860.635552
78.535500	0.347509	0.203817	0.367844	0.533825	5170.649595	22714.282795	3565.893772	8851.398363
79.039000	0.351093	0.206129	0.364547	0.537527	5170.021416	22651.081694	3553.893296	8800.535178
79.539000	0.350040	0.205092	0.369442	0.536860	5167.961528	22634.306769	3563.414542	8809.664951
80.036500	0.350150	0.205373	0.371051	0.539239	5155.883138	22539.381191	3562.088978	8777.155554
80.537000	0.351755	0.206397	0.362076	0.540860	5155.799341	22512.468925	3544.087661	8755.100708
81.037000	0.354252	0.204779	0.364661	0.541229	5167.120843	22423.100454	3547.814615	8750.085846
81.537500	0.353227	0.204336	0.374428	0.543460	5149.814396	22303.533390	3560.638322	8719.902643
82.037500	0.354100	0.203556	0.371862	0.543965	5151.766672	22246.295199	3555.385575	8713.088989
82.535500	0.351807	0.203545	0.374927	0.546173	5128.041178	22147.938346	3556.848711	8683.405516
83.035500	0.350810	0.201760	0.368954	0.545590	5125.868145	22094.842670	3547.702605	8691.229246
83.536000	0.352941	0.204038	0.377868	0.548799	5120.224959	22053.812578	3557.386056	8648.281360
84.035500	0.353357	0.202084	0.373757	0.547332	5130.092914	22032.429551	3552.882538	8667.880363
84.539000	0.351081	0.199043	0.374754	0.546119	5124.517763	21952.211897	3556.645846	8684.129105
85.036500	0.353039	0.200961	0.376471	0.547849	5125.711521	21960.412719	3556.623090	8660.963502
85.537000	0.353664	0.201105	0.380680	0.548892	5123.520157	21921.105186	3562.047958	8647.047302
86.037500	0.352973	0.200005	0.375976	0.549382	5117.346423	21851.748089	3553.169164	8640.516676
86.534500	0.357661	0.201171	0.380073	0.550335	5136.930599	21861.011352	3558.530032	8627.842957
87.035000	0.356111	0.199349	0.379227	0.549920	5130.962453	21799.836657	3557.793953	8633.362482
87.535500	0.353073	0.199053	0.372334	0.555196	5087.717903	21559.364202	3537.276225	8563.622952
88.035500	0.356630	0.201040	0.371480	0.552593	5119.673264	21757.210844	3540.188588	8597.918447
88.536000	0.357012	0.199548	0.376523	0.551626	5126.739068	21734.469805	3550.290540	8610.719409
89.036000	0.353575	0.198819	0.375958	0.551593	5108.961858	21704.379868	3549.390828	8611.152959
89.536500	0.351799	0.199606	0.370965	0.559730	5057.999411	21389.499975	3527.529048	8504.376840
90.036500	0.361014	0.200327	0.374290	0.554184	5134.321586	21657.681137	3542.227610	8576.941210
90.537000	0.353570	0.198229	0.377713	0.553673	5098.152919	21589.384632	3548.843705	8583.676112
91.036500	0.356167	0.197953	0.378123	0.553398	5113.060783	21589.359711	3550.000678	8587.297549
91.534500	0.356348	0.197209	0.381447	0.559764	5081.066093	21286.517954	3544.872643	8503.932337
92.035500	0.355265	0.198078	0.378692	0.555567	5097.116725	21501.777301	3547.298305	8558.749951
92.535500	0.357918	0.197427	0.379750	0.555245	5112.564623	21487.747751	3549.629153	8562.989845
93.036000	0.354168	0.196886	0.379742	0.554192	5098.553967	21509.605025	3551.396938	8576.828860
93.572000	0.355131	0.199171	0.377921	0.557202	5087.985302	21478.620299	3543.254222	8537.329594
94.036000	0.356428	0.196760	0.373115	0.555133	5105.400743	21464.070927	3538.681729	8564.461029
94.536500	0.357315	0.198434	0.378652	0.557137	5099.600043	21449.938965	3544.588272	8538.178891
95.039000	0.358544	0.197642	0.384506	0.556998	5106.697320	21422.116219	3554.723585	8539.999252
95.534500	0.355160	0.196570	0.377554	0.562951	5058.705903	21125.591133	3533.074205	8462.650768
96.035000	0.356754	0.196613	0.377485	0.556406	5100.481934	21403.562869	3543.857462	8547.751059
96.535000	0.359724	0.197287	0.372933	0.557463	5110.413182	21387.274733	3534.507510	8533.917879
