sample name	sample
index	996
start time	 04-14-2021  04:28:29 PM


Wavelength (nm)	Absorbance
494.344910	-0.369565
494.563924	-0.369565
494.782919	-0.369565
495.001897	-0.231753
495.220856	-0.150877
495.439797	-0.124983
495.658719	-0.062322
495.877624	-0.056245
496.096510	0.054242
496.315378	0.080141
496.534227	0.566223
496.753059	1.146435
496.971872	0.361154
497.190667	0.168908
497.409444	0.162248
497.628203	0.160015
497.846943	0.163989
498.065665	0.161365
498.284369	0.163021
498.503055	0.162913
498.721723	0.164173
498.940372	0.166200
499.159003	0.166675
499.377616	0.168594
499.596210	0.169564
499.814787	0.168574
500.033345	0.169797
500.251885	0.168388
500.470406	0.168444
500.688910	0.166923
500.907395	0.165256
501.125862	0.164171
501.344311	0.162979
501.562742	0.164441
501.781154	0.166245
501.999548	0.166501
502.217924	0.166615
502.436282	0.165589
502.654621	0.166215
502.872942	0.166371
503.091245	0.167658
503.309530	0.167876
503.527797	0.166903
503.746045	0.165523
503.964275	0.165386
504.182487	0.166215
504.400681	0.167137
504.618856	0.167757
504.837013	0.168392
505.055152	0.168880
505.273273	0.169697
505.491376	0.169981
505.709460	0.170185
505.927526	0.172131
506.145574	0.173895
506.363604	0.173766
506.581615	0.174430
506.799608	0.174448
507.017583	0.174434
507.235540	0.174534
507.453478	0.174710
507.671399	0.174355
507.889301	0.173487
508.107185	0.172355
508.325050	0.172959
508.542898	0.172687
508.760727	0.173436
508.978538	0.172998
509.196330	0.173148
509.414105	0.173927
509.631861	0.174740
509.849599	0.174920
510.067319	0.174297
510.285021	0.174549
510.502704	0.174232
510.720369	0.173874
510.938016	0.174638
511.155645	0.174688
511.373255	0.174399
511.590848	0.175267
511.808422	0.175322
512.025977	0.176694
512.243515	0.177367
512.461034	0.178025
512.678536	0.178239
512.896018	0.178796
513.113483	0.180262
513.330930	0.180266
513.548358	0.180637
513.765768	0.180796
513.983160	0.180726
514.200533	0.180374
514.417889	0.180278
514.635226	0.181013
514.852545	0.181263
515.069845	0.180539
515.287128	0.182028
515.504392	0.182246
515.721638	0.182647
515.938866	0.182244
516.156075	0.182380
516.373267	0.183544
516.590440	0.183715
516.807594	0.183584
517.024731	0.183723
517.241850	0.183617
517.458950	0.183144
517.676032	0.183127
517.893095	0.183959
518.110141	0.184395
518.327168	0.183919
518.544177	0.184418
518.761168	0.184426
518.978141	0.184797
519.195095	0.184323
519.412031	0.185113
519.628949	0.186407
519.845849	0.187400
520.062731	0.187256
520.279594	0.187491
520.496439	0.188225
520.713266	0.188985
520.930074	0.189476
521.146865	0.190213
521.363637	0.190095
521.580391	0.189559
521.797127	0.190037
522.013844	0.190771
522.230543	0.192173
522.447224	0.192529
522.663887	0.192715
522.880532	0.193133
523.097158	0.193251
523.313766	0.194085
523.530356	0.194766
523.746928	0.193889
523.963481	0.194159
524.180017	0.192866
524.396534	0.193211
524.613032	0.194547
524.829513	0.194894
525.045975	0.194975
525.262420	0.195034
525.478845	0.195170
525.695253	0.195699
525.911643	0.196071
526.128014	0.197965
526.344367	0.198331
526.560702	0.197524
526.777018	0.197235
526.993316	0.197823
527.209597	0.197927
527.425858	0.198180
527.642102	0.199237
527.858328	0.199836
528.074535	0.199144
528.290724	0.199558
528.506894	0.200458
528.723047	0.201288
528.939181	0.202160
529.155297	0.202866
529.371395	0.203341
529.587475	0.203752
529.803536	0.203649
530.019579	0.203884
530.235604	0.202929
530.451611	0.202734
530.667600	0.202598
530.883570	0.202609
531.099522	0.203155
531.315456	0.203435
531.531372	0.202633
531.747269	0.203269
531.963148	0.203911
532.179009	0.204923
532.394852	0.205946
532.610676	0.207039
532.826482	0.207268
533.042271	0.207350
533.258040	0.207111
533.473792	0.207774
533.689525	0.208267
533.905240	0.209091
534.120937	0.209486
534.336616	0.209812
534.552277	0.210086
534.767919	0.210593
534.983543	0.210888
535.199149	0.212493
535.414736	0.213664
535.630306	0.213799
535.845857	0.214183
536.061390	0.214555
536.276904	0.214336
536.492401	0.214958
536.707879	0.215370
536.923339	0.215929
537.138781	0.215495
537.354204	0.215655
537.569610	0.215954
537.784997	0.216328
538.000366	0.216795
538.215716	0.217567
538.431049	0.217987
538.646363	0.218155
538.861659	0.218574
539.076937	0.219367
539.292196	0.219402
539.507438	0.219835
539.722661	0.220084
539.937866	0.220289
540.153052	0.220799
540.368221	0.220221
540.583371	0.220656
540.798503	0.220426
541.013617	0.220801
541.228712	0.221357
541.443789	0.221507
541.658848	0.221415
541.873889	0.221414
542.088912	0.221367
542.303916	0.222043
542.518902	0.222455
542.733870	0.223220
542.948820	0.223745
543.163752	0.223894
543.378665	0.224872
543.593560	0.225702
543.808437	0.226159
544.023295	0.226261
544.238136	0.226709
544.452958	0.226705
544.667762	0.227338
544.882548	0.226491
545.097315	0.226910
545.312064	0.226844
545.526795	0.227015
545.741508	0.227798
545.956203	0.228464
546.170879	0.228659
546.385537	0.228745
546.600177	0.228504
546.814799	0.229446
547.029402	0.229315
547.243988	0.229398
547.458555	0.229530
547.673103	0.229311
547.887634	0.229726
548.102146	0.230372
548.316640	0.231149
548.531116	0.231930
548.745574	0.232313
548.960013	0.233439
549.174435	0.233944
549.388838	0.234448
549.603222	0.234372
549.817589	0.234694
550.031937	0.234537
550.246267	0.234897
550.460579	0.234839
550.674873	0.235026
550.889148	0.234924
551.103405	0.235197
551.317644	0.235627
551.531865	0.236443
551.746068	0.236656
551.960252	0.237019
552.174418	0.236312
552.388566	0.236991
552.602696	0.237329
552.816807	0.237585
553.030900	0.237682
553.244975	0.237680
553.459032	0.238153
553.673070	0.238296
553.887091	0.238193
554.101093	0.239003
554.315077	0.238201
554.529042	0.238303
554.742990	0.238709
554.956919	0.239253
555.170830	0.239010
555.384722	0.238850
555.598597	0.239312
555.812453	0.240285
556.026291	0.240894
556.240111	0.242149
556.453913	0.242532
556.667696	0.242203
556.881461	0.242092
557.095208	0.242743
557.308937	0.243383
557.522647	0.243093
557.736339	0.243029
557.950013	0.243207
558.163669	0.242900
558.377307	0.243173
558.590926	0.243698
558.804527	0.243847
559.018110	0.244235
559.231675	0.243930
559.445221	0.244215
559.658749	0.244595
559.872259	0.245151
560.085751	0.245898
560.299225	0.245831
560.512680	0.245867
560.726117	0.246212
560.939536	0.246758
561.152937	0.247207
561.366319	0.247395
561.579683	0.247795
561.793029	0.247526
562.006357	0.247082
562.219667	0.247236
562.432958	0.247310
562.646231	0.247629
562.859486	0.247567
563.072723	0.247809
563.285941	0.248114
563.499141	0.247694
563.712323	0.247798
563.925487	0.248286
564.138632	0.248849
564.351760	0.249207
564.564869	0.249695
564.777960	0.249607
564.991032	0.249678
565.204087	0.250293
565.417123	0.250908
565.630141	0.251503
565.843140	0.251459
566.056122	0.251334
566.269085	0.251715
566.482030	0.251397
566.694957	0.251736
566.907866	0.252251
567.120756	0.252053
567.333628	0.251939
567.546482	0.252197
567.759318	0.253021
567.972135	0.253555
568.184935	0.253303
568.397716	0.253310
568.610478	0.253434
568.823223	0.253135
569.035949	0.253473
569.248657	0.253582
569.461347	0.253371
569.674019	0.253179
569.886672	0.253204
570.099308	0.253882
570.311925	0.254454
570.524523	0.254631
570.737104	0.254904
570.949666	0.255087
571.162210	0.255625
571.374736	0.255581
571.587244	0.255273
571.799733	0.255421
572.012205	0.255561
572.224658	0.255521
572.437092	0.256097
572.649509	0.256455
572.861907	0.256885
573.074287	0.256898
573.286649	0.257103
573.498993	0.257463
573.711318	0.257662
573.923625	0.257696
574.135914	0.257793
574.348185	0.257736
574.560438	0.258098
574.772672	0.258078
574.984888	0.258268
575.197086	0.258677
575.409266	0.259064
575.621427	0.259558
575.833570	0.259432
576.045695	0.259976
576.257802	0.259802
576.469890	0.260179
576.681961	0.260293
576.894013	0.260331
577.106046	0.260223
577.318062	0.260565
577.530059	0.260359
577.742039	0.260647
577.954000	0.260308
578.165942	0.260936
578.377867	0.260511
578.589773	0.260687
578.801661	0.260698
579.013531	0.261216
579.225382	0.261393
579.437216	0.261765
579.649031	0.262281
579.860828	0.262471
580.072606	0.262675
580.284367	0.262767
580.496109	0.263223
580.707833	0.263610
580.919539	0.263500
581.131227	0.263300
581.342896	0.263126
581.554547	0.263019
581.766180	0.263413
581.977795	0.263447
582.189391	0.263602
582.400969	0.263174
582.612529	0.263447
582.824071	0.263939
583.035595	0.264251
583.247100	0.264425
583.458587	0.264611
583.670056	0.265126
583.881506	0.265005
584.092939	0.265641
584.304353	0.266173
584.515749	0.266008
584.727127	0.266103
584.938486	0.266638
585.149828	0.267046
585.361151	0.267422
585.572456	0.267528
585.783742	0.268205
585.995011	0.268515
586.206261	0.268833
586.417493	0.269393
586.628706	0.269830
586.839902	0.269802
587.051079	0.270138
587.262238	0.270340
587.473379	0.270477
587.684502	0.270480
587.895606	0.270205
588.106692	0.270170
588.317760	0.270566
588.528810	0.270753
588.739841	0.270882
588.950855	0.271011
589.161850	0.271378
589.372827	0.271634
589.583785	0.271883
589.794726	0.272446
590.005648	0.272552
590.216552	0.272371
590.427437	0.272484
590.638305	0.272917
590.849154	0.272946
591.059985	0.272997
591.270798	0.273100
591.481592	0.273451
591.692369	0.273668
591.903127	0.274092
592.113867	0.274397
592.324588	0.274393
592.535292	0.274537
592.745977	0.274834
592.956644	0.274974
593.167293	0.275299
593.377923	0.275299
593.588536	0.275820
593.799130	0.275854
594.009706	0.276156
594.220263	0.276256
594.430803	0.276573
594.641324	0.276820
594.851827	0.277026
595.062312	0.277260
595.272778	0.277273
595.483227	0.277194
595.693657	0.277517
595.904069	0.277422
596.114462	0.277869
596.324838	0.277799
596.535195	0.277981
596.745534	0.278080
596.955855	0.278389
597.166157	0.278549
597.376441	0.278288
597.586707	0.278085
597.796955	0.278628
598.007185	0.278488
598.217396	0.278937
598.427589	0.279233
598.637764	0.279546
598.847921	0.279558
599.058060	0.280091
599.268180	0.280492
599.478282	0.280569
599.688366	0.280992
599.898431	0.281749
600.108479	0.281740
600.318508	0.281816
600.528519	0.281769
600.738511	0.282023
600.948486	0.281739
601.158442	0.281724
601.368380	0.282199
601.578300	0.282276
601.788202	0.282310
601.998085	0.282584
602.207950	0.282273
602.417797	0.282821
602.627626	0.282801
602.837436	0.283038
603.047228	0.283435
603.257002	0.283784
603.466758	0.283574
603.676496	0.283920
603.886215	0.284017
604.095916	0.284489
604.305599	0.284325
604.515264	0.284435
604.724910	0.284852
604.934538	0.284876
605.144148	0.284903
605.353740	0.285101
605.563314	0.284591
605.772869	0.284741
605.982406	0.285169
606.191925	0.285739
606.401425	0.285821
606.610908	0.285977
606.820372	0.286160
607.029818	0.286718
607.239246	0.286849
607.448655	0.287245
607.658047	0.287376
607.867420	0.287519
608.076775	0.287417
608.286111	0.287465
608.495430	0.287579
608.704730	0.287836
608.914012	0.287611
609.123275	0.287814
609.332521	0.287980
609.541748	0.288076
609.750957	0.288225
609.960148	0.288476
610.169321	0.288820
610.378475	0.288869
610.587611	0.289119
610.796729	0.289582
611.005829	0.290027
611.214910	0.290246
611.423974	0.290428
611.633019	0.290526
611.842045	0.290671
612.051054	0.291189
612.260044	0.291581
612.469017	0.291789
612.677970	0.291660
612.886906	0.291330
613.095824	0.291765
613.304723	0.292046
613.513604	0.292376
613.722467	0.292326
613.931311	0.292120
614.140138	0.291913
614.348946	0.291843
614.557736	0.291940
614.766507	0.292711
614.975261	0.292761
615.183996	0.292758
615.392713	0.292366
615.601412	0.292570
615.810092	0.292893
616.018754	0.293333
616.227399	0.293731
616.436024	0.293842
616.644632	0.294236
616.853222	0.294495
617.061793	0.294713
617.270346	0.294821
617.478880	0.295097
617.687397	0.295063
617.895895	0.295096
618.104375	0.295197
618.312837	0.295800
618.521281	0.295455
618.729706	0.295394
618.938113	0.295849
619.146502	0.296428
619.354873	0.296623
619.563226	0.297022
619.771560	0.297338
619.979876	0.297217
620.188174	0.297112
620.396453	0.297320
620.604715	0.297621
620.812958	0.297569
621.021183	0.297795
621.229390	0.297941
621.437578	0.297719
621.645748	0.297682
621.853900	0.298214
622.062034	0.298581
622.270150	0.298759
622.478247	0.298996
622.686326	0.299535
622.894387	0.299665
623.102430	0.299768
623.310454	0.300608
623.518461	0.300926
623.726449	0.301157
623.934418	0.300755
624.142370	0.300793
624.350303	0.300672
624.558218	0.300153
624.766115	0.300182
624.973994	0.300309
625.181855	0.300482
625.389697	0.300611
625.597521	0.300662
625.805327	0.301506
626.013114	0.301611
626.220883	0.301900
626.428634	0.302402
626.636367	0.302785
626.844082	0.303121
627.051778	0.303030
627.259457	0.303149
627.467117	0.303285
627.674758	0.303063
627.882382	0.303225
628.089987	0.303349
628.297574	0.303656
628.505143	0.303949
628.712694	0.304216
628.920226	0.304042
629.127740	0.304242
629.335236	0.304514
629.542714	0.304910
629.750174	0.305284
629.957615	0.305679
630.165038	0.305766
630.372443	0.305704
630.579829	0.306049
630.787198	0.306636
630.994548	0.306993
631.201880	0.307139
631.409194	0.307015
631.616489	0.307300
631.823766	0.307600
632.031025	0.307878
632.238266	0.308303
632.445489	0.307902
632.652693	0.307726
632.859879	0.307949
633.067047	0.308194
633.274197	0.308616
633.481329	0.308508
633.688442	0.308430
633.895537	0.308506
634.102614	0.308462
634.309672	0.308791
634.516713	0.309023
634.723735	0.308858
634.930739	0.309030
635.137724	0.309116
635.344692	0.309302
635.551641	0.309371
635.758572	0.309316
635.965485	0.309555
636.172379	0.309602
636.379256	0.309836
636.586114	0.310098
636.792954	0.310226
636.999775	0.310265
637.206579	0.310543
637.413364	0.310738
637.620131	0.311132
637.826880	0.311148
638.033610	0.311732
638.240323	0.312077
638.447017	0.312348
638.653692	0.312109
638.860350	0.312289
639.066990	0.312637
639.273611	0.312914
639.480214	0.313320
639.686798	0.313712
639.893365	0.313715
640.099913	0.313939
640.306443	0.314286
640.512955	0.315025
640.719449	0.315267
640.925924	0.315501
641.132381	0.315360
641.338820	0.315167
641.545241	0.315140
641.751644	0.315497
641.958028	0.315156
642.164394	0.315255
642.370742	0.315148
642.577071	0.315606
642.783383	0.315480
642.989676	0.315835
643.195951	0.316167
643.402207	0.316391
643.608446	0.316265
643.814666	0.316601
644.020868	0.316915
644.227052	0.317017
644.433218	0.316768
644.639365	0.317262
644.845494	0.317419
645.051605	0.317509
645.257698	0.317718
645.463772	0.318076
645.669828	0.318447
645.875866	0.318043
646.081886	0.318328
646.287888	0.318801
646.493871	0.318767
646.699836	0.318966
646.905783	0.319307
647.111712	0.319493
647.317622	0.319694
647.523514	0.319814
647.729388	0.320517
647.935244	0.320920
648.141082	0.321153
648.346901	0.321254
648.552702	0.321612
648.758485	0.321883
648.964250	0.322139
649.169996	0.322676
649.375724	0.322875
649.581434	0.323004
649.787126	0.322985
649.992800	0.323027
650.198455	0.323582
650.404092	0.323490
650.609711	0.323659
650.815311	0.323745
651.020894	0.323506
651.226458	0.323835
651.432004	0.323773
651.637532	0.324025
651.843041	0.324336
652.048532	0.324515
652.254006	0.324936
652.459460	0.325065
652.664897	0.325508
652.870315	0.325927
653.075716	0.325993
653.281097	0.326524
653.486461	0.326790
653.691807	0.327053
653.897134	0.327086
654.102443	0.327632
654.307734	0.327551
654.513006	0.327910
654.718261	0.327942
654.923497	0.328344
655.128715	0.328757
655.333915	0.329026
655.539096	0.329155
655.744259	0.329516
655.949404	0.329710
656.154531	0.330294
656.359640	0.330609
656.564730	0.330973
656.769802	0.331235
656.974856	0.331296
657.179892	0.331364
657.384909	0.331605
657.589908	0.331717
657.794889	0.331932
657.999852	0.332381
658.204797	0.332317
658.409723	0.332668
658.614631	0.332959
658.819521	0.332972
659.024393	0.333064
659.229246	0.333009
659.434081	0.333023
659.638898	0.332969
659.843697	0.332958
660.048478	0.332999
660.253240	0.332866
660.457984	0.332928
660.662710	0.333223
660.867417	0.333671
661.072107	0.334451
661.276778	0.334872
661.481431	0.334986
661.686066	0.335258
661.890682	0.335874
662.095281	0.336280
662.299861	0.336592
662.504422	0.336987
662.708966	0.337506
662.913491	0.337639
663.117999	0.338003
663.322488	0.338467
663.526958	0.338777
663.731411	0.338870
663.935845	0.339385
664.140261	0.339975
664.344659	0.340049
664.549038	0.340054
664.753400	0.340274
664.957743	0.340472
665.162068	0.340932
665.366375	0.341134
665.570663	0.341400
665.774933	0.341448
665.979185	0.341462
666.183419	0.341485
666.387635	0.341536
666.591832	0.341750
666.796011	0.341854
667.000172	0.342161
667.204315	0.342141
667.408439	0.342159
667.612545	0.342472
667.816634	0.342706
668.020703	0.343348
668.224755	0.343712
668.428788	0.343809
668.632803	0.344431
668.836800	0.344339
669.040779	0.344784
669.244739	0.345284
669.448681	0.345326
669.652605	0.345344
669.856511	0.345428
670.060399	0.345571
670.264268	0.345955
670.468119	0.345703
670.671952	0.346153
670.875767	0.346444
671.079563	0.346476
671.283341	0.346686
671.487101	0.346892
671.690843	0.347328
671.894567	0.347887
672.098272	0.348291
672.301959	0.349001
672.505628	0.348924
672.709278	0.349034
672.912911	0.349406
673.116525	0.350083
673.320121	0.350384
673.523699	0.350391
673.727258	0.350487
673.930799	0.350650
674.134322	0.350605
674.337827	0.351367
674.541314	0.351904
674.744782	0.352097
674.948232	0.352330
675.151664	0.352906
675.355078	0.353194
675.558474	0.353573
675.761851	0.353800
675.965210	0.354074
676.168551	0.353991
676.371873	0.353998
676.575178	0.354484
676.778464	0.354607
676.981732	0.354670
677.184981	0.354780
677.388213	0.354788
677.591426	0.354825
677.794621	0.355390
677.997798	0.355571
678.200956	0.355746
678.404097	0.356106
678.607219	0.356393
678.810323	0.356627
679.013408	0.357136
679.216476	0.357534
679.419525	0.358048
679.622556	0.357941
679.825569	0.358241
680.028563	0.358697
680.231540	0.358905
680.434498	0.358994
680.637438	0.359201
680.840359	0.359418
681.043263	0.359677
681.246148	0.359891
681.449015	0.360239
681.651864	0.360213
681.854694	0.360401
682.057506	0.360204
682.260301	0.360437
682.463076	0.360731
682.665834	0.360859
682.868573	0.361067
683.071295	0.361078
683.273998	0.361539
683.476682	0.361980
683.679349	0.362321
683.881997	0.362772
684.084627	0.362973
684.287239	0.363230
684.489833	0.363532
684.692408	0.363586
684.894965	0.363970
685.097504	0.364073
685.300025	0.364380
685.502527	0.364427
685.705012	0.364481
685.907478	0.364742
686.109925	0.365016
686.312355	0.365137
686.514766	0.365535
686.717159	0.365635
686.919534	0.365412
687.121891	0.365512
687.324230	0.365734
687.526550	0.366145
687.728852	0.366361
687.931136	0.366411
688.133401	0.366898
688.335649	0.367138
688.537878	0.367393
688.740089	0.367901
688.942281	0.368276
689.144456	0.368381
689.346612	0.368440
689.548750	0.368482
689.750870	0.368711
689.952971	0.368726
690.155055	0.369056
690.357120	0.369249
690.559167	0.369818
690.761195	0.369935
690.963206	0.370496
691.165198	0.370784
691.367172	0.371271
691.569128	0.371462
691.771065	0.371956
691.972984	0.372032
692.174885	0.372033
692.376768	0.372101
692.578633	0.372419
692.780479	0.372469
692.982308	0.372567
693.184118	0.372668
693.385909	0.373360
