sample name	sample
index	525
start time	 03-11-2021  04:08:35 PM


Wavelength (nm)	Absorbance
494.344910	NaN
494.563924	NaN
494.782919	NaN
495.001897	-0.102275
495.220856	NaN
495.439797	-0.476449
495.658719	-0.371786
495.877624	-0.193136
496.096510	-0.167079
496.315378	-0.640961
496.534227	-0.873970
496.753059	-0.938631
496.971872	-0.515155
497.190667	0.039660
497.409444	0.059320
497.628203	0.061069
497.846943	0.061550
498.065665	0.062261
498.284369	0.062523
498.503055	0.063381
498.721723	0.063882
498.940372	0.064166
499.159003	0.064603
499.377616	0.063699
499.596210	0.063719
499.814787	0.063129
500.033345	0.063225
500.251885	0.063047
500.470406	0.063345
500.688910	0.062836
500.907395	0.061297
501.125862	0.062208
501.344311	0.062628
501.562742	0.063124
501.781154	0.063344
501.999548	0.062608
502.217924	0.063106
502.436282	0.062994
502.654621	0.063214
502.872942	0.064076
503.091245	0.063319
503.309530	0.062023
503.527797	0.061161
503.746045	0.060970
503.964275	0.061133
504.182487	0.061562
504.400681	0.061503
504.618856	0.060708
504.837013	0.060594
505.055152	0.060257
505.273273	0.061893
505.491376	0.062527
505.709460	0.062920
505.927526	0.062544
506.145574	0.062680
506.363604	0.061364
506.581615	0.061952
506.799608	0.062462
507.017583	0.062237
507.235540	0.061108
507.453478	0.060743
507.671399	0.060380
507.889301	0.061117
508.107185	0.060991
508.325050	0.062268
508.542898	0.062888
508.760727	0.061974
508.978538	0.061695
509.196330	0.061895
509.414105	0.061971
509.631861	0.062036
509.849599	0.062152
510.067319	0.061910
510.285021	0.062060
510.502704	0.061617
510.720369	0.062037
510.938016	0.063349
511.155645	0.063491
511.373255	0.062857
511.590848	0.063178
511.808422	0.062629
512.025977	0.062674
512.243515	0.062506
512.461034	0.062640
512.678536	0.062644
512.896018	0.062041
513.113483	0.062636
513.330930	0.063149
513.548358	0.063072
513.765768	0.063482
513.983160	0.063976
514.200533	0.063723
514.417889	0.063712
514.635226	0.063554
514.852545	0.062820
515.069845	0.062202
515.287128	0.062395
515.504392	0.062493
515.721638	0.062287
515.938866	0.061905
516.156075	0.062237
516.373267	0.061908
516.590440	0.062391
516.807594	0.062994
517.024731	0.063221
517.241850	0.063400
517.458950	0.063547
517.676032	0.063772
517.893095	0.063983
518.110141	0.064161
518.327168	0.063908
518.544177	0.063941
518.761168	0.063811
518.978141	0.063841
519.195095	0.064099
519.412031	0.064063
519.628949	0.064673
519.845849	0.064637
520.062731	0.064552
520.279594	0.065101
520.496439	0.064835
520.713266	0.065596
520.930074	0.065332
521.146865	0.065543
521.363637	0.065906
521.580391	0.065702
521.797127	0.065611
522.013844	0.065316
522.230543	0.065923
522.447224	0.066286
522.663887	0.065701
522.880532	0.066087
523.097158	0.065457
523.313766	0.065588
523.530356	0.065657
523.746928	0.066357
523.963481	0.066606
524.180017	0.065884
524.396534	0.065689
524.613032	0.066224
524.829513	0.066149
525.045975	0.066812
525.262420	0.067409
525.478845	0.067252
525.695253	0.066397
525.911643	0.066431
526.128014	0.066737
526.344367	0.067119
526.560702	0.066733
526.777018	0.067352
526.993316	0.067863
527.209597	0.067336
527.425858	0.067385
527.642102	0.068105
527.858328	0.068748
528.074535	0.068862
528.290724	0.068535
528.506894	0.068687
528.723047	0.068661
528.939181	0.067833
529.155297	0.067615
529.371395	0.067722
529.587475	0.067669
529.803536	0.067646
530.019579	0.067447
530.235604	0.067880
530.451611	0.068033
530.667600	0.068045
530.883570	0.068863
531.099522	0.069397
531.315456	0.069593
531.531372	0.069943
531.747269	0.070047
531.963148	0.070546
532.179009	0.071189
532.394852	0.071621
532.610676	0.071561
532.826482	0.071380
533.042271	0.071126
533.258040	0.071557
533.473792	0.071417
533.689525	0.071262
533.905240	0.071259
534.120937	0.071097
534.336616	0.071057
534.552277	0.071485
534.767919	0.071484
534.983543	0.071582
535.199149	0.071473
535.414736	0.071530
535.630306	0.071623
535.845857	0.071993
536.061390	0.071897
536.276904	0.072106
536.492401	0.072071
536.707879	0.072013
536.923339	0.072123
537.138781	0.072285
537.354204	0.072617
537.569610	0.072822
537.784997	0.072637
538.000366	0.072723
538.215716	0.072779
538.431049	0.072446
538.646363	0.072602
538.861659	0.072647
539.076937	0.072215
539.292196	0.072293
539.507438	0.071835
539.722661	0.071669
539.937866	0.071991
540.153052	0.072000
540.368221	0.072262
540.583371	0.072469
540.798503	0.072838
541.013617	0.073679
541.228712	0.073201
541.443789	0.074327
541.658848	0.074559
541.873889	0.074105
542.088912	0.074308
542.303916	0.074432
542.518902	0.074558
542.733870	0.074337
542.948820	0.073846
543.163752	0.074045
543.378665	0.073478
543.593560	0.073592
543.808437	0.074323
544.023295	0.073840
544.238136	0.074044
544.452958	0.074326
544.667762	0.074729
544.882548	0.074951
545.097315	0.075557
545.312064	0.075940
545.526795	0.076460
545.741508	0.076276
545.956203	0.077349
546.170879	0.076773
546.385537	0.076473
546.600177	0.076740
546.814799	0.076839
547.029402	0.076772
547.243988	0.076689
547.458555	0.076567
547.673103	0.076623
547.887634	0.076174
548.102146	0.076790
548.316640	0.076782
548.531116	0.076627
548.745574	0.076795
548.960013	0.076689
549.174435	0.077073
549.388838	0.077512
549.603222	0.077638
549.817589	0.078031
550.031937	0.078414
550.246267	0.078604
550.460579	0.078355
550.674873	0.078378
550.889148	0.078427
551.103405	0.078133
551.317644	0.078208
551.531865	0.078266
551.746068	0.078122
551.960252	0.077981
552.174418	0.078255
552.388566	0.078765
552.602696	0.078797
552.816807	0.079347
553.030900	0.079537
553.244975	0.079560
553.459032	0.080032
553.673070	0.079950
553.887091	0.079912
554.101093	0.079936
554.315077	0.079602
554.529042	0.079874
554.742990	0.079535
554.956919	0.079886
555.170830	0.079689
555.384722	0.079586
555.598597	0.079548
555.812453	0.079513
556.026291	0.079873
556.240111	0.080030
556.453913	0.079852
556.667696	0.080019
556.881461	0.080000
557.095208	0.079953
557.308937	0.079837
557.522647	0.080059
557.736339	0.080700
557.950013	0.080726
558.163669	0.081040
558.377307	0.081535
558.590926	0.081607
558.804527	0.081668
559.018110	0.082127
559.231675	0.082256
559.445221	0.082587
559.658749	0.082719
559.872259	0.082465
560.085751	0.082694
560.299225	0.082800
560.512680	0.082915
560.726117	0.082677
560.939536	0.082596
561.152937	0.082228
561.366319	0.082019
561.579683	0.081585
561.793029	0.081680
562.006357	0.081385
562.219667	0.081319
562.432958	0.081402
562.646231	0.081944
562.859486	0.082141
563.072723	0.082643
563.285941	0.082782
563.499141	0.082897
563.712323	0.083113
563.925487	0.083485
564.138632	0.083403
564.351760	0.083561
564.564869	0.083277
564.777960	0.083008
564.991032	0.083209
565.204087	0.083475
565.417123	0.083652
565.630141	0.083746
565.843140	0.083859
566.056122	0.084098
566.269085	0.083996
566.482030	0.084122
566.694957	0.084184
566.907866	0.083969
567.120756	0.083898
567.333628	0.084089
567.546482	0.084355
567.759318	0.084565
567.972135	0.084582
568.184935	0.085041
568.397716	0.085280
568.610478	0.085726
568.823223	0.086055
569.035949	0.086447
569.248657	0.086699
569.461347	0.086656
569.674019	0.086560
569.886672	0.086516
570.099308	0.086258
570.311925	0.086336
570.524523	0.086323
570.737104	0.086115
570.949666	0.085921
571.162210	0.085720
571.374736	0.085854
571.587244	0.086162
571.799733	0.086046
572.012205	0.086122
572.224658	0.086295
572.437092	0.086365
572.649509	0.086770
572.861907	0.086916
573.074287	0.086863
573.286649	0.086621
573.498993	0.086506
573.711318	0.086800
573.923625	0.087329
574.135914	0.087266
574.348185	0.087093
574.560438	0.087117
574.772672	0.086927
574.984888	0.087248
575.197086	0.087473
575.409266	0.087313
575.621427	0.087460
575.833570	0.087340
576.045695	0.087327
576.257802	0.087643
576.469890	0.087953
576.681961	0.088295
576.894013	0.088309
577.106046	0.088306
577.318062	0.088799
577.530059	0.088899
577.742039	0.088949
577.954000	0.089021
578.165942	0.089040
578.377867	0.089004
578.589773	0.088973
578.801661	0.088922
579.013531	0.089069
579.225382	0.088767
579.437216	0.088752
579.649031	0.088962
579.860828	0.089065
580.072606	0.089195
580.284367	0.088804
580.496109	0.089140
580.707833	0.089227
580.919539	0.089314
581.131227	0.089470
581.342896	0.089656
581.554547	0.089282
581.766180	0.089607
581.977795	0.089405
582.189391	0.089959
582.400969	0.089795
582.612529	0.090094
582.824071	0.090373
583.035595	0.090795
583.247100	0.090948
583.458587	0.091328
583.670056	0.091132
583.881506	0.091300
584.092939	0.091263
584.304353	0.091303
584.515749	0.091140
584.727127	0.091240
584.938486	0.091077
585.149828	0.090837
585.361151	0.091022
585.572456	0.090880
585.783742	0.090767
585.995011	0.090673
586.206261	0.090853
586.417493	0.090903
586.628706	0.090787
586.839902	0.090764
587.051079	0.091038
587.262238	0.090670
587.473379	0.090710
587.684502	0.091018
587.895606	0.091146
588.106692	0.091174
588.317760	0.091152
588.528810	0.091382
588.739841	0.091575
588.950855	0.091419
589.161850	0.091525
589.372827	0.091841
589.583785	0.091975
589.794726	0.092148
590.005648	0.092487
590.216552	0.092574
590.427437	0.092387
590.638305	0.092309
590.849154	0.092392
591.059985	0.092539
591.270798	0.092833
591.481592	0.093085
591.692369	0.093043
591.903127	0.092721
592.113867	0.092663
592.324588	0.092711
592.535292	0.092871
592.745977	0.093094
592.956644	0.093251
593.167293	0.092901
593.377923	0.092809
593.588536	0.092948
593.799130	0.093334
594.009706	0.093720
594.220263	0.094270
594.430803	0.094320
594.641324	0.094241
594.851827	0.094368
595.062312	0.094521
595.272778	0.094820
595.483227	0.094789
595.693657	0.094897
595.904069	0.095068
596.114462	0.094710
596.324838	0.094472
596.535195	0.094896
596.745534	0.094999
596.955855	0.095360
597.166157	0.095115
597.376441	0.095149
597.586707	0.095094
597.796955	0.094834
598.007185	0.094990
598.217396	0.095574
598.427589	0.095290
598.637764	0.095279
598.847921	0.095350
599.058060	0.095516
599.268180	0.095753
599.478282	0.095969
599.688366	0.096274
599.898431	0.096275
600.108479	0.095980
600.318508	0.096061
600.528519	0.096232
600.738511	0.095873
600.948486	0.095888
601.158442	0.096034
601.368380	0.095673
601.578300	0.095609
601.788202	0.095615
601.998085	0.095567
602.207950	0.095929
602.417797	0.095906
602.627626	0.096024
602.837436	0.096094
603.047228	0.096205
603.257002	0.096461
603.466758	0.096428
603.676496	0.096636
603.886215	0.097133
604.095916	0.096749
604.305599	0.096699
604.515264	0.097030
604.724910	0.097415
604.934538	0.097104
605.144148	0.097413
605.353740	0.097692
605.563314	0.097802
605.772869	0.097718
605.982406	0.098183
606.191925	0.098480
606.401425	0.098576
606.610908	0.098288
606.820372	0.098364
607.029818	0.098131
607.239246	0.098134
607.448655	0.098067
607.658047	0.098183
607.867420	0.098158
608.076775	0.097907
608.286111	0.097731
608.495430	0.097840
608.704730	0.098110
608.914012	0.098178
609.123275	0.098075
609.332521	0.098177
609.541748	0.098312
609.750957	0.098200
609.960148	0.098475
610.169321	0.098736
610.378475	0.098945
610.587611	0.099161
610.796729	0.099270
611.005829	0.099521
611.214910	0.099651
611.423974	0.099552
611.633019	0.099919
611.842045	0.099922
612.051054	0.099865
612.260044	0.099618
612.469017	0.099376
612.677970	0.099313
612.886906	0.099463
613.095824	0.099408
613.304723	0.099342
613.513604	0.099268
613.722467	0.099166
613.931311	0.099214
614.140138	0.099397
614.348946	0.099664
614.557736	0.099736
614.766507	0.099712
614.975261	0.099576
615.183996	0.099753
615.392713	0.099524
615.601412	0.099663
615.810092	0.099818
616.018754	0.099928
616.227399	0.099807
616.436024	0.099956
616.644632	0.100189
616.853222	0.100431
617.061793	0.100520
617.270346	0.100773
617.478880	0.101027
617.687397	0.101053
617.895895	0.101120
618.104375	0.101299
618.312837	0.101376
618.521281	0.101457
618.729706	0.101373
618.938113	0.101452
619.146502	0.101453
619.354873	0.101363
619.563226	0.101360
619.771560	0.101216
619.979876	0.101361
620.188174	0.101805
620.396453	0.101593
620.604715	0.101877
620.812958	0.102028
621.021183	0.102053
621.229390	0.102168
621.437578	0.102248
621.645748	0.102492
621.853900	0.102503
622.062034	0.102156
622.270150	0.102451
622.478247	0.102517
622.686326	0.102333
622.894387	0.102559
623.102430	0.102592
623.310454	0.102941
623.518461	0.102956
623.726449	0.102791
623.934418	0.102847
624.142370	0.102764
624.350303	0.102881
624.558218	0.102899
624.766115	0.103135
624.973994	0.103240
625.181855	0.103003
625.389697	0.103009
625.597521	0.103107
625.805327	0.103199
626.013114	0.103305
626.220883	0.103360
626.428634	0.103581
626.636367	0.103452
626.844082	0.103363
627.051778	0.103529
627.259457	0.103681
627.467117	0.103983
627.674758	0.104121
627.882382	0.104204
628.089987	0.104270
628.297574	0.104279
628.505143	0.104225
628.712694	0.104377
628.920226	0.104488
629.127740	0.104559
629.335236	0.104530
629.542714	0.104605
629.750174	0.104678
629.957615	0.104779
630.165038	0.104818
630.372443	0.104973
630.579829	0.105125
630.787198	0.105044
630.994548	0.105127
631.201880	0.105229
631.409194	0.105227
631.616489	0.105252
631.823766	0.105040
632.031025	0.105111
632.238266	0.105156
632.445489	0.105097
632.652693	0.105374
632.859879	0.105487
633.067047	0.105483
633.274197	0.105576
633.481329	0.105556
633.688442	0.105846
633.895537	0.106014
634.102614	0.106336
634.309672	0.106508
634.516713	0.106465
634.723735	0.106615
634.930739	0.106590
635.137724	0.106609
635.344692	0.106608
635.551641	0.106675
635.758572	0.106672
635.965485	0.106452
636.172379	0.106403
636.379256	0.106109
636.586114	0.106096
636.792954	0.106228
636.999775	0.106370
637.206579	0.106691
637.413364	0.106722
637.620131	0.106702
637.826880	0.106880
638.033610	0.107046
638.240323	0.107394
638.447017	0.107385
638.653692	0.107317
638.860350	0.107216
639.066990	0.107085
639.273611	0.107044
639.480214	0.107216
639.686798	0.107313
639.893365	0.107435
640.099913	0.107275
640.306443	0.107173
640.512955	0.107372
640.719449	0.107480
640.925924	0.107644
641.132381	0.107791
641.338820	0.107842
641.545241	0.107815
641.751644	0.107552
641.958028	0.107751
642.164394	0.107867
642.370742	0.107944
642.577071	0.107823
642.783383	0.107947
642.989676	0.108021
643.195951	0.108114
643.402207	0.108207
643.608446	0.108573
643.814666	0.108805
644.020868	0.108896
644.227052	0.108957
644.433218	0.109347
644.639365	0.109235
644.845494	0.109466
645.051605	0.109396
645.257698	0.109439
645.463772	0.109377
645.669828	0.109475
645.875866	0.109719
646.081886	0.109838
646.287888	0.109808
646.493871	0.110101
646.699836	0.109902
646.905783	0.110161
647.111712	0.110014
647.317622	0.110099
647.523514	0.110289
647.729388	0.110296
647.935244	0.110366
648.141082	0.110420
648.346901	0.110474
648.552702	0.110678
648.758485	0.110800
648.964250	0.111239
649.169996	0.111348
649.375724	0.111328
649.581434	0.111466
649.787126	0.111540
649.992800	0.111657
650.198455	0.111561
650.404092	0.111501
650.609711	0.111589
650.815311	0.111364
651.020894	0.111461
651.226458	0.111303
651.432004	0.111486
651.637532	0.111662
651.843041	0.111652
652.048532	0.111678
652.254006	0.111720
652.459460	0.111643
652.664897	0.111860
652.870315	0.111963
653.075716	0.112184
653.281097	0.112155
653.486461	0.112202
653.691807	0.112365
653.897134	0.112622
654.102443	0.112812
654.307734	0.112988
654.513006	0.113231
654.718261	0.113219
654.923497	0.113261
655.128715	0.113299
655.333915	0.113257
655.539096	0.113455
655.744259	0.113470
655.949404	0.113625
656.154531	0.113639
656.359640	0.113325
656.564730	0.113486
656.769802	0.113502
656.974856	0.113540
657.179892	0.113740
657.384909	0.113789
657.589908	0.114020
657.794889	0.114487
657.999852	0.114607
658.204797	0.115041
658.409723	0.114957
658.614631	0.115155
658.819521	0.115347
659.024393	0.115341
659.229246	0.115585
659.434081	0.115519
659.638898	0.115162
659.843697	0.115087
660.048478	0.115134
660.253240	0.115421
660.457984	0.115740
660.662710	0.115865
660.867417	0.116053
661.072107	0.116081
661.276778	0.116284
661.481431	0.116481
661.686066	0.116531
661.890682	0.116630
662.095281	0.116689
662.299861	0.116505
662.504422	0.116340
662.708966	0.116432
662.913491	0.116294
663.117999	0.116226
663.322488	0.116231
663.526958	0.116414
663.731411	0.116602
663.935845	0.116866
664.140261	0.116988
664.344659	0.117037
664.549038	0.117040
664.753400	0.117125
664.957743	0.117261
665.162068	0.117371
665.366375	0.117600
665.570663	0.117437
665.774933	0.117303
665.979185	0.117448
666.183419	0.117882
666.387635	0.117910
666.591832	0.118135
666.796011	0.118200
667.000172	0.118062
667.204315	0.118079
667.408439	0.118343
667.612545	0.118531
667.816634	0.118555
668.020703	0.118524
668.224755	0.118788
668.428788	0.118901
668.632803	0.119056
668.836800	0.119336
669.040779	0.119578
669.244739	0.119502
669.448681	0.119437
669.652605	0.119691
669.856511	0.119805
670.060399	0.119734
670.264268	0.119672
670.468119	0.119684
670.671952	0.119861
670.875767	0.119492
671.079563	0.119674
671.283341	0.119835
671.487101	0.119821
671.690843	0.119912
671.894567	0.120047
672.098272	0.120272
672.301959	0.120124
672.505628	0.120162
672.709278	0.120632
672.912911	0.120802
673.116525	0.120933
673.320121	0.120928
673.523699	0.121154
673.727258	0.121193
673.930799	0.121160
674.134322	0.121604
674.337827	0.121632
674.541314	0.121757
674.744782	0.121865
674.948232	0.121863
675.151664	0.122035
675.355078	0.121895
675.558474	0.122121
675.761851	0.122374
675.965210	0.122441
676.168551	0.122361
676.371873	0.122457
676.575178	0.122333
676.778464	0.122402
676.981732	0.122424
677.184981	0.122581
677.388213	0.122333
677.591426	0.122170
677.794621	0.122367
677.997798	0.122613
678.200956	0.122442
678.404097	0.122650
678.607219	0.122866
678.810323	0.123222
679.013408	0.123402
679.216476	0.123880
679.419525	0.124016
679.622556	0.124003
679.825569	0.124155
680.028563	0.124447
680.231540	0.124628
680.434498	0.124730
680.637438	0.124768
680.840359	0.124756
681.043263	0.124635
681.246148	0.124792
681.449015	0.124811
681.651864	0.124890
681.854694	0.124912
682.057506	0.124869
682.260301	0.124929
682.463076	0.124973
682.665834	0.124903
682.868573	0.125048
683.071295	0.125319
683.273998	0.125318
683.476682	0.125474
683.679349	0.125629
683.881997	0.125923
684.084627	0.126023
684.287239	0.126077
684.489833	0.126080
684.692408	0.126114
684.894965	0.126070
685.097504	0.126245
685.300025	0.126391
685.502527	0.126413
685.705012	0.126319
685.907478	0.126139
686.109925	0.126142
686.312355	0.126432
686.514766	0.126687
686.717159	0.126830
686.919534	0.126993
687.121891	0.126885
687.324230	0.126913
687.526550	0.127035
687.728852	0.127364
687.931136	0.127418
688.133401	0.127575
688.335649	0.127763
688.537878	0.127667
688.740089	0.127690
688.942281	0.127823
689.144456	0.128056
689.346612	0.128134
689.548750	0.128230
689.750870	0.128382
689.952971	0.128141
690.155055	0.128066
690.357120	0.128211
690.559167	0.128134
690.761195	0.128189
690.963206	0.128162
691.165198	0.128129
691.367172	0.128154
691.569128	0.128102
691.771065	0.128386
691.972984	0.128231
692.174885	0.128364
692.376768	0.128588
692.578633	0.128542
692.780479	0.128441
692.982308	0.128609
693.184118	0.128604
693.385909	0.128599
693.587683	0.128745
