sample name	sample
index	750
start time	 03-25-2021  04:12:43 PM


Wavelength (nm)	Absorbance
494.344910	0.138924
494.563924	0.138924
494.782919	0.138924
495.001897	0.852785
495.220856	0.057238
495.439797	0.043243
495.658719	0.045168
495.877624	0.026809
496.096510	0.005253
496.315378	0.004857
496.534227	-0.057672
496.753059	-0.016778
496.971872	-0.022606
497.190667	0.123307
497.409444	0.139751
497.628203	0.145752
497.846943	0.147736
498.065665	0.148662
498.284369	0.151362
498.503055	0.153679
498.721723	0.154299
498.940372	0.155266
499.159003	0.155049
499.377616	0.154868
499.596210	0.153597
499.814787	0.154183
500.033345	0.154582
500.251885	0.153948
500.470406	0.153755
500.688910	0.153293
500.907395	0.152473
501.125862	0.152990
501.344311	0.153815
501.562742	0.154917
501.781154	0.155092
501.999548	0.155006
502.217924	0.155033
502.436282	0.154437
502.654621	0.153844
502.872942	0.154768
503.091245	0.154201
503.309530	0.153997
503.527797	0.154269
503.746045	0.153703
503.964275	0.153282
504.182487	0.153547
504.400681	0.154128
504.618856	0.154579
504.837013	0.154224
505.055152	0.154551
505.273273	0.154851
505.491376	0.154336
505.709460	0.154615
505.927526	0.154977
506.145574	0.154903
506.363604	0.155172
506.581615	0.155729
506.799608	0.155840
507.017583	0.157090
507.235540	0.157019
507.453478	0.157547
507.671399	0.157276
507.889301	0.156940
508.107185	0.157111
508.325050	0.157358
508.542898	0.157390
508.760727	0.157220
508.978538	0.155977
509.196330	0.155749
509.414105	0.155495
509.631861	0.156104
509.849599	0.156208
510.067319	0.155207
510.285021	0.155636
510.502704	0.155191
510.720369	0.155967
510.938016	0.156067
511.155645	0.156683
511.373255	0.156209
511.590848	0.155940
511.808422	0.156784
512.025977	0.157956
512.243515	0.157996
512.461034	0.158120
512.678536	0.158614
512.896018	0.159014
513.113483	0.158424
513.330930	0.158995
513.548358	0.160162
513.765768	0.159751
513.983160	0.160860
514.200533	0.160685
514.417889	0.161203
514.635226	0.160935
514.852545	0.161701
515.069845	0.163607
515.287128	0.163849
515.504392	0.163243
515.721638	0.164060
515.938866	0.164000
516.156075	0.164632
516.373267	0.164861
516.590440	0.165309
516.807594	0.165444
517.024731	0.164759
517.241850	0.165428
517.458950	0.166650
517.676032	0.166933
517.893095	0.166761
518.110141	0.166688
518.327168	0.166945
518.544177	0.166807
518.761168	0.166782
518.978141	0.167258
519.195095	0.167769
519.412031	0.168008
519.628949	0.167800
519.845849	0.168477
520.062731	0.168930
520.279594	0.169767
520.496439	0.170493
520.713266	0.170633
520.930074	0.171221
521.146865	0.171547
521.363637	0.170921
521.580391	0.171541
521.797127	0.171315
522.013844	0.171506
522.230543	0.171326
522.447224	0.171400
522.663887	0.172029
522.880532	0.171191
523.097158	0.171428
523.313766	0.171637
523.530356	0.171602
523.746928	0.171974
523.963481	0.172367
524.180017	0.172472
524.396534	0.172909
524.613032	0.173211
524.829513	0.174188
525.045975	0.173912
525.262420	0.173561
525.478845	0.173593
525.695253	0.174329
525.911643	0.174150
526.128014	0.174909
526.344367	0.175510
526.560702	0.175579
526.777018	0.175847
526.993316	0.176172
527.209597	0.176966
527.425858	0.177867
527.642102	0.177720
527.858328	0.179053
528.074535	0.179540
528.290724	0.179284
528.506894	0.179471
528.723047	0.179909
528.939181	0.180963
529.155297	0.181788
529.371395	0.182054
529.587475	0.182652
529.803536	0.182340
530.019579	0.182595
530.235604	0.182672
530.451611	0.183544
530.667600	0.183164
530.883570	0.182913
531.099522	0.183114
531.315456	0.183783
531.531372	0.183997
531.747269	0.184293
531.963148	0.184433
532.179009	0.185209
532.394852	0.185797
532.610676	0.186992
532.826482	0.187384
533.042271	0.187869
533.258040	0.187634
533.473792	0.187987
533.689525	0.188585
533.905240	0.189622
534.120937	0.190287
534.336616	0.190458
534.552277	0.190565
534.767919	0.190843
534.983543	0.191072
535.199149	0.191153
535.414736	0.191338
535.630306	0.191353
535.845857	0.191187
536.061390	0.191356
536.276904	0.191636
536.492401	0.192596
536.707879	0.193487
536.923339	0.194137
537.138781	0.194993
537.354204	0.195598
537.569610	0.196185
537.784997	0.196371
538.000366	0.195827
538.215716	0.196092
538.431049	0.196010
538.646363	0.196166
538.861659	0.195707
539.076937	0.196051
539.292196	0.196434
539.507438	0.196646
539.722661	0.196750
539.937866	0.197256
540.153052	0.197239
540.368221	0.197184
540.583371	0.197223
540.798503	0.197790
541.013617	0.198258
541.228712	0.198198
541.443789	0.198731
541.658848	0.199530
541.873889	0.200619
542.088912	0.200915
542.303916	0.201179
542.518902	0.201716
542.733870	0.202344
542.948820	0.202348
543.163752	0.202802
543.378665	0.202694
543.593560	0.202687
543.808437	0.202596
544.023295	0.202925
544.238136	0.203428
544.452958	0.203615
544.667762	0.203999
544.882548	0.204215
545.097315	0.203925
545.312064	0.203873
545.526795	0.204188
545.741508	0.204746
545.956203	0.205175
546.170879	0.205475
546.385537	0.205315
546.600177	0.205433
546.814799	0.206043
547.029402	0.206917
547.243988	0.207043
547.458555	0.207499
547.673103	0.207227
547.887634	0.207477
548.102146	0.207596
548.316640	0.208072
548.531116	0.207663
548.745574	0.207759
548.960013	0.208001
549.174435	0.208674
549.388838	0.208720
549.603222	0.209349
549.817589	0.209987
550.031937	0.210484
550.246267	0.211186
550.460579	0.212004
550.674873	0.212606
550.889148	0.212843
551.103405	0.213153
551.317644	0.213301
551.531865	0.213665
551.746068	0.213559
551.960252	0.213397
552.174418	0.213442
552.388566	0.213674
552.602696	0.213778
552.816807	0.213784
553.030900	0.214084
553.244975	0.214663
553.459032	0.214577
553.673070	0.214922
553.887091	0.215493
554.101093	0.215764
554.315077	0.215933
554.529042	0.215418
554.742990	0.215641
554.956919	0.215911
555.170830	0.215948
555.384722	0.216371
555.598597	0.216707
555.812453	0.216913
556.026291	0.217448
556.240111	0.217629
556.453913	0.218080
556.667696	0.218555
556.881461	0.218868
557.095208	0.218631
557.308937	0.218711
557.522647	0.218484
557.736339	0.218815
557.950013	0.218894
558.163669	0.219434
558.377307	0.220011
558.590926	0.220017
558.804527	0.220082
559.018110	0.220874
559.231675	0.221325
559.445221	0.221495
559.658749	0.221688
559.872259	0.221464
560.085751	0.221477
560.299225	0.221419
560.512680	0.221958
560.726117	0.222301
560.939536	0.222745
561.152937	0.222757
561.366319	0.223373
561.579683	0.223541
561.793029	0.224172
562.006357	0.224303
562.219667	0.224999
562.432958	0.225478
562.646231	0.225430
562.859486	0.225558
563.072723	0.225877
563.285941	0.225533
563.499141	0.225884
563.712323	0.225738
563.925487	0.226180
564.138632	0.225752
564.351760	0.225780
564.564869	0.226315
564.777960	0.226125
564.991032	0.226206
565.204087	0.226925
565.417123	0.227064
565.630141	0.227352
565.843140	0.227526
566.056122	0.228107
566.269085	0.228333
566.482030	0.228732
566.694957	0.229318
566.907866	0.229668
567.120756	0.229627
567.333628	0.229777
567.546482	0.230310
567.759318	0.230332
567.972135	0.230342
568.184935	0.230210
568.397716	0.230148
568.610478	0.230016
568.823223	0.229986
569.035949	0.230377
569.248657	0.230602
569.461347	0.230642
569.674019	0.230803
569.886672	0.231315
570.099308	0.231897
570.311925	0.231992
570.524523	0.232301
570.737104	0.232140
570.949666	0.232624
571.162210	0.232679
571.374736	0.232751
571.587244	0.232665
571.799733	0.232888
572.012205	0.232666
572.224658	0.232772
572.437092	0.232734
572.649509	0.233392
572.861907	0.233435
573.074287	0.233835
573.286649	0.234005
573.498993	0.234408
573.711318	0.234749
573.923625	0.235184
574.135914	0.235698
574.348185	0.235893
574.560438	0.236407
574.772672	0.236527
574.984888	0.236524
575.197086	0.237068
575.409266	0.237408
575.621427	0.237052
575.833570	0.237327
576.045695	0.237602
576.257802	0.238054
576.469890	0.238141
576.681961	0.238179
576.894013	0.238292
577.106046	0.238422
577.318062	0.238633
577.530059	0.239061
577.742039	0.239458
577.954000	0.239175
578.165942	0.239479
578.377867	0.239604
578.589773	0.239674
578.801661	0.239897
579.013531	0.239973
579.225382	0.240350
579.437216	0.240812
579.649031	0.241042
579.860828	0.241849
580.072606	0.241897
580.284367	0.242179
580.496109	0.242823
580.707833	0.243318
580.919539	0.243599
581.131227	0.243466
581.342896	0.243366
581.554547	0.243304
581.766180	0.243244
581.977795	0.243785
582.189391	0.244032
582.400969	0.244407
582.612529	0.244405
582.824071	0.244611
583.035595	0.245124
583.247100	0.245390
583.458587	0.245904
583.670056	0.246123
583.881506	0.246027
584.092939	0.245990
584.304353	0.245868
584.515749	0.245956
584.727127	0.246093
584.938486	0.246282
585.149828	0.247043
585.361151	0.246815
585.572456	0.246912
585.783742	0.247052
585.995011	0.247630
586.206261	0.247540
586.417493	0.247892
586.628706	0.248117
586.839902	0.248479
587.051079	0.248491
587.262238	0.248810
587.473379	0.249403
587.684502	0.249814
587.895606	0.249898
588.106692	0.250405
588.317760	0.250709
588.528810	0.251082
588.739841	0.251055
588.950855	0.250808
589.161850	0.250932
589.372827	0.250970
589.583785	0.250981
589.794726	0.250910
590.005648	0.251036
590.216552	0.251123
590.427437	0.251333
590.638305	0.251774
590.849154	0.252229
591.059985	0.252466
591.270798	0.252535
591.481592	0.252999
591.692369	0.253367
591.903127	0.253583
592.113867	0.254441
592.324588	0.254483
592.535292	0.254773
592.745977	0.254895
592.956644	0.255416
593.167293	0.255807
593.377923	0.255950
593.588536	0.256598
593.799130	0.256969
594.009706	0.257260
594.220263	0.257329
594.430803	0.257758
594.641324	0.258036
594.851827	0.258162
595.062312	0.258470
595.272778	0.259285
595.483227	0.259140
595.693657	0.259627
595.904069	0.259308
596.114462	0.259468
596.324838	0.259260
596.535195	0.259108
596.745534	0.259050
596.955855	0.259179
597.166157	0.258881
597.376441	0.259056
597.586707	0.258675
597.796955	0.258806
598.007185	0.259098
598.217396	0.259427
598.427589	0.259861
598.637764	0.260125
598.847921	0.260262
599.058060	0.260403
599.268180	0.260731
599.478282	0.261182
599.688366	0.261308
599.898431	0.261597
600.108479	0.261563
600.318508	0.261928
600.528519	0.262273
600.738511	0.262627
600.948486	0.262633
601.158442	0.262550
601.368380	0.262788
601.578300	0.263355
601.788202	0.263510
601.998085	0.263851
602.207950	0.264184
602.417797	0.264538
602.627626	0.264239
602.837436	0.264606
603.047228	0.265331
603.257002	0.265494
603.466758	0.265233
603.676496	0.265734
603.886215	0.266202
604.095916	0.266444
604.305599	0.266445
604.515264	0.266938
604.724910	0.267333
604.934538	0.267299
605.144148	0.267383
605.353740	0.267838
605.563314	0.267915
605.772869	0.267745
605.982406	0.267722
606.191925	0.267936
606.401425	0.268011
606.610908	0.268211
606.820372	0.268251
607.029818	0.268484
607.239246	0.268417
607.448655	0.268626
607.658047	0.269064
607.867420	0.269236
608.076775	0.269379
608.286111	0.270042
608.495430	0.269945
608.704730	0.269955
608.914012	0.270426
609.123275	0.270536
609.332521	0.270450
609.541748	0.270836
609.750957	0.271353
609.960148	0.271793
610.169321	0.271524
610.378475	0.271615
610.587611	0.272133
610.796729	0.272366
611.005829	0.272774
611.214910	0.273268
611.423974	0.273226
611.633019	0.273393
611.842045	0.273263
612.051054	0.273405
612.260044	0.273890
612.469017	0.273854
612.677970	0.273831
612.886906	0.274022
613.095824	0.274154
613.304723	0.274492
613.513604	0.274464
613.722467	0.275114
613.931311	0.275447
614.140138	0.275656
614.348946	0.275753
614.557736	0.276043
614.766507	0.276240
614.975261	0.276170
615.183996	0.276097
615.392713	0.276371
615.601412	0.275911
615.810092	0.276135
616.018754	0.276202
616.227399	0.276808
616.436024	0.276738
616.644632	0.276879
616.853222	0.277240
617.061793	0.277454
617.270346	0.277537
617.478880	0.277946
617.687397	0.278142
617.895895	0.278312
618.104375	0.278277
618.312837	0.278394
618.521281	0.278493
618.729706	0.278681
618.938113	0.279023
619.146502	0.279138
619.354873	0.279120
619.563226	0.279135
619.771560	0.279108
619.979876	0.279223
620.188174	0.279606
620.396453	0.279811
620.604715	0.279810
620.812958	0.279606
621.021183	0.279828
621.229390	0.280204
621.437578	0.280277
621.645748	0.280560
621.853900	0.280899
622.062034	0.281004
622.270150	0.281359
622.478247	0.281853
622.686326	0.282542
622.894387	0.282731
623.102430	0.282763
623.310454	0.283044
623.518461	0.283580
623.726449	0.283628
623.934418	0.283783
624.142370	0.283968
624.350303	0.283920
624.558218	0.283348
624.766115	0.283441
624.973994	0.283609
625.181855	0.283737
625.389697	0.283466
625.597521	0.283665
625.805327	0.283834
626.013114	0.283903
626.220883	0.283671
626.428634	0.284278
626.636367	0.284356
626.844082	0.284467
627.051778	0.284691
627.259457	0.284818
627.467117	0.285009
627.674758	0.285336
627.882382	0.285503
628.089987	0.285908
628.297574	0.286097
628.505143	0.286256
628.712694	0.286487
628.920226	0.286891
629.127740	0.287205
629.335236	0.287478
629.542714	0.287751
629.750174	0.288152
629.957615	0.288483
630.165038	0.288609
630.372443	0.289019
630.579829	0.289463
630.787198	0.289389
630.994548	0.289555
631.201880	0.289656
631.409194	0.289768
631.616489	0.290086
631.823766	0.290158
632.031025	0.290159
632.238266	0.290231
632.445489	0.290332
632.652693	0.290703
632.859879	0.291064
633.067047	0.291251
633.274197	0.291161
633.481329	0.290878
633.688442	0.291358
633.895537	0.291823
634.102614	0.292262
634.309672	0.292292
634.516713	0.292399
634.723735	0.292383
634.930739	0.292679
635.137724	0.292823
635.344692	0.292997
635.551641	0.293004
635.758572	0.293252
635.965485	0.293428
636.172379	0.293684
636.379256	0.293986
636.586114	0.294138
636.792954	0.294229
636.999775	0.294763
637.206579	0.295300
637.413364	0.295566
637.620131	0.295520
637.826880	0.295436
638.033610	0.295600
638.240323	0.295694
638.447017	0.295874
638.653692	0.296148
638.860350	0.296446
639.066990	0.296553
639.273611	0.296738
639.480214	0.297029
639.686798	0.297195
639.893365	0.297707
640.099913	0.298096
640.306443	0.298526
640.512955	0.298604
640.719449	0.298779
640.925924	0.298788
641.132381	0.298848
641.338820	0.299227
641.545241	0.299441
641.751644	0.299597
641.958028	0.299433
642.164394	0.299554
642.370742	0.299919
642.577071	0.300189
642.783383	0.300584
642.989676	0.301120
643.195951	0.301154
643.402207	0.301414
643.608446	0.301686
643.814666	0.302375
644.020868	0.302447
644.227052	0.302628
644.433218	0.302247
644.639365	0.302129
644.845494	0.302346
645.051605	0.302572
645.257698	0.302783
645.463772	0.302939
645.669828	0.303084
645.875866	0.303556
646.081886	0.303506
646.287888	0.304096
646.493871	0.304527
646.699836	0.304700
646.905783	0.304913
647.111712	0.305233
647.317622	0.305331
647.523514	0.305442
647.729388	0.305519
647.935244	0.305779
648.141082	0.306004
648.346901	0.306350
648.552702	0.306478
648.758485	0.306741
648.964250	0.306751
649.169996	0.306852
649.375724	0.307033
649.581434	0.307116
649.787126	0.307099
649.992800	0.307285
650.198455	0.307332
650.404092	0.307534
650.609711	0.307723
650.815311	0.308278
651.020894	0.308406
651.226458	0.308478
651.432004	0.308979
651.637532	0.309504
651.843041	0.309558
652.048532	0.309832
652.254006	0.309953
652.459460	0.310325
652.664897	0.310466
652.870315	0.310818
653.075716	0.310969
653.281097	0.310938
653.486461	0.311218
653.691807	0.311500
653.897134	0.311644
654.102443	0.312013
654.307734	0.312143
654.513006	0.312274
654.718261	0.312364
654.923497	0.312610
655.128715	0.312905
655.333915	0.312991
655.539096	0.313264
655.744259	0.313384
655.949404	0.313504
656.154531	0.313763
656.359640	0.314068
656.564730	0.314489
656.769802	0.314665
656.974856	0.314829
657.179892	0.315226
657.384909	0.315301
657.589908	0.315779
657.794889	0.316016
657.999852	0.316306
658.204797	0.316672
658.409723	0.316863
658.614631	0.317473
658.819521	0.317766
659.024393	0.318008
659.229246	0.318610
659.434081	0.318952
659.638898	0.319127
659.843697	0.319042
660.048478	0.319381
660.253240	0.319578
660.457984	0.319585
660.662710	0.319820
660.867417	0.319985
661.072107	0.319998
661.276778	0.319992
661.481431	0.320388
661.686066	0.320884
661.890682	0.320502
662.095281	0.320725
662.299861	0.320692
662.504422	0.320917
662.708966	0.321215
662.913491	0.321388
663.117999	0.321472
663.322488	0.321751
663.526958	0.321670
663.731411	0.322382
663.935845	0.322749
664.140261	0.323662
664.344659	0.324188
664.549038	0.324386
664.753400	0.325005
664.957743	0.325562
665.162068	0.325591
665.366375	0.326155
665.570663	0.326406
665.774933	0.326800
665.979185	0.326658
666.183419	0.326748
666.387635	0.326978
666.591832	0.326984
666.796011	0.327014
667.000172	0.327206
667.204315	0.327281
667.408439	0.327360
667.612545	0.327666
667.816634	0.328066
668.020703	0.328510
668.224755	0.328807
668.428788	0.329178
668.632803	0.329718
668.836800	0.329951
669.040779	0.330299
669.244739	0.330478
669.448681	0.330589
669.652605	0.330753
669.856511	0.330813
670.060399	0.330977
670.264268	0.331084
670.468119	0.330886
670.671952	0.331416
670.875767	0.331797
671.079563	0.332114
671.283341	0.332286
671.487101	0.332530
671.690843	0.332572
671.894567	0.332588
672.098272	0.332879
672.301959	0.333213
672.505628	0.333130
672.709278	0.333253
672.912911	0.333349
673.116525	0.333064
673.320121	0.333095
673.523699	0.333397
673.727258	0.334053
673.930799	0.334065
674.134322	0.334616
674.337827	0.334935
674.541314	0.335210
674.744782	0.335599
674.948232	0.336062
675.151664	0.336555
675.355078	0.336899
675.558474	0.336988
675.761851	0.337549
675.965210	0.337813
676.168551	0.338146
676.371873	0.338312
676.575178	0.338660
676.778464	0.339365
676.981732	0.339523
677.184981	0.339693
677.388213	0.339992
677.591426	0.340198
677.794621	0.340370
677.997798	0.340542
678.200956	0.340860
678.404097	0.341123
678.607219	0.341252
678.810323	0.341470
679.013408	0.341506
679.216476	0.341773
679.419525	0.342034
679.622556	0.342218
679.825569	0.342675
680.028563	0.342879
680.231540	0.343066
680.434498	0.343343
680.637438	0.343701
680.840359	0.344155
681.043263	0.344322
681.246148	0.344457
681.449015	0.344675
681.651864	0.344701
681.854694	0.344744
682.057506	0.345138
682.260301	0.345481
682.463076	0.345565
682.665834	0.345831
682.868573	0.346315
683.071295	0.346520
683.273998	0.346924
683.476682	0.347289
683.679349	0.347584
683.881997	0.347571
684.084627	0.347752
684.287239	0.347935
684.489833	0.348078
684.692408	0.347995
684.894965	0.348368
685.097504	0.348447
685.300025	0.348643
685.502527	0.348907
685.705012	0.349294
685.907478	0.349179
686.109925	0.349451
686.312355	0.349598
686.514766	0.349784
686.717159	0.349931
686.919534	0.350330
687.121891	0.350607
687.324230	0.351037
687.526550	0.351378
687.728852	0.351755
687.931136	0.352037
688.133401	0.352543
688.335649	0.352806
688.537878	0.353115
688.740089	0.353073
688.942281	0.353145
689.144456	0.353307
689.346612	0.353306
689.548750	0.353618
689.750870	0.353934
689.952971	0.354190
690.155055	0.354466
690.357120	0.354566
690.559167	0.354940
690.761195	0.355204
690.963206	0.355173
691.165198	0.355400
691.367172	0.355710
691.569128	0.355749
691.771065	0.356103
691.972984	0.356608
692.174885	0.356732
692.376768	0.356876
692.578633	0.357135
692.780479	0.357875
692.982308	0.358102
693.184118	0.357982
693.385909	0.358196
