sample name	sample
index	566
start time	 03-16-2021  02:40:43 PM


Wavelength (nm)	Absorbance
494.344910	0.058384
494.563924	0.058384
494.782919	0.058384
495.001897	-0.069129
495.220856	-0.000380
495.439797	-0.025376
495.658719	-0.025138
495.877624	-0.038232
496.096510	-0.030017
496.315378	-0.039055
496.534227	-0.040301
496.753059	-0.045923
496.971872	-0.042051
497.190667	0.038021
497.409444	0.074665
497.628203	0.085874
497.846943	0.090124
498.065665	0.092097
498.284369	0.095866
498.503055	0.098059
498.721723	0.098738
498.940372	0.101574
499.159003	0.101996
499.377616	0.102151
499.596210	0.100698
499.814787	0.100940
500.033345	0.101601
500.251885	0.101024
500.470406	0.100918
500.688910	0.100487
500.907395	0.098791
501.125862	0.098829
501.344311	0.100184
501.562742	0.101582
501.781154	0.101874
501.999548	0.103075
502.217924	0.103752
502.436282	0.103404
502.654621	0.104549
502.872942	0.105006
503.091245	0.105287
503.309530	0.104692
503.527797	0.104132
503.746045	0.104958
503.964275	0.104245
504.182487	0.103932
504.400681	0.105137
504.618856	0.105147
504.837013	0.105774
505.055152	0.104736
505.273273	0.104237
505.491376	0.104326
505.709460	0.104434
505.927526	0.103900
506.145574	0.103431
506.363604	0.103444
506.581615	0.103873
506.799608	0.103698
507.017583	0.105033
507.235540	0.104701
507.453478	0.104781
507.671399	0.104258
507.889301	0.104976
508.107185	0.105144
508.325050	0.104621
508.542898	0.104046
508.760727	0.103674
508.978538	0.103654
509.196330	0.104531
509.414105	0.104771
509.631861	0.104607
509.849599	0.104414
510.067319	0.105597
510.285021	0.106530
510.502704	0.106603
510.720369	0.106294
510.938016	0.106804
511.155645	0.106567
511.373255	0.105946
511.590848	0.106978
511.808422	0.107660
512.025977	0.106914
512.243515	0.106517
512.461034	0.106956
512.678536	0.107965
512.896018	0.107476
513.113483	0.107237
513.330930	0.107363
513.548358	0.107336
513.765768	0.106452
513.983160	0.106508
514.200533	0.107400
514.417889	0.107043
514.635226	0.107624
514.852545	0.107128
515.069845	0.107508
515.287128	0.107590
515.504392	0.106802
515.721638	0.107911
515.938866	0.109285
516.156075	0.108344
516.373267	0.108109
516.590440	0.106960
516.807594	0.107288
517.024731	0.107777
517.241850	0.108282
517.458950	0.109365
517.676032	0.109310
517.893095	0.108978
518.110141	0.109124
518.327168	0.110147
518.544177	0.111334
518.761168	0.112021
518.978141	0.111592
519.195095	0.111259
519.412031	0.110728
519.628949	0.110334
519.845849	0.111261
520.062731	0.111289
520.279594	0.111213
520.496439	0.110131
520.713266	0.109848
520.930074	0.110325
521.146865	0.110656
521.363637	0.111517
521.580391	0.111898
521.797127	0.110662
522.013844	0.111071
522.230543	0.111939
522.447224	0.113014
522.663887	0.112769
522.880532	0.113330
523.097158	0.113857
523.313766	0.113272
523.530356	0.113327
523.746928	0.113770
523.963481	0.114773
524.180017	0.115728
524.396534	0.115658
524.613032	0.116035
524.829513	0.116295
525.045975	0.116492
525.262420	0.117599
525.478845	0.117791
525.695253	0.118191
525.911643	0.118396
526.128014	0.117569
526.344367	0.117705
526.560702	0.118311
526.777018	0.118526
526.993316	0.119317
527.209597	0.119418
527.425858	0.120257
527.642102	0.120525
527.858328	0.119597
528.074535	0.119164
528.290724	0.119803
528.506894	0.119999
528.723047	0.119933
528.939181	0.119288
529.155297	0.119512
529.371395	0.119054
529.587475	0.119032
529.803536	0.120255
530.019579	0.121110
530.235604	0.121337
530.451611	0.121703
530.667600	0.122084
530.883570	0.121711
531.099522	0.120933
531.315456	0.121287
531.531372	0.121267
531.747269	0.121061
531.963148	0.121242
532.179009	0.121364
532.394852	0.121073
532.610676	0.120852
532.826482	0.122817
533.042271	0.124231
533.258040	0.124998
533.473792	0.125587
533.689525	0.126276
533.905240	0.126397
534.120937	0.126667
534.336616	0.127108
534.552277	0.127654
534.767919	0.126783
534.983543	0.126166
535.199149	0.126002
535.414736	0.126661
535.630306	0.126217
535.845857	0.126278
536.061390	0.126816
536.276904	0.126963
536.492401	0.126897
536.707879	0.127659
536.923339	0.128481
537.138781	0.128417
537.354204	0.128300
537.569610	0.129041
537.784997	0.129265
538.000366	0.129199
538.215716	0.129643
538.431049	0.130290
538.646363	0.130224
538.861659	0.129481
539.076937	0.130208
539.292196	0.130350
539.507438	0.130226
539.722661	0.130884
539.937866	0.130995
540.153052	0.131054
540.368221	0.130588
540.583371	0.130294
540.798503	0.131791
541.013617	0.131238
541.228712	0.131326
541.443789	0.130903
541.658848	0.130332
541.873889	0.130429
542.088912	0.130553
542.303916	0.131443
542.518902	0.132630
542.733870	0.132417
542.948820	0.133060
543.163752	0.133359
543.378665	0.133237
543.593560	0.133562
543.808437	0.133801
544.023295	0.134815
544.238136	0.134609
544.452958	0.134046
544.667762	0.134082
544.882548	0.133992
545.097315	0.134308
545.312064	0.135199
545.526795	0.135368
545.741508	0.135552
545.956203	0.134666
546.170879	0.134390
546.385537	0.134629
546.600177	0.134966
546.814799	0.134907
547.029402	0.135104
547.243988	0.135525
547.458555	0.135400
547.673103	0.135389
547.887634	0.135731
548.102146	0.136541
548.316640	0.136947
548.531116	0.137185
548.745574	0.138063
548.960013	0.138139
549.174435	0.138471
549.388838	0.139233
549.603222	0.139098
549.817589	0.139475
550.031937	0.139603
550.246267	0.139707
550.460579	0.140033
550.674873	0.139581
550.889148	0.139384
551.103405	0.138723
551.317644	0.138210
551.531865	0.138774
551.746068	0.138475
551.960252	0.138576
552.174418	0.138219
552.388566	0.138113
552.602696	0.138411
552.816807	0.138728
553.030900	0.139342
553.244975	0.139988
553.459032	0.140639
553.673070	0.141007
553.887091	0.141486
554.101093	0.141888
554.315077	0.141697
554.529042	0.141628
554.742990	0.141604
554.956919	0.141603
555.170830	0.141411
555.384722	0.140967
555.598597	0.141390
555.812453	0.140353
556.026291	0.140786
556.240111	0.141025
556.453913	0.141291
556.667696	0.141948
556.881461	0.142407
557.095208	0.142671
557.308937	0.142868
557.522647	0.142647
557.736339	0.143423
557.950013	0.143500
558.163669	0.143851
558.377307	0.144477
558.590926	0.144223
558.804527	0.144282
559.018110	0.144419
559.231675	0.144659
559.445221	0.144738
559.658749	0.144432
559.872259	0.144182
560.085751	0.144140
560.299225	0.143738
560.512680	0.143667
560.726117	0.143547
560.939536	0.143960
561.152937	0.143838
561.366319	0.144518
561.579683	0.145177
561.793029	0.145532
562.006357	0.145327
562.219667	0.145627
562.432958	0.145883
562.646231	0.146259
562.859486	0.146107
563.072723	0.146360
563.285941	0.146126
563.499141	0.146262
563.712323	0.146296
563.925487	0.146468
564.138632	0.146668
564.351760	0.147056
564.564869	0.147323
564.777960	0.147914
564.991032	0.148240
565.204087	0.148723
565.417123	0.148609
565.630141	0.149104
565.843140	0.149486
566.056122	0.149738
566.269085	0.149963
566.482030	0.149500
566.694957	0.148753
566.907866	0.148942
567.120756	0.148293
567.333628	0.148659
567.546482	0.148616
567.759318	0.148216
567.972135	0.147787
568.184935	0.147389
568.397716	0.148038
568.610478	0.148614
568.823223	0.148296
569.035949	0.148463
569.248657	0.148282
569.461347	0.147520
569.674019	0.147908
569.886672	0.148209
570.099308	0.148437
570.311925	0.148603
570.524523	0.148784
570.737104	0.149204
570.949666	0.149437
571.162210	0.149844
571.374736	0.150295
571.587244	0.150202
571.799733	0.150430
572.012205	0.150365
572.224658	0.150006
572.437092	0.149852
572.649509	0.149937
572.861907	0.150305
573.074287	0.150122
573.286649	0.150290
573.498993	0.150974
573.711318	0.151134
573.923625	0.151682
574.135914	0.152092
574.348185	0.152108
574.560438	0.152064
574.772672	0.152454
574.984888	0.152159
575.197086	0.152698
575.409266	0.152605
575.621427	0.152724
575.833570	0.152414
576.045695	0.152282
576.257802	0.152520
576.469890	0.152360
576.681961	0.152226
576.894013	0.152847
577.106046	0.152314
577.318062	0.152471
577.530059	0.152013
577.742039	0.151762
577.954000	0.151492
578.165942	0.151629
578.377867	0.151780
578.589773	0.151600
578.801661	0.151681
579.013531	0.152149
579.225382	0.152032
579.437216	0.152853
579.649031	0.153526
579.860828	0.153879
580.072606	0.154024
580.284367	0.154405
580.496109	0.154832
580.707833	0.154832
580.919539	0.155090
581.131227	0.154845
581.342896	0.154554
581.554547	0.154438
581.766180	0.154766
581.977795	0.154909
582.189391	0.154822
582.400969	0.154451
582.612529	0.154510
582.824071	0.154837
583.035595	0.155550
583.247100	0.155698
583.458587	0.155700
583.670056	0.156013
583.881506	0.155785
584.092939	0.155929
584.304353	0.156454
584.515749	0.156934
584.727127	0.156818
584.938486	0.156419
585.149828	0.156426
585.361151	0.156452
585.572456	0.156449
585.783742	0.157119
585.995011	0.157248
586.206261	0.157148
586.417493	0.156999
586.628706	0.157340
586.839902	0.157975
587.051079	0.158151
587.262238	0.158733
587.473379	0.158432
587.684502	0.158563
587.895606	0.158528
588.106692	0.158555
588.317760	0.158599
588.528810	0.158400
588.739841	0.158043
588.950855	0.158254
589.161850	0.158216
589.372827	0.158341
589.583785	0.158277
589.794726	0.157990
590.005648	0.158173
590.216552	0.158471
590.427437	0.158918
590.638305	0.158998
590.849154	0.158881
591.059985	0.158513
591.270798	0.158602
591.481592	0.158789
591.692369	0.159046
591.903127	0.159111
592.113867	0.159089
592.324588	0.159230
592.535292	0.159549
592.745977	0.159440
592.956644	0.160109
593.167293	0.160346
593.377923	0.160497
593.588536	0.160553
593.799130	0.160434
594.009706	0.160581
594.220263	0.159890
594.430803	0.159730
594.641324	0.160174
594.851827	0.160167
595.062312	0.160599
595.272778	0.160476
595.483227	0.160790
595.693657	0.160923
595.904069	0.160706
596.114462	0.161203
596.324838	0.161515
596.535195	0.161570
596.745534	0.161518
596.955855	0.161178
597.166157	0.161350
597.376441	0.161400
597.586707	0.162034
597.796955	0.162468
598.007185	0.162321
598.217396	0.162701
598.427589	0.162619
598.637764	0.162689
598.847921	0.163003
599.058060	0.163033
599.268180	0.163373
599.478282	0.163137
599.688366	0.163194
599.898431	0.163823
600.108479	0.163358
600.318508	0.163915
600.528519	0.164431
600.738511	0.164575
600.948486	0.164627
601.158442	0.164577
601.368380	0.164368
601.578300	0.164321
601.788202	0.164093
601.998085	0.164417
602.207950	0.164228
602.417797	0.164027
602.627626	0.164150
602.837436	0.164395
603.047228	0.164616
603.257002	0.164821
603.466758	0.164879
603.676496	0.165111
603.886215	0.165040
604.095916	0.165116
604.305599	0.165389
604.515264	0.165538
604.724910	0.165312
604.934538	0.165109
605.144148	0.165418
605.353740	0.165595
605.563314	0.165389
605.772869	0.165672
605.982406	0.166009
606.191925	0.165856
606.401425	0.165570
606.610908	0.166029
606.820372	0.166301
607.029818	0.166242
607.239246	0.166212
607.448655	0.166673
607.658047	0.166675
607.867420	0.166628
608.076775	0.166499
608.286111	0.166870
608.495430	0.166760
608.704730	0.166521
608.914012	0.166490
609.123275	0.166895
609.332521	0.166528
609.541748	0.166745
609.750957	0.166542
609.960148	0.166975
610.169321	0.167070
610.378475	0.167282
610.587611	0.167862
610.796729	0.168286
611.005829	0.167992
611.214910	0.168244
611.423974	0.168265
611.633019	0.168518
611.842045	0.168554
612.051054	0.168513
612.260044	0.168391
612.469017	0.168157
612.677970	0.168082
612.886906	0.168469
613.095824	0.168662
613.304723	0.168713
613.513604	0.168743
613.722467	0.168884
613.931311	0.168963
614.140138	0.169335
614.348946	0.169506
614.557736	0.169575
614.766507	0.169250
614.975261	0.169584
615.183996	0.169840
615.392713	0.170024
615.601412	0.170112
615.810092	0.170192
616.018754	0.170016
616.227399	0.170367
616.436024	0.170604
616.644632	0.171046
616.853222	0.170864
617.061793	0.170901
617.270346	0.170743
617.478880	0.170617
617.687397	0.170635
617.895895	0.170684
618.104375	0.170746
618.312837	0.171043
618.521281	0.170979
618.729706	0.170792
618.938113	0.170677
619.146502	0.171046
619.354873	0.171169
619.563226	0.171220
619.771560	0.171238
619.979876	0.171290
620.188174	0.171166
620.396453	0.171273
620.604715	0.171767
620.812958	0.172148
621.021183	0.172154
621.229390	0.172169
621.437578	0.172705
621.645748	0.173214
621.853900	0.173268
622.062034	0.173417
622.270150	0.173302
622.478247	0.173358
622.686326	0.173393
622.894387	0.173654
623.102430	0.173763
623.310454	0.173643
623.518461	0.173685
623.726449	0.173859
623.934418	0.173972
624.142370	0.174117
624.350303	0.174333
624.558218	0.174661
624.766115	0.174320
624.973994	0.174736
625.181855	0.174698
625.389697	0.174496
625.597521	0.174367
625.805327	0.174249
626.013114	0.174559
626.220883	0.174397
626.428634	0.174157
626.636367	0.174440
626.844082	0.174243
627.051778	0.174323
627.259457	0.174493
627.467117	0.174995
627.674758	0.175199
627.882382	0.175266
628.089987	0.175491
628.297574	0.175581
628.505143	0.175880
628.712694	0.176153
628.920226	0.176000
629.127740	0.176212
629.335236	0.175850
629.542714	0.175694
629.750174	0.175799
629.957615	0.175740
630.165038	0.175960
630.372443	0.176008
630.579829	0.176017
630.787198	0.176455
630.994548	0.176392
631.201880	0.176676
631.409194	0.177118
631.616489	0.177223
631.823766	0.177706
632.031025	0.177895
632.238266	0.178112
632.445489	0.178302
632.652693	0.178472
632.859879	0.178515
633.067047	0.178644
633.274197	0.178661
633.481329	0.178899
633.688442	0.178675
633.895537	0.178915
634.102614	0.178933
634.309672	0.178997
634.516713	0.179198
634.723735	0.179517
634.930739	0.179488
635.137724	0.179737
635.344692	0.179908
635.551641	0.180028
635.758572	0.179716
635.965485	0.179832
636.172379	0.179917
636.379256	0.179744
636.586114	0.179688
636.792954	0.179706
636.999775	0.179653
637.206579	0.179416
637.413364	0.179639
637.620131	0.179785
637.826880	0.179854
638.033610	0.180035
638.240323	0.180053
638.447017	0.180205
638.653692	0.180315
638.860350	0.180355
639.066990	0.180649
639.273611	0.180609
639.480214	0.180570
639.686798	0.180505
639.893365	0.180547
640.099913	0.180807
640.306443	0.180965
640.512955	0.181301
640.719449	0.181198
640.925924	0.181447
641.132381	0.181828
641.338820	0.182479
641.545241	0.182666
641.751644	0.182812
641.958028	0.183090
642.164394	0.182907
642.370742	0.183007
642.577071	0.183505
642.783383	0.183518
642.989676	0.183441
643.195951	0.183211
643.402207	0.183448
643.608446	0.183386
643.814666	0.183158
644.020868	0.183409
644.227052	0.183491
644.433218	0.183518
644.639365	0.183617
644.845494	0.183827
645.051605	0.183972
645.257698	0.184084
645.463772	0.184500
645.669828	0.184826
645.875866	0.185144
646.081886	0.185285
646.287888	0.185433
646.493871	0.185479
646.699836	0.185396
646.905783	0.185450
647.111712	0.185447
647.317622	0.185419
647.523514	0.185490
647.729388	0.185603
647.935244	0.185777
648.141082	0.185779
648.346901	0.185950
648.552702	0.186151
648.758485	0.186226
648.964250	0.186417
649.169996	0.186405
649.375724	0.186513
649.581434	0.186507
649.787126	0.186565
649.992800	0.186462
650.198455	0.186515
650.404092	0.186644
650.609711	0.186768
650.815311	0.186991
651.020894	0.187265
651.226458	0.187371
651.432004	0.187543
651.637532	0.187606
651.843041	0.187924
652.048532	0.187997
652.254006	0.187918
652.459460	0.188182
652.664897	0.188088
652.870315	0.187903
653.075716	0.187822
653.281097	0.187900
653.486461	0.187836
653.691807	0.187700
653.897134	0.187779
654.102443	0.188330
654.307734	0.188398
654.513006	0.188640
654.718261	0.188920
654.923497	0.189209
655.128715	0.189467
655.333915	0.189727
655.539096	0.190242
655.744259	0.190460
655.949404	0.190525
656.154531	0.190781
656.359640	0.190805
656.564730	0.191130
656.769802	0.191205
656.974856	0.191347
657.179892	0.191380
657.384909	0.191481
657.589908	0.191564
657.794889	0.191897
657.999852	0.191935
658.204797	0.192032
658.409723	0.192001
658.614631	0.192165
658.819521	0.192200
659.024393	0.192500
659.229246	0.192695
659.434081	0.193000
659.638898	0.192712
659.843697	0.192629
660.048478	0.192778
660.253240	0.192971
660.457984	0.193176
660.662710	0.193272
660.867417	0.193289
661.072107	0.193226
661.276778	0.192949
661.481431	0.193044
661.686066	0.193213
661.890682	0.193489
662.095281	0.193712
662.299861	0.193907
662.504422	0.193876
662.708966	0.194036
662.913491	0.194261
663.117999	0.194409
663.322488	0.194660
663.526958	0.194770
663.731411	0.194942
663.935845	0.195099
664.140261	0.195383
664.344659	0.195671
664.549038	0.195985
664.753400	0.196137
664.957743	0.196653
665.162068	0.196834
665.366375	0.197053
665.570663	0.197207
665.774933	0.197110
665.979185	0.197072
666.183419	0.197239
666.387635	0.197028
666.591832	0.197179
666.796011	0.197149
667.000172	0.197089
667.204315	0.197478
667.408439	0.197588
667.612545	0.197972
667.816634	0.198193
668.020703	0.198235
668.224755	0.198683
668.428788	0.198980
668.632803	0.199240
668.836800	0.199405
669.040779	0.199255
669.244739	0.199288
669.448681	0.199101
669.652605	0.199168
669.856511	0.199173
670.060399	0.199251
670.264268	0.199057
670.468119	0.198954
670.671952	0.199338
670.875767	0.199685
671.079563	0.200001
671.283341	0.200243
671.487101	0.200204
671.690843	0.200172
671.894567	0.200276
672.098272	0.200562
672.301959	0.200961
672.505628	0.201142
672.709278	0.201185
672.912911	0.201131
673.116525	0.201333
673.320121	0.201740
673.523699	0.202354
673.727258	0.202385
673.930799	0.202732
674.134322	0.202781
674.337827	0.202515
674.541314	0.202657
674.744782	0.202917
674.948232	0.202921
675.151664	0.203005
675.355078	0.202930
675.558474	0.203020
675.761851	0.202871
675.965210	0.203181
676.168551	0.203444
676.371873	0.203602
676.575178	0.203664
676.778464	0.203805
676.981732	0.203964
677.184981	0.204171
677.388213	0.204464
677.591426	0.204644
677.794621	0.204598
677.997798	0.204900
678.200956	0.205065
678.404097	0.205201
678.607219	0.205644
678.810323	0.205712
679.013408	0.205859
679.216476	0.206069
679.419525	0.206177
679.622556	0.206398
679.825569	0.206509
680.028563	0.206412
680.231540	0.206561
680.434498	0.206561
680.637438	0.206547
680.840359	0.206815
681.043263	0.206944
681.246148	0.207132
681.449015	0.207184
681.651864	0.207227
681.854694	0.207420
682.057506	0.207708
682.260301	0.207999
682.463076	0.208188
682.665834	0.208000
682.868573	0.208141
683.071295	0.208224
683.273998	0.208436
683.476682	0.208365
683.679349	0.208367
683.881997	0.208261
684.084627	0.208223
684.287239	0.208217
684.489833	0.208477
684.692408	0.208555
684.894965	0.208831
685.097504	0.209006
685.300025	0.209295
685.502527	0.209517
685.705012	0.209586
685.907478	0.209821
686.109925	0.210120
686.312355	0.210332
686.514766	0.210430
686.717159	0.210262
686.919534	0.210261
687.121891	0.210582
687.324230	0.210724
687.526550	0.211013
687.728852	0.211129
687.931136	0.211272
688.133401	0.211235
688.335649	0.211276
688.537878	0.211485
688.740089	0.211578
688.942281	0.211864
689.144456	0.212358
689.346612	0.212314
689.548750	0.212312
689.750870	0.212378
689.952971	0.212595
690.155055	0.212661
690.357120	0.212831
690.559167	0.212942
690.761195	0.212702
690.963206	0.212773
691.165198	0.212884
691.367172	0.213011
691.569128	0.213287
691.771065	0.213387
691.972984	0.213834
692.174885	0.214001
692.376768	0.214179
692.578633	0.214390
692.780479	0.214179
692.982308	0.214205
693.184118	0.214317
693.385909	0.214349
