sample name	sample
index	777
start time	 03-31-2021  01:36:47 PM
880	0.024554
Peak Time (s)	92.537
Peak Height 	0.02455
calc peak height	90,93
Baseline Time (s)	11.037
Baseline Value 	-0.001285
subtract baseline	10,4
Abs	0.041122
Peak Time (s)	92.537
Peak Height 	0.04112
calc peak height	90,93
Baseline Time (s)	11.037
Baseline Value 	0.003069
subtract baseline	10,3
PK_550	0.008138
Peak Time (s)	90.541
Peak Height 	0.008138
calc peak height	90,93
Baseline Time (s)	10.536
Baseline Value 	6.9103E-4
subtract baseline	10,2
PK_880	0.040357
Peak Time (s)	92.537
Peak Height 	0.04036
calc peak height	90,93
Baseline Time (s)	8.538
Baseline Value 	0.001317
subtract baseline	10,1


Time (s)	A880-A510	A880-A775	A880-A975	A880	I510	I775	I975	I880	
0.036000	-0.004830	-0.001067	-0.002747	0.006034	6699.947709	40238.555185	4058.392099	22062.229605
0.536000	-0.003891	-0.000921	-0.002419	0.002858	6734.009452	40523.268492	4066.186047	22201.269396
1.036500	-0.001282	-0.000250	-0.003160	0.003022	6754.417712	40566.934113	4064.167009	22194.083286
1.537000	-0.000501	0.000760	-0.000833	0.001801	6771.197909	40759.577923	4072.106723	22247.792634
2.038000	-0.003781	-0.000264	-0.000060	0.006149	6707.644756	40297.273082	4064.105848	22057.186858
2.535000	0.000433	-0.000106	0.000786	0.001278	6783.467608	40729.984735	4076.932035	22270.868601
3.035000	0.000502	-0.000366	-0.004315	-0.001919	6811.120185	40984.950697	4072.643173	22412.407792
3.535500	-0.002047	-0.000492	-0.000506	-0.000619	6778.554531	40860.900172	4078.300271	22354.715013
4.036000	-0.002973	-0.000573	-0.004389	0.004827	6725.277743	40384.051342	4057.428214	22114.940432
4.535500	-0.000700	-0.000074	0.001462	-0.000095	6785.496517	40851.701986	4081.570870	22331.514935
5.036000	0.001598	0.000207	-0.004264	0.000381	6800.897576	40834.804104	4067.598919	22310.458526
5.536500	-0.000658	-0.000082	0.002676	0.000127	6783.968017	40831.732030	4083.822896	22321.679170
6.037000	0.000120	-0.000722	-0.002196	0.000020	6791.444653	40785.524246	4073.048058	22326.431342
6.537000	-0.001171	-0.000160	-0.005110	0.000361	6777.680248	40804.658428	4065.752604	22311.354207
7.039500	0.001564	0.000125	0.000340	0.000194	6802.188718	40843.872633	4078.373155	22318.708498
7.538000	0.001418	0.000144	0.000722	0.000153	6801.307271	40849.148195	4079.331996	22320.563029
8.035500	-0.001596	0.000409	-0.003644	0.003213	6750.196056	40607.291965	4062.664952	22185.708958
8.538000	0.000000	0.000001	-0.005292	-0.000128	6791.682900	40861.075478	4066.437970	22332.977817
9.035500	0.000293	-0.000708	0.002701	-0.000380	6796.289299	40821.381626	4085.034556	22344.115860
9.536000	0.000461	0.000591	0.001582	0.000680	6788.747346	40842.180982	4080.085115	22297.248738
10.036500	0.002493	0.001029	-0.000589	0.001270	6800.949357	40828.999692	4073.850546	22271.226829
10.536000	-0.000326	0.000000	0.000384	0.000233	6785.882101	40829.682992	4078.386753	22317.018901
11.037000	-0.002146	-0.000279	0.000000	0.000000	6772.512816	40825.644572	4078.044079	22327.310205
11.540000	-0.001198	-0.000312	-0.004354	-0.000151	6781.758966	40835.839243	4068.586610	22333.977277
12.037500	0.000197	0.000001	-0.001846	0.000157	6790.943947	40836.368038	4073.527547	22320.382331
12.535000	0.000060	-0.000654	0.000344	-0.000356	6794.114142	40824.025157	4079.628692	22343.071253
13.037500	-0.001112	0.000117	0.000180	0.000567	6776.441035	40810.872194	4077.170652	22302.252081
13.538000	0.000989	-0.000797	-0.001343	0.000777	6792.388996	40713.448490	4073.262111	22292.963544
14.036000	-0.001589	-0.000269	0.001239	0.002031	6760.140396	40650.694993	4076.253589	22237.651524
14.536000	-0.001197	-0.000284	0.000595	0.002357	6760.699206	40621.367824	4074.070762	22223.340725
15.036500	0.000450	0.000401	-0.002270	0.001360	6782.923424	40766.776143	4069.871824	22267.253901
15.536500	-0.001007	-0.000643	-0.003670	0.000538	6777.564583	40747.525138	4068.575714	22303.513719
16.037000	0.001518	0.000099	-0.002957	0.000835	6796.372306	40785.976666	4069.507289	22290.391046
16.544500	-0.002049	-0.000775	-0.001224	0.000297	6770.835399	40756.931352	4074.612617	22314.178029
17.035000	0.002604	0.000168	0.001091	-0.001122	6822.224290	40962.006574	4083.060292	22377.026263
17.535500	-0.002131	-0.000137	-0.007670	0.001136	6763.097294	40739.475673	4058.335896	22277.100435
18.035500	-0.001510	-0.000338	0.000483	0.001063	6768.918252	40728.461836	4076.732338	22280.321408
18.535500	-0.001294	0.000195	-0.001603	0.001408	6767.838777	40744.716793	4071.261698	22265.126958
19.036000	-0.000745	-0.000053	0.003730	0.001156	6774.569196	40745.097747	4083.880597	22276.238505
19.536500	0.000231	-0.000140	-0.000905	0.001322	6781.385635	40723.158679	4073.020102	22268.893356
20.036500	0.000179	-0.000056	-0.002732	0.001823	6776.736794	40687.075327	4067.798839	22246.823922
20.537000	-0.001516	-0.000358	-0.000794	0.001256	6767.253336	40710.017307	4073.419066	22271.804562
21.040000	-0.000622	-0.000377	0.001456	0.001805	6770.149462	40660.949981	4077.256532	22247.637330
21.534000	-0.001465	0.000274	0.000609	0.001907	6762.219899	40708.401334	4075.112402	22243.117655
22.035000	-0.002151	0.000092	0.004985	0.001650	6758.618962	40714.832612	4085.612629	22254.435762
22.535500	-0.001049	-0.000119	-0.001962	0.001602	6768.274065	40700.820494	4070.019536	22256.578286
23.035000	-0.001498	-0.000358	-0.002593	0.001416	6766.057602	40696.156434	4069.021327	22264.751973
23.535500	-0.001880	-0.000323	-0.000462	0.001597	6761.338255	40683.526955	4073.399150	22256.769448
24.036500	0.000208	-0.000729	-0.000447	0.001268	6781.655010	40676.952012	4074.174751	22271.290603
24.536500	-0.001514	-0.001153	-0.000225	0.001304	6766.867159	40637.174755	4074.592632	22269.709713
25.036500	-0.000686	-0.000332	-0.003347	0.001455	6772.556543	40695.142316	4067.248274	22263.063819
25.537000	-0.001269	-0.001134	-0.000877	0.001270	6769.216284	40641.806569	4073.202379	22271.219885
26.037000	-0.000729	0.000043	-0.003895	0.001977	6767.812244	40682.359100	4064.859725	22240.056378
26.535000	-0.001238	0.000139	-0.002956	0.001662	6766.177417	40717.901940	4067.659321	22253.932122
27.035000	-0.001800	-0.000386	0.000035	0.001941	6759.128363	40648.433442	4073.743339	22241.626858
27.535000	0.000253	0.000146	-0.002894	0.000172	6791.282593	40847.650290	4071.137432	22319.698243
28.036000	0.000300	-0.000900	-0.003222	0.000399	6789.769261	40737.353154	4069.893772	22309.682176
28.539000	0.000080	-0.000054	0.002738	0.001063	6782.301717	40753.044142	4081.838717	22280.340387
29.036000	-0.000101	-0.000473	0.000663	0.000416	6786.230924	40772.713198	4078.600875	22308.894393
29.537000	-0.000216	0.000403	-0.002784	0.000527	6784.332256	40839.141263	4070.587694	22304.021995
30.037000	0.000189	-0.000347	-0.004218	0.000017	6792.047238	40818.264288	4068.515534	22326.536169
30.537000	-0.002518	-0.000581	0.001893	0.000676	6763.716185	40740.933734	4080.798953	22297.435539
31.034500	-0.002238	-0.000821	-0.004219	0.002663	6749.424493	40548.644437	4062.607786	22209.852513
31.544500	0.001078	-0.000218	-0.003085	0.000836	6792.643746	40758.517570	4069.219526	22290.351673
32.035000	-0.000840	-0.000461	-0.000984	0.000787	6776.878448	40741.729754	4074.048591	22292.521868
32.537000	-0.001046	-0.000809	0.001229	0.000416	6778.268654	40743.722981	4079.883766	22308.935605
33.036000	0.001782	0.000065	-0.000112	0.000773	6799.138636	40788.453203	4076.045543	22293.144206
33.536000	0.002942	0.000055	0.003732	-0.001800	6830.881738	41011.192920	4090.630065	22407.089564
34.036000	-0.000926	-0.000654	0.002226	0.002131	6764.860336	40608.926084	4078.259320	22233.259121
34.536500	-0.002849	-0.001041	0.002190	0.001262	6756.030848	40650.456332	4080.143952	22271.559493
35.037500	-0.000630	-0.000710	-0.000325	0.001941	6768.941919	40620.507442	4072.934980	22241.654627
35.534500	-0.002379	-0.000716	0.003164	0.001179	6760.660272	40685.787793	4082.542329	22275.228848
36.034500	-0.003350	-0.001089	-0.000710	0.001418	6750.530946	40632.842521	4073.243778	22264.667478
36.540500	-0.000565	0.000505	0.003189	0.002813	6762.172072	40650.092975	4078.894646	22203.273847
37.035500	-0.001789	0.000488	-0.004761	0.002541	6754.194237	40672.061193	4061.674111	22215.206349
37.992000	-0.002754	-0.000898	-0.000306	0.001132	6757.919783	40674.163222	4074.798715	22277.318337
38.535000	-0.002085	-0.000157	0.001374	0.001930	6756.832945	40669.154043	4076.788523	22242.135311
38.634500	-0.002012	-0.000256	-0.000352	0.001849	6758.121468	40667.570774	4073.081710	22245.688016
39.037000	-0.001519	0.000582	0.005025	0.002927	6753.220495	40646.840156	4082.798161	22198.245841
39.539000	-0.001105	-0.000802	0.000262	0.002057	6763.980371	40602.523865	4073.995039	22236.545159
40.040500	0.001015	-0.000827	0.000611	0.001578	6785.851270	40641.729225	4075.860495	22257.633364
40.534500	0.000204	0.000142	-0.001986	0.002263	6773.243617	40666.190423	4068.486082	22227.461563
41.039500	-0.001366	-0.000148	-0.005233	0.001972	6762.502516	40666.235120	4061.888319	22240.248807
41.541000	-0.001773	-0.000059	-0.003503	0.002136	6757.719777	40659.785202	4065.378222	22233.046872
42.035500	0.000358	-0.000167	0.004549	0.002293	6774.290779	40636.957645	4083.158118	22226.156635
42.538000	-0.000778	-0.000352	-0.003260	0.001801	6768.872747	40663.421702	4066.667946	22247.796277
43.036500	-0.000704	-0.000100	-0.002274	0.002128	6766.746553	40656.928333	4068.141445	22233.383087
43.539000	-0.000741	-0.001034	-0.001482	-0.000092	6785.114787	40768.174200	4074.906680	22331.361885
44.036500	0.001510	0.000478	-0.002006	-0.001785	6818.544941	41046.761669	4077.542934	22406.417712
44.540000	-0.000893	-0.000884	0.004547	0.000224	6781.171548	40753.805335	4087.865550	22317.390846
45.037000	0.000027	-0.000466	-0.003263	0.000086	6790.101484	40801.987468	4070.501746	22323.483919
45.534500	0.000720	-0.000167	-0.004690	0.000332	6793.885232	40806.654274	4066.756460	22312.645539
46.034500	-0.001561	0.000514	-0.001791	0.001841	6761.970139	40734.833751	4069.867693	22246.031686
46.535500	-0.001840	-0.000374	-0.001737	0.000698	6769.224733	40757.000511	4072.555107	22296.473258
47.035500	-0.002564	0.000675	0.004780	0.002725	6746.180631	40672.365370	4082.701092	22207.138007
47.536000	-0.003113	0.000064	-0.001284	0.002670	6742.060114	40624.324540	4069.146127	22209.554172
48.036500	-0.002681	-0.000293	-0.003467	0.000695	6762.182596	40764.211367	4068.680373	22296.584920
48.539000	-0.001776	-0.000302	0.002018	0.000171	6774.185144	40808.851189	4082.229108	22319.748025
49.037000	0.000365	0.000264	0.000296	0.000913	6785.972716	40793.543316	4076.649764	22286.955990
49.537000	0.001124	-0.000067	0.002938	-0.002312	6819.746308	41045.262556	4089.986321	22429.869412
50.034500	-0.001027	0.000287	-0.000892	0.000974	6773.732562	40790.353394	4073.835674	22284.281222
50.534500	0.000512	-0.001147	0.002046	0.007163	6734.829879	40135.375373	4066.543077	22013.010237
51.035000	-0.049810	-0.000130	-0.020767	0.094399	5753.769974	33476.236635	3849.343588	18573.862730
51.535000	-0.055973	-0.013489	-0.031340	-0.116865	7342.909481	50980.941648	4291.746213	28259.730588
52.035500	-0.047476	-0.111025	-0.013592	-0.329778	10150.362944	65535.000000	5129.612319	44169.724599
52.535500	-0.035890	-0.128493	-0.005183	-0.347246	10636.712720	65535.000000	5254.452911	45854.721467
53.036500	-0.033457	-0.083740	-0.007461	-0.300465	9907.140600	65244.386261	5023.921151	41490.141641
53.536500	-0.031431	-0.083599	-0.003132	-0.300818	9944.413792	65315.198049	5044.814983	41521.379502
54.042500	-0.023959	-0.070573	-0.003244	-0.284221	9802.549034	64806.011444	4971.268153	40081.298686
54.536500	-0.011247	-0.069996	-0.002471	-0.285531	10021.788614	65074.526849	4980.281507	40192.983390
55.037500	-0.006788	-0.053489	-0.000613	-0.262813	9737.674550	64195.383498	4891.927858	38303.282074
55.535000	-0.006760	-0.040006	0.001904	-0.240599	9408.153674	62980.267359	4812.300024	36548.596603
56.034500	-0.001665	-0.020625	0.001150	-0.195998	8861.483689	59604.981105	4642.124439	33285.425789
56.535500	0.001042	-0.012511	0.007520	-0.160976	8449.849128	56213.529892	4543.427568	30947.927465
57.035500	0.004784	-0.006820	0.012161	-0.122508	8040.360277	52356.277066	4434.982868	28588.616135
57.536000	0.005609	-0.004420	0.007999	-0.094774	7744.806229	49568.175505	4340.183437	27012.675623
58.036000	0.005291	-0.001441	0.006079	-0.074772	7533.453374	47784.024712	4278.948876	25936.971887
58.536500	0.009585	0.000043	0.015344	-0.050187	7332.035471	45471.966513	4237.953389	24680.897849
59.037000	0.009873	0.002265	0.015163	-0.029418	7138.060359	43702.745917	4184.185818	23673.815334
59.537500	0.025709	0.009130	0.015935	-0.023099	7227.068450	43753.825825	4170.378774	23376.863438
60.034500	0.011647	0.003204	0.017243	-0.011807	6994.218867	42175.643613	4145.966102	22856.811315
60.535000	0.011749	0.005465	0.014541	-0.009870	6977.890213	42204.782128	4134.812372	22768.957292
61.035500	0.011912	0.005510	0.019523	-0.005803	6943.377026	41844.811769	4137.002100	22585.758568
61.536000	0.026700	0.013079	0.013621	-0.005557	7073.534106	42502.683023	4122.372445	22574.727728
62.036000	0.023503	0.008901	0.012824	-0.007220	7059.589263	42275.439099	4124.419128	22649.379187
62.536000	0.022712	0.009448	0.017980	-0.010098	7078.564974	42585.254094	4143.618661	22779.253652
63.039000	0.028742	0.011162	0.020600	-0.010015	7133.133546	42733.582692	4149.755198	22775.513390
63.539500	0.028773	0.011452	0.021049	-0.009817	7131.587951	42741.978944	4150.364892	22766.551110
64.037500	0.028474	0.011723	0.023347	-0.009902	7129.610575	42774.409865	4156.163539	22770.392769
64.537500	0.030819	0.011938	0.021076	-0.008682	7140.006558	42682.872825	4147.677994	22715.243606
65.035000	0.032187	0.012989	0.016572	-0.006885	7136.041381	42615.010960	4132.533148	22634.319740
65.535500	0.031642	0.012283	0.022769	-0.007361	7135.405248	42594.164399	4148.579514	22655.738684
66.035500	0.032713	0.012570	0.027818	-0.005856	7131.388686	42483.646217	4157.200893	22588.109760
66.535500	0.032701	0.013030	0.026623	-0.004359	7117.485494	42389.881975	4150.646785	22521.128262
67.036500	0.036186	0.013107	0.026247	-0.002835	7135.572199	42259.387886	4146.042204	22453.136236
67.536000	0.036178	0.013242	0.021949	-0.001563	7123.754043	42157.080321	4132.664782	22396.578701
68.037000	0.033347	0.012956	0.022797	-0.000510	7088.122594	42037.057779	4132.174086	22349.890230
68.537000	0.037359	0.014100	0.024962	0.000528	7115.381385	42046.526652	4134.867215	22303.978828
69.037000	0.038597	0.014007	0.029352	0.001158	7120.975855	41981.880600	4143.898677	22276.168415
69.534000	0.037618	0.013172	0.026000	0.000304	7119.825923	41983.510434	4137.888903	22313.869516
70.035000	0.040075	0.014408	0.022444	0.001556	7130.934870	41982.106078	4126.422243	22258.613448
70.535000	0.036493	0.014098	0.027394	0.001838	7095.409056	41929.181515	4137.553578	22246.159349
71.036000	0.041975	0.014826	0.026115	0.003452	7130.973655	41850.174362	4130.640632	22175.209376
71.535500	0.038897	0.013758	0.025051	0.003070	7106.156432	41789.140898	4129.017614	22191.983868
72.036000	0.040078	0.013255	0.025780	0.003100	7116.734634	41741.742645	4130.681204	22190.674427
72.536500	0.040830	0.013785	0.027007	0.004084	7114.592431	41701.369997	4131.258899	22147.474736
73.039000	0.042108	0.014682	0.028959	0.005664	7111.820271	41640.809717	4132.145235	22078.364042
73.537000	0.043048	0.015569	0.027806	0.007816	7100.695168	41528.869966	4124.293054	21984.625613
74.037500	0.042264	0.014025	0.030931	0.007057	7100.471150	41459.599370	4133.528431	22017.631707
74.537500	0.043664	0.014442	0.028388	0.008274	7102.147925	41389.112798	4124.587203	21964.750263
75.035000	0.044914	0.015095	0.030650	0.009633	7101.144636	41326.976152	4126.725481	21905.831187
75.535500	0.043363	0.015023	0.032380	0.009851	7084.967469	41301.427390	4130.320042	21896.399766
76.035500	0.041091	0.012829	0.030395	0.010096	7062.057314	41087.893660	4125.023796	21885.824471
76.536000	0.043273	0.013980	0.027262	0.011611	7068.113159	41055.996477	4114.070898	21820.440254
77.036000	0.044614	0.014038	0.032410	0.012585	7071.458111	40976.240288	4123.902594	21778.559268
77.539500	0.041984	0.013006	0.026884	0.015727	7019.299338	40614.459626	4103.595458	21644.022579
78.037000	0.044510	0.013296	0.030503	0.014374	7054.274346	40756.418690	4115.191876	21701.813180
78.537000	0.042083	0.012434	0.037713	0.014020	7035.546270	40712.457461	4133.095659	21716.993577
79.037500	0.043062	0.012685	0.029956	0.015422	7031.736681	40613.033700	4111.458157	21657.032720
79.534500	0.041487	0.012752	0.031541	0.019546	6980.748937	40264.750808	4105.539220	21481.788307
80.035500	0.042752	0.013110	0.032575	0.016852	7016.099745	40526.464895	4114.242726	21596.092795
80.541000	0.045042	0.013532	0.035773	0.017650	7029.504407	40494.104708	4119.882852	21562.141963
81.036000	0.044181	0.013238	0.033505	0.017712	7021.206109	40463.583700	4114.405689	21559.527326
81.536000	0.043810	0.013046	0.037338	0.017502	7019.760912	40465.124562	4123.928363	21568.447195
82.036500	0.044480	0.012670	0.037928	0.017340	7027.234681	40446.736155	4125.709902	21575.326815
82.539500	0.044002	0.012098	0.037878	0.017019	7025.829702	40425.210122	4126.352217	21588.982007
83.037000	0.043831	0.011252	0.033397	0.016878	7025.552768	40364.638855	4116.108045	21594.962066
83.534500	0.040499	0.011370	0.036367	0.020925	6959.773171	40029.547306	4113.583060	21423.568876
84.035000	0.042554	0.010967	0.036121	0.016750	7015.240384	40351.252998	4122.828042	21600.423294
84.535000	0.040031	0.009665	0.036566	0.015472	7004.083017	40349.115520	4126.907671	21654.873172
85.035000	0.039462	0.010384	0.041087	0.016777	6987.371843	40299.073406	4134.571637	21599.271265
85.535000	0.037874	0.008958	0.039502	0.021239	6933.885020	39798.808881	4120.212151	21410.328163
86.036000	0.041328	0.010623	0.038087	0.018594	6987.810887	40164.363503	4123.118215	21522.108619
86.536000	0.041970	0.009705	0.042255	0.017964	6999.149237	40139.774184	4134.525814	21548.828371
87.036000	0.043237	0.009792	0.039918	0.018657	7004.273190	40088.165464	4127.304293	21519.407021
87.539000	0.043820	0.009925	0.044171	0.019761	6999.614467	40005.645022	4134.807035	21472.671618
88.037000	0.041894	0.010009	0.040458	0.020376	6976.993252	39960.721146	4124.511841	21446.728400
88.534000	0.042237	0.009452	0.038698	0.020548	6978.507819	39898.901622	4119.946336	21439.447956
89.037500	0.040810	0.008059	0.046215	0.020317	6967.909656	39800.727089	4138.373952	21449.213272
89.535500	0.041565	0.008775	0.040304	0.021781	6961.622480	39737.606353	4120.824255	21387.485510
90.035000	0.040159	0.007528	0.039756	0.021205	6954.297875	39681.157736	4120.892629	21411.752001
90.541500	0.038589	0.008138	0.038823	0.022390	6930.059719	39632.852244	4115.907659	21361.901574
91.036000	0.037968	0.007398	0.037601	0.022156	6926.660862	39590.370665	4113.588844	21371.732673
91.539000	0.037492	0.006920	0.038818	0.022914	6915.866301	39486.766539	4114.665428	21339.876714
92.036500	0.038858	0.006703	0.039896	0.023857	6919.564721	39389.937804	4114.984054	21300.377034
92.536500	0.040357	0.006040	0.041122	0.024554	6926.585020	39276.623031	4116.224272	21271.209681
93.037500	0.038703	0.006234	0.038344	0.024916	6908.956134	39262.672436	4108.875180	21256.066312
93.534500	0.037925	0.004771	0.039461	0.024623	6904.732551	39165.500944	4112.167641	21268.311956
94.035000	0.036852	0.004403	0.039395	0.024471	6896.715684	39147.595810	4112.370797	21274.674249
94.540500	0.036555	0.004528	0.039207	0.025574	6884.565553	39066.586677	4109.352793	21228.596384
95.036000	0.038846	0.005376	0.039687	0.026737	6894.360037	39040.586282	4107.762533	21180.182786
95.536000	0.037330	0.004960	0.045382	0.027015	6878.805367	38983.285029	4120.457912	21168.622620
96.036500	0.036363	0.003824	0.046190	0.026927	6871.205804	38896.958402	4122.572968	21172.276211
