sample name	sample
index	1371
start time	 05-03-2021  02:26:50 PM


Wavelength (nm)	Absorbance
494.344910	NaN
494.563924	NaN
494.782919	NaN
495.001897	NaN
495.220856	-0.116979
495.439797	-0.149657
495.658719	-0.175183
495.877624	-0.170424
496.096510	-0.152691
496.315378	-0.134409
496.534227	-0.058553
496.753059	-0.034564
496.971872	-0.030458
497.190667	0.187481
497.409444	0.180800
497.628203	0.179725
497.846943	0.180144
498.065665	0.179745
498.284369	0.179404
498.503055	0.178620
498.721723	0.178468
498.940372	0.179917
499.159003	0.176071
499.377616	0.177677
499.596210	0.177301
499.814787	0.176807
500.033345	0.175821
500.251885	0.175124
500.470406	0.176414
500.688910	0.177245
500.907395	0.177643
501.125862	0.179538
501.344311	0.178833
501.562742	0.180213
501.781154	0.179865
501.999548	0.181406
502.217924	0.183368
502.436282	0.183348
502.654621	0.183243
502.872942	0.182973
503.091245	0.184292
503.309530	0.184450
503.527797	0.183989
503.746045	0.184253
503.964275	0.184764
504.182487	0.182727
504.400681	0.182769
504.618856	0.182725
504.837013	0.182630
505.055152	0.182409
505.273273	0.182298
505.491376	0.182318
505.709460	0.181722
505.927526	0.180556
506.145574	0.182355
506.363604	0.182740
506.581615	0.183140
506.799608	0.182050
507.017583	0.181894
507.235540	0.181508
507.453478	0.181939
507.671399	0.183554
507.889301	0.184605
508.107185	0.184690
508.325050	0.184289
508.542898	0.184133
508.760727	0.185137
508.978538	0.184913
509.196330	0.186952
509.414105	0.187498
509.631861	0.186941
509.849599	0.187150
510.067319	0.185335
510.285021	0.186387
510.502704	0.187737
510.720369	0.188166
510.938016	0.188917
511.155645	0.186789
511.373255	0.187055
511.590848	0.187621
511.808422	0.186605
512.025977	0.188759
512.243515	0.188336
512.461034	0.187748
512.678536	0.188033
512.896018	0.186533
513.113483	0.187607
513.330930	0.186935
513.548358	0.186595
513.765768	0.187407
513.983160	0.186074
514.200533	0.186261
514.417889	0.186039
514.635226	0.185559
514.852545	0.186627
515.069845	0.187129
515.287128	0.187642
515.504392	0.188400
515.721638	0.188764
515.938866	0.189839
516.156075	0.190102
516.373267	0.190250
516.590440	0.190960
516.807594	0.191364
517.024731	0.190863
517.241850	0.191248
517.458950	0.191409
517.676032	0.191438
517.893095	0.192011
518.110141	0.191898
518.327168	0.192690
518.544177	0.192847
518.761168	0.193397
518.978141	0.194518
519.195095	0.195466
519.412031	0.195434
519.628949	0.195333
519.845849	0.195297
520.062731	0.195683
520.279594	0.195233
520.496439	0.196286
520.713266	0.196280
520.930074	0.196683
521.146865	0.195532
521.363637	0.195255
521.580391	0.196064
521.797127	0.196273
522.013844	0.197040
522.230543	0.197482
522.447224	0.197372
522.663887	0.197349
522.880532	0.196842
523.097158	0.197478
523.313766	0.198575
523.530356	0.198811
523.746928	0.199026
523.963481	0.199350
524.180017	0.199936
524.396534	0.199968
524.613032	0.200365
524.829513	0.200856
525.045975	0.201244
525.262420	0.201242
525.478845	0.201416
525.695253	0.201778
525.911643	0.201693
526.128014	0.201236
526.344367	0.200885
526.560702	0.201333
526.777018	0.200640
526.993316	0.200662
527.209597	0.201239
527.425858	0.201670
527.642102	0.203001
527.858328	0.203377
528.074535	0.204272
528.290724	0.205220
528.506894	0.206229
528.723047	0.207704
528.939181	0.208416
529.155297	0.208406
529.371395	0.208400
529.587475	0.208295
529.803536	0.208392
530.019579	0.208555
530.235604	0.208679
530.451611	0.209096
530.667600	0.209499
530.883570	0.208959
531.099522	0.210065
531.315456	0.210362
531.531372	0.210122
531.747269	0.211263
531.963148	0.211844
532.179009	0.212801
532.394852	0.212478
532.610676	0.212876
532.826482	0.214025
533.042271	0.213484
533.258040	0.213839
533.473792	0.214398
533.689525	0.214336
533.905240	0.214881
534.120937	0.214689
534.336616	0.214728
534.552277	0.215014
534.767919	0.214905
534.983543	0.215257
535.199149	0.216443
535.414736	0.216791
535.630306	0.217359
535.845857	0.217630
536.061390	0.217970
536.276904	0.218786
536.492401	0.219660
536.707879	0.220110
536.923339	0.220967
537.138781	0.221015
537.354204	0.221377
537.569610	0.220942
537.784997	0.221460
538.000366	0.221759
538.215716	0.222112
538.431049	0.221723
538.646363	0.223163
538.861659	0.223329
539.076937	0.223382
539.292196	0.224013
539.507438	0.224841
539.722661	0.224906
539.937866	0.224876
540.153052	0.224987
540.368221	0.225067
540.583371	0.224762
540.798503	0.225036
541.013617	0.225654
541.228712	0.225934
541.443789	0.226562
541.658848	0.227047
541.873889	0.227786
542.088912	0.228409
542.303916	0.229282
542.518902	0.229734
542.733870	0.229926
542.948820	0.230146
543.163752	0.230691
543.378665	0.230240
543.593560	0.230047
543.808437	0.230631
544.023295	0.230385
544.238136	0.231007
544.452958	0.231145
544.667762	0.231596
544.882548	0.231025
545.097315	0.230581
545.312064	0.231524
545.526795	0.232452
545.741508	0.232136
545.956203	0.232601
546.170879	0.232278
546.385537	0.232149
546.600177	0.232383
546.814799	0.233588
547.029402	0.234214
547.243988	0.234147
547.458555	0.233743
547.673103	0.234208
547.887634	0.234412
548.102146	0.234508
548.316640	0.234352
548.531116	0.234602
548.745574	0.234385
548.960013	0.234560
549.174435	0.234336
549.388838	0.234610
549.603222	0.234988
549.817589	0.235497
550.031937	0.235603
550.246267	0.236401
550.460579	0.236901
550.674873	0.237167
550.889148	0.237103
551.103405	0.237703
551.317644	0.238391
551.531865	0.238174
551.746068	0.237995
551.960252	0.238716
552.174418	0.239177
552.388566	0.239254
552.602696	0.239588
552.816807	0.240331
553.030900	0.241057
553.244975	0.241444
553.459032	0.242229
553.673070	0.242885
553.887091	0.243088
554.101093	0.243075
554.315077	0.243631
554.529042	0.244193
554.742990	0.244340
554.956919	0.244369
555.170830	0.244483
555.384722	0.244686
555.598597	0.244097
555.812453	0.244025
556.026291	0.244326
556.240111	0.243541
556.453913	0.243404
556.667696	0.243802
556.881461	0.244353
557.095208	0.244430
557.308937	0.244430
557.522647	0.245057
557.736339	0.245327
557.950013	0.245444
558.163669	0.245728
558.377307	0.246022
558.590926	0.245934
558.804527	0.245802
559.018110	0.245646
559.231675	0.245630
559.445221	0.245938
559.658749	0.246429
559.872259	0.246526
560.085751	0.247000
560.299225	0.247049
560.512680	0.247080
560.726117	0.247094
560.939536	0.247419
561.152937	0.248042
561.366319	0.248169
561.579683	0.248180
561.793029	0.248271
562.006357	0.248470
562.219667	0.248359
562.432958	0.248383
562.646231	0.248582
562.859486	0.248803
563.072723	0.248476
563.285941	0.248121
563.499141	0.248644
563.712323	0.248941
563.925487	0.249038
564.138632	0.249256
564.351760	0.249622
564.564869	0.249866
564.777960	0.250130
564.991032	0.250673
565.204087	0.251963
565.417123	0.251629
565.630141	0.251227
565.843140	0.251379
566.056122	0.251586
566.269085	0.251157
566.482030	0.250852
566.694957	0.250708
566.907866	0.251051
567.120756	0.250512
567.333628	0.250405
567.546482	0.250821
567.759318	0.250899
567.972135	0.251661
568.184935	0.251700
568.397716	0.251716
568.610478	0.251599
568.823223	0.251246
569.035949	0.251485
569.248657	0.251979
569.461347	0.251696
569.674019	0.252090
569.886672	0.251728
570.099308	0.252100
570.311925	0.252610
570.524523	0.252865
570.737104	0.252898
570.949666	0.253026
571.162210	0.252818
571.374736	0.253515
571.587244	0.253573
571.799733	0.253107
572.012205	0.253409
572.224658	0.253560
572.437092	0.253831
572.649509	0.253811
572.861907	0.253942
573.074287	0.254256
573.286649	0.254212
573.498993	0.254244
573.711318	0.255144
573.923625	0.254786
574.135914	0.254557
574.348185	0.255208
574.560438	0.255571
574.772672	0.255177
574.984888	0.255418
575.197086	0.255701
575.409266	0.255479
575.621427	0.255346
575.833570	0.255835
576.045695	0.256129
576.257802	0.255932
576.469890	0.256568
576.681961	0.256982
576.894013	0.256671
577.106046	0.256388
577.318062	0.256642
577.530059	0.256487
577.742039	0.257198
577.954000	0.257235
578.165942	0.257112
578.377867	0.256562
578.589773	0.256665
578.801661	0.257188
579.013531	0.257898
579.225382	0.257783
579.437216	0.258081
579.649031	0.257738
579.860828	0.258073
580.072606	0.257790
580.284367	0.258058
580.496109	0.258359
580.707833	0.258530
580.919539	0.258572
581.131227	0.259457
581.342896	0.259881
581.554547	0.260249
581.766180	0.260396
581.977795	0.261358
582.189391	0.261816
582.400969	0.261828
582.612529	0.261802
582.824071	0.262141
583.035595	0.262044
583.247100	0.261896
583.458587	0.261923
583.670056	0.262043
583.881506	0.262047
584.092939	0.261924
584.304353	0.262097
584.515749	0.262492
584.727127	0.262571
584.938486	0.262838
585.149828	0.262710
585.361151	0.262595
585.572456	0.262788
585.783742	0.262927
585.995011	0.263374
586.206261	0.263661
586.417493	0.264313
586.628706	0.264649
586.839902	0.264750
587.051079	0.264967
587.262238	0.265418
587.473379	0.265475
587.684502	0.265448
587.895606	0.265214
588.106692	0.265479
588.317760	0.265177
588.528810	0.264900
588.739841	0.264768
588.950855	0.265363
589.161850	0.265453
589.372827	0.265453
589.583785	0.265289
589.794726	0.265711
590.005648	0.265710
590.216552	0.265594
590.427437	0.265943
590.638305	0.266297
590.849154	0.266330
591.059985	0.266277
591.270798	0.266652
591.481592	0.267232
591.692369	0.267912
591.903127	0.268272
592.113867	0.268675
592.324588	0.268852
592.535292	0.268996
592.745977	0.269305
592.956644	0.269579
593.167293	0.269469
593.377923	0.269557
593.588536	0.269409
593.799130	0.269589
594.009706	0.269451
594.220263	0.269733
594.430803	0.269926
594.641324	0.269788
594.851827	0.269942
595.062312	0.270402
595.272778	0.270668
595.483227	0.270176
595.693657	0.270405
595.904069	0.270842
596.114462	0.271121
596.324838	0.271368
596.535195	0.271692
596.745534	0.271858
596.955855	0.272212
597.166157	0.272397
597.376441	0.272845
597.586707	0.272883
597.796955	0.273044
598.007185	0.273058
598.217396	0.272950
598.427589	0.273399
598.637764	0.273596
598.847921	0.273753
599.058060	0.273967
599.268180	0.274162
599.478282	0.274147
599.688366	0.274260
599.898431	0.274514
600.108479	0.274737
600.318508	0.275037
600.528519	0.275684
600.738511	0.275362
600.948486	0.275731
601.158442	0.276276
601.368380	0.276572
601.578300	0.276597
601.788202	0.276848
601.998085	0.277140
602.207950	0.277175
602.417797	0.276992
602.627626	0.277709
602.837436	0.277571
603.047228	0.277327
603.257002	0.277347
603.466758	0.277451
603.676496	0.277488
603.886215	0.277723
604.095916	0.277713
604.305599	0.278239
604.515264	0.278351
604.724910	0.278493
604.934538	0.278878
605.144148	0.279219
605.353740	0.279474
605.563314	0.279579
605.772869	0.279724
605.982406	0.279934
606.191925	0.279978
606.401425	0.280075
606.610908	0.280140
606.820372	0.280134
607.029818	0.280201
607.239246	0.280513
607.448655	0.280434
607.658047	0.280423
607.867420	0.280638
608.076775	0.280622
608.286111	0.280872
608.495430	0.281106
608.704730	0.281504
608.914012	0.281551
609.123275	0.281190
609.332521	0.281797
609.541748	0.282306
609.750957	0.281866
609.960148	0.281832
610.169321	0.281859
610.378475	0.282234
610.587611	0.282203
610.796729	0.282613
611.005829	0.283430
611.214910	0.283103
611.423974	0.282855
611.633019	0.283162
611.842045	0.283380
612.051054	0.283815
612.260044	0.283957
612.469017	0.284083
612.677970	0.284092
612.886906	0.283956
613.095824	0.284314
613.304723	0.284740
613.513604	0.285153
613.722467	0.285697
613.931311	0.285374
614.140138	0.285383
614.348946	0.285671
614.557736	0.285881
614.766507	0.286112
614.975261	0.286449
615.183996	0.286427
615.392713	0.286513
615.601412	0.286393
615.810092	0.286904
616.018754	0.286890
616.227399	0.287294
616.436024	0.287494
616.644632	0.287549
616.853222	0.287507
617.061793	0.287809
617.270346	0.287874
617.478880	0.287724
617.687397	0.287775
617.895895	0.288223
618.104375	0.288182
618.312837	0.288137
618.521281	0.288566
618.729706	0.288756
618.938113	0.288824
619.146502	0.288774
619.354873	0.289137
619.563226	0.289284
619.771560	0.288951
619.979876	0.288954
620.188174	0.289119
620.396453	0.289260
620.604715	0.289207
620.812958	0.289520
621.021183	0.289875
621.229390	0.290017
621.437578	0.290549
621.645748	0.290685
621.853900	0.290863
622.062034	0.291283
622.270150	0.290897
622.478247	0.291184
622.686326	0.291141
622.894387	0.291569
623.102430	0.291633
623.310454	0.291479
623.518461	0.292023
623.726449	0.291907
623.934418	0.292054
624.142370	0.292675
624.350303	0.292484
624.558218	0.292906
624.766115	0.292974
624.973994	0.293309
625.181855	0.293247
625.389697	0.293312
625.597521	0.293788
625.805327	0.293849
626.013114	0.293801
626.220883	0.294174
626.428634	0.294001
626.636367	0.294125
626.844082	0.294479
627.051778	0.294434
627.259457	0.294395
627.467117	0.294347
627.674758	0.294352
627.882382	0.294631
628.089987	0.295031
628.297574	0.295136
628.505143	0.295363
628.712694	0.295509
628.920226	0.296097
629.127740	0.296413
629.335236	0.296617
629.542714	0.296762
629.750174	0.297026
629.957615	0.297000
630.165038	0.297374
630.372443	0.297513
630.579829	0.297606
630.787198	0.297650
630.994548	0.297926
631.201880	0.298246
631.409194	0.298661
631.616489	0.298546
631.823766	0.298530
632.031025	0.298627
632.238266	0.299029
632.445489	0.299010
632.652693	0.299128
632.859879	0.299070
633.067047	0.299294
633.274197	0.299201
633.481329	0.299561
633.688442	0.299976
633.895537	0.300061
634.102614	0.299888
634.309672	0.299958
634.516713	0.300225
634.723735	0.300527
634.930739	0.300449
635.137724	0.300857
635.344692	0.300969
635.551641	0.301154
635.758572	0.301275
635.965485	0.301424
636.172379	0.301723
636.379256	0.301724
636.586114	0.301538
636.792954	0.301519
636.999775	0.301162
637.206579	0.300867
637.413364	0.300708
637.620131	0.300809
637.826880	0.300914
638.033610	0.300990
638.240323	0.301085
638.447017	0.301390
638.653692	0.301667
638.860350	0.301841
639.066990	0.302294
639.273611	0.302379
639.480214	0.302695
639.686798	0.302677
639.893365	0.302752
640.099913	0.302667
640.306443	0.302790
640.512955	0.303063
640.719449	0.303444
640.925924	0.303737
641.132381	0.304292
641.338820	0.304029
641.545241	0.304302
641.751644	0.304464
641.958028	0.304867
642.164394	0.305183
642.370742	0.305573
642.577071	0.305729
642.783383	0.305850
642.989676	0.305768
643.195951	0.306553
643.402207	0.306879
643.608446	0.306966
643.814666	0.306974
644.020868	0.307072
644.227052	0.307029
644.433218	0.307173
644.639365	0.307553
644.845494	0.308070
645.051605	0.308033
645.257698	0.308061
645.463772	0.308434
645.669828	0.308719
645.875866	0.309223
646.081886	0.309362
646.287888	0.309767
646.493871	0.309804
646.699836	0.309587
646.905783	0.309534
647.111712	0.309867
647.317622	0.309938
647.523514	0.310187
647.729388	0.309915
647.935244	0.310088
648.141082	0.310020
648.346901	0.310077
648.552702	0.310318
648.758485	0.310434
648.964250	0.310575
649.169996	0.310747
649.375724	0.311203
649.581434	0.311615
649.787126	0.311634
649.992800	0.311946
650.198455	0.312339
650.404092	0.312828
650.609711	0.313338
650.815311	0.313313
651.020894	0.313694
651.226458	0.313624
651.432004	0.313666
651.637532	0.313838
651.843041	0.314043
652.048532	0.314325
652.254006	0.314308
652.459460	0.314415
652.664897	0.314782
652.870315	0.314769
653.075716	0.315021
653.281097	0.315564
653.486461	0.315937
653.691807	0.316141
653.897134	0.315991
654.102443	0.316229
654.307734	0.316668
654.513006	0.317019
654.718261	0.317237
654.923497	0.317504
655.128715	0.317455
655.333915	0.317843
655.539096	0.317839
655.744259	0.318064
655.949404	0.318182
656.154531	0.318239
656.359640	0.318124
656.564730	0.318310
656.769802	0.318324
656.974856	0.318471
657.179892	0.318340
657.384909	0.318446
657.589908	0.318353
657.794889	0.318454
657.999852	0.318508
658.204797	0.318724
658.409723	0.318915
658.614631	0.319133
658.819521	0.319172
659.024393	0.319257
659.229246	0.319559
659.434081	0.319772
659.638898	0.319986
659.843697	0.320034
660.048478	0.320102
660.253240	0.320267
660.457984	0.320049
660.662710	0.320485
660.867417	0.320641
661.072107	0.320680
661.276778	0.320908
661.481431	0.320995
661.686066	0.321056
661.890682	0.321414
662.095281	0.321654
662.299861	0.322395
662.504422	0.322309
662.708966	0.322534
662.913491	0.322976
663.117999	0.323361
663.322488	0.323568
663.526958	0.323962
663.731411	0.324005
663.935845	0.324044
664.140261	0.323811
664.344659	0.324061
664.549038	0.324216
664.753400	0.324167
664.957743	0.324385
665.162068	0.324715
665.366375	0.324953
665.570663	0.325335
665.774933	0.325692
665.979185	0.326059
666.183419	0.326316
666.387635	0.326839
666.591832	0.327304
666.796011	0.327600
667.000172	0.327779
667.204315	0.328059
667.408439	0.328207
667.612545	0.328401
667.816634	0.328770
668.020703	0.328901
668.224755	0.328795
668.428788	0.328981
668.632803	0.328850
668.836800	0.328946
669.040779	0.329314
669.244739	0.329389
669.448681	0.329636
669.652605	0.329933
669.856511	0.330310
670.060399	0.330587
670.264268	0.330577
670.468119	0.330897
670.671952	0.331262
670.875767	0.331411
671.079563	0.331760
671.283341	0.331891
671.487101	0.331684
671.690843	0.331867
671.894567	0.332336
672.098272	0.332941
672.301959	0.333578
672.505628	0.333903
672.709278	0.334104
672.912911	0.334497
673.116525	0.334794
673.320121	0.335534
673.523699	0.335553
673.727258	0.335773
673.930799	0.335694
674.134322	0.335617
674.337827	0.335782
674.541314	0.336208
674.744782	0.336414
674.948232	0.336448
675.151664	0.336541
675.355078	0.336798
675.558474	0.336865
675.761851	0.337031
675.965210	0.337369
676.168551	0.337389
676.371873	0.337093
676.575178	0.337296
676.778464	0.337344
676.981732	0.337484
677.184981	0.337579
677.388213	0.337814
677.591426	0.338306
677.794621	0.338254
677.997798	0.338495
678.200956	0.338755
678.404097	0.338847
678.607219	0.339134
678.810323	0.339531
679.013408	0.340026
679.216476	0.340268
679.419525	0.340391
679.622556	0.340694
679.825569	0.341097
680.028563	0.341398
680.231540	0.341504
680.434498	0.341888
680.637438	0.341744
680.840359	0.342024
681.043263	0.342024
681.246148	0.342359
681.449015	0.342483
681.651864	0.342689
681.854694	0.342958
682.057506	0.343479
682.260301	0.343601
682.463076	0.343899
682.665834	0.343947
682.868573	0.344181
683.071295	0.344205
683.273998	0.344531
683.476682	0.344863
683.679349	0.344898
683.881997	0.344843
684.084627	0.345359
684.287239	0.345681
684.489833	0.346116
684.692408	0.346675
684.894965	0.346631
685.097504	0.346644
685.300025	0.346852
685.502527	0.347354
685.705012	0.347623
685.907478	0.347620
686.109925	0.347565
686.312355	0.347428
686.514766	0.347288
686.717159	0.347629
686.919534	0.347665
687.121891	0.347506
687.324230	0.347445
687.526550	0.347467
687.728852	0.347428
687.931136	0.347422
688.133401	0.347737
688.335649	0.348143
688.537878	0.348296
688.740089	0.348717
688.942281	0.348882
689.144456	0.348847
689.346612	0.349094
689.548750	0.349196
689.750870	0.349469
689.952971	0.349677
690.155055	0.349675
690.357120	0.349600
690.559167	0.349756
690.761195	0.350001
690.963206	0.350502
691.165198	0.350759
691.367172	0.350996
691.569128	0.351255
691.771065	0.351351
691.972984	0.351696
692.174885	0.352405
692.376768	0.352839
692.578633	0.353063
692.780479	0.353136
692.982308	0.353204
693.184118	0.353680
693.385909	0.353957
693.587683	0.354293
