sample name	sample
index	604
start time	 03-16-2021  05:18:05 PM
880	0.449977
Peak Time (s)	180.535
Peak Height 	0.45
calc peak height	180,183
Baseline Time (s)	10.536
Baseline Value 	-0.004621
subtract baseline	10,4
Abs	0.305828
Peak Time (s)	182.036
Peak Height 	0.3058
calc peak height	180,183
Baseline Time (s)	11.539
Baseline Value 	0.004803
subtract baseline	10,3
PK_550	0.174712
Peak Time (s)	182.036
Peak Height 	0.1747
calc peak height	180,183
Baseline Time (s)	11.539
Baseline Value 	7.9792E-4
subtract baseline	10,2
PK_880	0.298295
Peak Time (s)	182.036
Peak Height 	0.2983
calc peak height	180,183
Baseline Time (s)	9.036
Baseline Value 	0.002168
subtract baseline	10,1


Time (s)	A880-A510	A880-A775	A880-A975	A880	I510	I775	I975	I880	
0.035000	-0.001526	-0.002158	-0.001098	-0.000523	5605.530783	33794.585174	3660.551879	18407.721649
0.538500	-0.002153	-0.000345	-0.003584	0.003654	5575.667475	33626.944999	3648.417358	18259.113570
1.036000	0.002579	-0.000143	-0.000050	0.003762	5604.404567	33633.633359	3654.633973	18255.306776
1.536500	-0.003572	-0.001845	-0.007609	0.004556	5561.362592	33457.614602	3639.563594	18227.214602
2.037000	-0.000238	-0.000022	-0.000459	0.000451	5607.487704	33877.226539	3659.935867	18372.920229
2.534000	0.000203	0.000046	-0.000044	0.000389	5610.641248	33886.510621	3660.810860	18375.145743
3.037500	-0.001104	-0.000245	-0.000580	-0.001722	5615.672115	34016.531196	3663.707145	18450.610550
3.537500	0.000131	0.000045	-0.003328	0.000851	5607.296246	33853.546694	3653.963945	18358.678825
4.035000	-0.003877	-0.001074	-0.000972	0.002922	5569.547843	33627.149126	3654.483715	18285.064219
4.535500	0.002503	0.000204	0.001387	0.000003	5627.506773	33925.336217	3664.153808	18388.920564
5.035500	-0.002106	-0.000990	-0.001724	-0.000857	5603.991463	33901.470647	3660.013552	18419.642152
5.535500	-0.000479	0.000102	-0.002347	0.000276	5607.075588	33898.547017	3656.801256	18379.164994
6.036000	-0.000103	-0.000056	-0.003486	0.000371	5608.837444	33880.494611	3654.550883	18375.792024
6.536500	-0.000143	0.000017	-0.012578	0.000161	5609.898836	33900.746661	3638.539461	18383.288360
7.037000	-0.000312	-0.000235	0.000847	-0.000219	5611.217745	33909.777652	3663.566044	18396.834869
7.534500	0.000635	0.000039	-0.003715	0.000536	5612.428450	33875.540199	3653.833671	18369.915294
8.035000	-0.003099	-0.000336	-0.004189	-0.000843	5597.703644	33947.155808	3655.481098	18419.140436
8.535000	-0.000743	-0.000260	-0.002305	-0.000715	5611.630009	33943.426160	3658.689331	18414.571551
9.035500	0.000000	-0.000285	0.004119	-0.000408	5614.359085	33919.726832	3669.967862	18403.590706
9.535500	0.001661	0.000007	-0.000320	0.000152	5621.272217	33900.656554	3660.740387	18383.607361
10.038500	0.000560	-0.000746	0.005929	-0.000176	5616.419517	33870.376277	3672.903223	18395.325573
10.536000	-0.001573	0.000090	0.000661	0.000000	5601.970954	33917.396341	3662.821480	18389.028163
11.036500	0.000946	0.000155	-0.003020	0.000540	5614.348067	33883.531437	3655.092961	18369.768499
11.539000	-0.001318	0.000000	0.000000	0.000186	5602.401153	33897.712178	3661.264959	18382.393849
12.037000	0.001172	0.000465	0.002438	0.000704	5614.734886	33893.936754	3664.798136	18363.907678
12.536500	-0.000731	-0.000218	0.004966	0.000009	5607.173466	33894.764818	3670.767580	18388.706901
13.035000	0.000052	-0.000254	0.003489	-0.000629	5616.077363	33937.786343	3669.208580	18411.507807
13.535000	-0.001307	-0.000150	-0.000192	-0.000169	5604.682341	33912.299509	3661.563463	18395.054636
14.035500	-0.001801	0.000036	0.006385	0.002585	5584.466478	33729.646390	3668.619456	18297.019672
14.537500	-0.001611	-0.000175	-0.008826	0.001939	5589.654711	33760.486076	3642.069041	18319.953236
15.038000	0.000258	-0.000992	-0.005905	-0.001071	5620.140368	33916.613724	3652.773028	18427.303506
15.536000	0.002323	-0.000250	0.001511	-0.000567	5629.966870	33933.600394	3665.432791	18409.279192
16.036500	-0.002809	-0.001224	-0.000630	0.004023	5569.342304	33538.882886	3653.102551	18246.075788
16.536500	0.000645	-0.000245	-0.003145	-0.000196	5617.077143	33907.534392	3656.207640	18396.043809
17.037500	0.000787	0.000214	-0.000764	-0.002838	5634.607460	34129.495576	3665.425269	18490.673039
17.537500	0.000679	-0.000182	0.003128	0.000526	5612.763588	33860.508670	3666.401548	18370.258995
18.035000	-0.000387	-0.000240	0.002671	0.001099	5602.512816	33815.560532	3664.500235	18349.844116
18.535000	0.000304	-0.000467	-0.002000	0.001231	5606.006043	33790.078477	3655.691622	18345.156199
19.035500	-0.003259	-0.000158	0.000103	0.000975	5585.412946	33830.271386	3660.005737	18354.265488
19.539000	-0.000084	-0.000196	0.002351	0.001329	5602.971623	33802.371479	3663.487756	18341.664892
20.038500	-0.001624	-0.000144	-0.000589	0.002358	5586.974846	33732.952474	3656.209292	18305.076442
20.536000	-0.000529	-0.000292	-0.003560	0.000879	5602.999885	33827.496494	3653.491892	18357.672056
21.037000	-0.002680	0.000155	0.005853	0.001050	5588.540798	33847.167821	3670.480419	18351.596342
21.537500	-0.001334	-0.000775	-0.001977	0.000187	5602.295765	33842.440736	3657.640634	18382.365154
22.037000	-0.002520	0.000598	-0.003893	0.002678	5579.436648	33762.907371	3649.623613	18293.718084
22.538000	-0.000422	0.000061	0.000912	0.001681	5598.667603	33795.597132	3660.195227	18329.145095
23.035000	-0.001693	0.000714	-0.002388	0.001862	5589.621509	33829.179722	3653.835324	18322.683773
23.538000	-0.000693	0.000745	0.000976	0.001584	5597.578839	33851.162204	3660.489737	18332.588903
24.036000	0.001079	0.000423	0.003977	0.001892	5606.719106	33806.331493	3665.446011	18321.628482
24.539000	0.001760	0.000060	0.002064	0.001472	5613.608373	33810.396903	3662.694132	18336.561052
25.036000	-0.000854	-0.000273	-0.000142	0.000962	5600.450162	33822.925728	3659.579507	18354.704904
25.542000	-0.000203	-0.000384	-0.002518	0.000856	5605.177562	33822.607745	3655.430317	18358.480835
26.036500	0.001085	0.000124	0.000964	0.001237	5610.853753	33831.629398	3661.104699	18344.923404
26.537000	-0.000528	0.001003	-0.001434	0.001667	5598.087202	33863.610078	3655.928587	18329.629420
27.034500	-0.002566	0.000090	0.000853	0.004375	5568.669459	33606.707835	3655.161266	18233.615068
27.535000	0.001056	-0.000042	0.003392	-0.002818	5636.178994	34109.700212	3673.098186	18489.966687
28.035500	-0.002070	0.000098	-0.005000	0.002448	5583.646890	33743.731879	3648.037193	18301.862114
28.537500	-0.000372	0.000670	0.000361	-0.000408	5612.031305	33988.023081	3663.021331	18403.607974
29.038500	-0.002727	0.000148	-0.000576	0.004671	5565.852535	33589.939978	3652.023506	18223.151160
29.536000	0.000161	-0.000096	0.000685	-0.000443	5615.591382	33935.722437	3663.681979	18404.858545
30.035500	0.000315	-0.000670	0.003259	-0.000541	5617.167363	33901.746589	3668.618406	18408.337158
30.537000	-0.000757	0.000347	-0.001271	0.002733	5590.027350	33741.173529	3654.283639	18291.758993
31.037000	-0.004175	-0.000681	0.002029	0.004042	5560.814948	33575.769417	3657.915693	18245.378518
31.534000	-0.000277	-0.000426	-0.001707	-0.000336	5612.175973	33904.562258	3659.090929	18401.030511
32.034500	-0.002818	-0.000020	-0.000666	0.003557	5572.159672	33656.840221	3653.884538	18262.558104
32.537500	-0.001728	0.000311	0.003942	-0.000014	5601.090347	33934.150282	3668.909474	18389.535653
33.036000	-0.000275	-0.000153	-0.001592	0.003201	5590.116977	33672.595406	3652.849130	18275.181681
33.541000	0.001053	0.001218	0.004878	0.001307	5610.216829	33904.666739	3668.194741	18342.448430
34.036000	-0.000180	0.000286	0.004451	0.001971	5598.362259	33790.965263	3666.176822	18318.815587
34.536500	0.000060	0.000844	0.001920	0.003093	5592.874709	33750.967673	3659.454259	18279.009769
35.036500	-0.000482	0.001055	0.003376	0.004133	5583.050827	33692.162417	3660.216778	18242.183743
35.536500	-0.001126	0.001104	0.000317	0.002635	5588.346968	33801.974631	3657.358139	18295.247444
36.037000	-0.001431	-0.000105	-0.003666	0.002328	5588.362927	33737.912947	3650.668713	18306.148483
36.534500	0.000895	0.000717	0.001430	0.002481	5601.884785	33785.343170	3659.676886	18300.694802
37.035000	-0.000009	-0.000296	-0.002375	0.001541	5602.110582	33780.196368	3654.442918	18334.118598
37.537500	-0.000992	0.001143	0.002905	0.002850	5587.840284	33789.411968	3661.706888	18287.610935
38.035000	-0.001588	0.001201	0.003509	0.002376	5587.087596	33827.271877	3663.691894	18304.438822
38.538500	0.000383	-0.000611	-0.008914	0.001941	5602.063644	33729.474709	3641.908557	18319.899360
39.036000	-0.002836	0.000242	0.004524	0.002165	5580.660100	33774.046031	3665.952027	18311.931423
39.536500	-0.000814	-0.000268	-0.000272	0.001970	5594.419909	33751.714163	3657.498259	18318.869188
40.037000	0.000865	0.000141	-0.002305	0.002454	5601.869320	33746.371821	3652.909154	18301.653744
40.539000	0.000087	0.000512	0.002196	0.002573	5596.276926	33764.267488	3660.913557	18297.429614
41.037000	-0.001072	-0.000162	0.001166	0.003208	5585.129638	33671.491309	3657.862813	18274.929693
41.537500	-0.001213	-0.000252	0.000884	0.001886	5592.462099	33758.842437	3659.767791	18321.848644
42.035500	-0.001520	0.000347	-0.005444	0.002247	5588.308627	33775.690440	3647.598413	18309.002383
42.540500	0.001063	0.001144	-0.002207	0.003109	5599.016970	33771.075599	3651.897501	18278.431257
43.037500	-0.001717	0.000156	-0.004991	0.003035	5582.202533	33706.264166	3646.995484	18281.061299
43.538000	-0.001242	-0.000307	0.006079	-0.002266	5618.223172	34051.066893	3677.088028	18470.129236
44.036500	-0.002367	0.000137	-0.008025	0.006138	5559.044495	33485.724898	3636.002685	18171.429713
44.538500	0.000332	0.001045	-0.000374	0.000721	5609.368535	33934.096760	3659.598218	18363.320413
45.040000	-0.001859	-0.001496	-0.006679	0.005175	5568.100274	33438.655468	3640.119943	18205.384096
45.537000	0.003219	0.000432	0.001052	0.000875	5626.527992	33879.396739	3661.932217	18357.831362
46.095500	-0.002442	-0.000630	-0.002212	0.005164	5564.569941	33500.298807	3648.166348	18205.741484
46.535000	-0.000319	0.000530	0.002699	0.000505	5606.643511	33912.715197	3665.647739	18371.001144
47.035000	-0.002871	0.000200	-0.002668	0.004410	5566.574047	33612.064973	3648.706550	18232.390030
47.535500	-0.001531	-0.000523	-0.003587	0.002461	5586.912987	33698.826497	3650.571558	18301.428442
48.036000	-0.002366	0.000755	-0.003310	0.006376	5557.592331	33512.537335	3644.006106	18163.064382
48.540500	0.000653	-0.000306	0.004163	-0.000343	5618.053948	33913.641773	3669.929699	18401.286562
49.036500	-0.004033	-0.000002	0.000977	0.005617	5552.024394	33512.700721	3653.126977	18189.799891
49.536500	0.004672	0.001773	0.002093	-0.002278	5655.691182	34201.359990	3669.677707	18470.568050
50.037000	-0.000654	-0.001026	0.002905	0.018231	5496.037009	32566.977893	3633.936086	17751.619930
50.537000	0.022844	0.009951	0.008371	-0.022464	5910.952736	36312.267092	3720.323974	19212.141439
51.037500	-0.006551	-0.007340	-0.018031	0.093467	5052.187050	27492.226470	3480.921148	15386.762700
51.535000	-0.031372	-0.022969	-0.015717	-0.137518	6365.024464	43263.117240	3919.943488	24164.906129
52.035500	-0.033005	-0.031115	-0.019914	-0.259169	7470.752319	55311.816633	4247.987347	31044.546948
52.538000	-0.014707	-0.059383	-0.007134	-0.351124	8794.199803	63585.925109	4625.535994	37685.298531
53.036000	-0.011276	-0.074982	-0.004695	-0.377845	9218.577347	65159.477887	4747.900058	39893.757312
53.539500	0.000218	-0.047276	0.005102	-0.336171	8793.821136	63189.749229	4614.549873	36507.485681
54.036500	-0.005674	-0.019258	0.003822	-0.252701	7696.103280	55965.889264	4304.138509	30628.256783
54.539000	-0.008963	-0.010786	-0.004255	-0.219210	7305.943708	52996.574628	4172.651611	28569.113633
55.037000	0.000509	-0.004282	-0.002201	-0.214313	7352.695616	53182.289659	4164.112721	28281.137771
55.537000	0.011469	0.002596	0.006167	-0.202303	7341.921065	52591.865385	4153.249300	27588.414087
56.034500	0.015721	0.005664	0.010126	-0.188152	7241.628479	51340.362705	4123.337741	26796.449243
56.535500	0.025578	0.009271	0.016473	-0.175062	7209.358188	50294.665148	4103.930404	26086.447250
57.034500	0.027630	0.014346	0.022675	-0.140715	6899.916265	47207.169146	4026.100789	24322.152010
57.535500	0.038428	0.016736	0.032036	-0.121542	6823.353273	45528.492822	4000.132113	23396.294383
58.036000	0.046295	0.025694	0.038665	-0.098961	6692.354026	44212.742806	3959.141135	22356.994641
58.536000	0.050847	0.023771	0.043268	-0.067752	6466.067960	41180.086461	3894.043341	21006.762492
59.036500	0.054397	0.028180	0.054205	-0.034779	6231.909201	38744.993028	3843.064607	19681.770847
59.540500	0.059273	0.031650	0.060458	-0.004533	6042.349475	36603.229668	3790.420940	18551.721074
60.037000	0.067783	0.037108	0.062300	-0.007995	6130.416236	37302.014449	3801.808038	18677.087022
60.537500	0.074388	0.040251	0.070833	0.006272	6073.780810	36432.709369	3789.505219	18166.725046
61.035000	0.073245	0.041820	0.080514	0.026883	5918.288261	34995.280409	3766.492939	17458.366053
61.535000	0.082307	0.051742	0.075864	0.032495	5942.433430	35315.104844	3745.408481	17271.233688
62.040000	0.081738	0.055213	0.084317	0.039759	5887.894899	35033.443506	3747.826930	17032.613573
62.535500	0.081790	0.056214	0.080685	0.040703	5881.748784	35037.685267	3738.559329	17001.900379
63.036000	0.086012	0.058021	0.087951	0.044710	5883.232124	34875.395709	3745.148382	16872.238492
63.540000	0.092539	0.060999	0.089376	0.053746	5865.993960	34432.816725	3729.834031	16584.191517
64.040000	0.093530	0.062529	0.088512	0.065701	5791.833109	33685.450638	3704.640354	16212.201719
64.536500	0.096147	0.063406	0.094762	0.070943	5774.360452	33377.855337	3706.596044	16052.312865
65.037000	0.096423	0.064783	0.101997	0.082917	5697.732884	32643.740542	3697.445652	15694.195169
65.535000	0.100591	0.065831	0.098899	0.085059	5710.862538	32569.048227	3687.446414	15631.189188
66.035000	0.101747	0.067061	0.104082	0.095339	5652.241089	31957.586632	3677.832748	15332.974295
66.538000	0.105204	0.068641	0.106191	0.098939	5651.331825	31822.906465	3675.044427	15230.223054
67.035500	0.106533	0.070526	0.112774	0.108463	5599.740409	31319.023622	3669.566885	14962.405959
67.536000	0.110749	0.071925	0.115835	0.112062	5603.591205	31175.584743	3668.569191	14862.743484
68.036000	0.110680	0.072277	0.109337	0.119805	5555.238117	30698.858723	3642.601584	14651.067820
68.536000	0.114892	0.073891	0.117189	0.123816	5556.474416	30545.979665	3649.522861	14542.886544
69.036500	0.110926	0.074634	0.115741	0.133275	5475.343069	29997.136763	3630.029644	14291.692724
69.540000	0.119945	0.075495	0.119146	0.134326	5523.193278	29985.338076	3634.195514	14264.133727
70.037500	0.115538	0.075803	0.122612	0.138788	5469.992184	29727.734443	3632.431258	14147.811247
70.537500	0.120952	0.076738	0.113151	0.143570	5473.746781	29491.385077	3607.625785	14024.468638
71.035000	0.118588	0.076469	0.120468	0.149934	5422.364659	29088.698431	3609.260526	13862.411757
71.535500	0.124928	0.077907	0.127749	0.152069	5446.990573	29046.688425	3618.147874	13808.566047
72.036000	0.127386	0.079178	0.126643	0.160733	5410.733366	28605.843937	3601.363709	13592.796230
72.536000	0.128297	0.080283	0.135556	0.161525	5411.419057	28624.273653	3615.288254	13573.268004
73.036500	0.131114	0.080751	0.133010	0.168384	5388.075440	28248.899820	3599.186287	13405.781776
73.536000	0.131135	0.081753	0.130593	0.170296	5377.225443	28195.880243	3591.889043	13359.560125
74.036500	0.136644	0.083560	0.142857	0.175202	5380.682157	28016.180253	3604.332946	13241.890604
74.537000	0.137644	0.085756	0.146401	0.181121	5352.645035	27802.018924	3600.294424	13101.681430
75.035000	0.136761	0.085666	0.143543	0.188027	5308.894493	27404.515812	3583.917622	12940.501091
75.535500	0.139221	0.087235	0.145640	0.188949	5317.468391	27440.945621	3585.868217	12919.155941
76.040500	0.141824	0.087322	0.147727	0.195467	5295.699966	27080.631570	3578.537390	12769.678806
76.535500	0.145831	0.088834	0.151024	0.197108	5308.835005	27073.453308	3581.267545	12732.393384
77.036000	0.147858	0.090475	0.157704	0.203399	5285.213220	26816.261373	3581.910910	12590.770568
77.536500	0.150808	0.089883	0.153621	0.204216	5296.999902	26738.871071	3573.851285	12572.518155
78.036500	0.148622	0.091420	0.156537	0.212626	5239.016811	26364.996607	3564.925308	12386.726181
78.536500	0.154182	0.093336	0.159863	0.213659	5263.614858	26412.693819	3568.637389	12364.139450
79.037000	0.155267	0.093482	0.166150	0.216261	5255.347688	26280.245889	3574.645132	12307.519224
79.537000	0.160934	0.095684	0.166524	0.220987	5260.474309	26144.898151	3567.554953	12205.527516
80.034000	0.160160	0.097523	0.166278	0.229486	5210.422361	25791.483399	3553.522511	12024.875752
80.535000	0.161324	0.097685	0.165719	0.229459	5216.791605	25801.463873	3552.677195	12025.449086
81.035500	0.163018	0.096331	0.173576	0.233963	5201.789865	25494.950129	3558.017319	11931.127309
81.535500	0.164906	0.098154	0.164911	0.236197	5199.952611	25473.599951	3540.808731	11884.707966
82.036000	0.168182	0.100240	0.178001	0.241218	5190.696333	25321.731916	3553.508018	11781.260235
82.536500	0.170932	0.100760	0.179147	0.244823	5186.174224	25163.192734	3549.612989	11707.703233
83.036500	0.170395	0.101568	0.176709	0.250266	5154.788642	24927.079246	3537.275846	11597.801344
83.536500	0.174565	0.104114	0.189489	0.253268	5160.888461	24904.048350	3552.615139	11537.785679
84.036500	0.177073	0.104602	0.183359	0.256689	5156.121286	24756.080050	3537.628814	11469.883235
84.537500	0.176418	0.103873	0.187697	0.258736	5142.073574	24616.956687	3541.193562	11429.508383
85.034500	0.178759	0.106009	0.189142	0.264731	5123.213726	24425.061364	3534.131097	11312.354715
85.537500	0.178853	0.105497	0.196854	0.265443	5120.042049	24364.538309	3545.026449	11298.548160
86.035500	0.183897	0.107180	0.186616	0.271789	5113.371513	24135.598853	3519.497379	11176.493095
86.535500	0.186565	0.109035	0.189285	0.273100	5120.323232	24162.182552	3521.550447	11151.493774
87.036000	0.187034	0.108170	0.194809	0.275689	5109.469035	23993.987252	3526.013771	11102.367027
87.536500	0.190068	0.110419	0.200400	0.278738	5109.394281	23955.158195	3529.900227	11044.861982
88.036500	0.191164	0.110665	0.197255	0.283950	5088.470888	23716.109707	3517.203282	10947.518995
88.537000	0.194862	0.112570	0.209051	0.284559	5104.154317	23778.205301	3534.256568	10936.213551
89.037500	0.193138	0.113810	0.204030	0.288498	5075.487730	23649.038149	3520.562756	10863.518509
89.535000	0.196679	0.113317	0.204930	0.288456	5093.577400	23627.492725	3521.989071	10864.278888
90.035500	0.199233	0.113374	0.192319	0.293677	5080.097539	23382.795191	3495.504465	10768.918065
90.535500	0.199286	0.116050	0.207954	0.294201	5077.725686	23484.407371	3517.877287	10759.419532
91.035500	0.203370	0.117908	0.207592	0.297863	5079.854400	23399.203060	3511.843844	10693.290432
91.536000	0.201672	0.117085	0.213754	0.297034	5075.475032	23399.463566	3522.362180	10708.203626
92.036000	0.204565	0.118900	0.215159	0.300240	5073.900336	23334.002598	3519.635088	10650.657429
92.536500	0.207630	0.119269	0.222026	0.302167	5079.628356	23260.930961	3527.140912	10616.278370
93.037000	0.208423	0.119893	0.215870	0.304415	5072.310668	23185.021406	3514.425255	10576.359813
93.537000	0.209667	0.120899	0.221133	0.305284	5074.196638	23191.388835	3521.042848	10560.979677
94.037500	0.208995	0.121679	0.210701	0.306776	5063.344368	23158.224296	3503.237630	10534.655157
94.534500	0.212440	0.122604	0.220579	0.308928	5069.820185	23101.088608	3514.717063	10496.831205
95.038000	0.215022	0.122618	0.225142	0.309984	5077.491638	23052.764713	3519.996853	10478.348793
95.535500	0.214646	0.123384	0.219929	0.311364	5068.666399	23024.308454	3510.107680	10454.254302
96.036000	0.216063	0.124533	0.223789	0.313006	5067.540727	23001.506642	3513.418921	10425.688443
96.536000	0.216629	0.126760	0.226184	0.315781	5056.498382	22976.239188	3512.850539	10377.657743
97.036000	0.217963	0.126878	0.227690	0.318029	5051.944800	22878.075091	3511.741663	10338.961000
