sample name	sample
index	581
start time	 03-16-2021  03:47:05 PM


Wavelength (nm)	Absorbance
494.344910	0.035829
494.563924	0.035829
494.782919	0.035829
495.001897	0.279896
495.220856	-0.061954
495.439797	-0.084261
495.658719	-0.045259
495.877624	-0.075636
496.096510	-0.066619
496.315378	-0.043405
496.534227	0.007007
496.753059	0.009408
496.971872	-0.003226
497.190667	0.093078
497.409444	0.111287
497.628203	0.108906
497.846943	0.114052
498.065665	0.114836
498.284369	0.116574
498.503055	0.118141
498.721723	0.118112
498.940372	0.120407
499.159003	0.117994
499.377616	0.118753
499.596210	0.119442
499.814787	0.118185
500.033345	0.118393
500.251885	0.118082
500.470406	0.117248
500.688910	0.117590
500.907395	0.116121
501.125862	0.118472
501.344311	0.117895
501.562742	0.117085
501.781154	0.119129
501.999548	0.118187
502.217924	0.117540
502.436282	0.119153
502.654621	0.119533
502.872942	0.119667
503.091245	0.119869
503.309530	0.119873
503.527797	0.120560
503.746045	0.119475
503.964275	0.119861
504.182487	0.119745
504.400681	0.119502
504.618856	0.118921
504.837013	0.119483
505.055152	0.119779
505.273273	0.120913
505.491376	0.121032
505.709460	0.121139
505.927526	0.121295
506.145574	0.122417
506.363604	0.121740
506.581615	0.123057
506.799608	0.123056
507.017583	0.123052
507.235540	0.123113
507.453478	0.123988
507.671399	0.125360
507.889301	0.125840
508.107185	0.125059
508.325050	0.126530
508.542898	0.126468
508.760727	0.127046
508.978538	0.127455
509.196330	0.126168
509.414105	0.125106
509.631861	0.124916
509.849599	0.124682
510.067319	0.124810
510.285021	0.123767
510.502704	0.123366
510.720369	0.123575
510.938016	0.123945
511.155645	0.124337
511.373255	0.125026
511.590848	0.124349
511.808422	0.124488
512.025977	0.125841
512.243515	0.126251
512.461034	0.127528
512.678536	0.127592
512.896018	0.127567
513.113483	0.127617
513.330930	0.128471
513.548358	0.129341
513.765768	0.129484
513.983160	0.128699
514.200533	0.130041
514.417889	0.129212
514.635226	0.129759
514.852545	0.129585
515.069845	0.130374
515.287128	0.130366
515.504392	0.130726
515.721638	0.131089
515.938866	0.131696
516.156075	0.130623
516.373267	0.132007
516.590440	0.131532
516.807594	0.131186
517.024731	0.130739
517.241850	0.130789
517.458950	0.130758
517.676032	0.130449
517.893095	0.129825
518.110141	0.129985
518.327168	0.128967
518.544177	0.128509
518.761168	0.129507
518.978141	0.130128
519.195095	0.130114
519.412031	0.130041
519.628949	0.131317
519.845849	0.131705
520.062731	0.132284
520.279594	0.133251
520.496439	0.134381
520.713266	0.134188
520.930074	0.134039
521.146865	0.135253
521.363637	0.135721
521.580391	0.134539
521.797127	0.135125
522.013844	0.135224
522.230543	0.134980
522.447224	0.134000
522.663887	0.133530
522.880532	0.135432
523.097158	0.134489
523.313766	0.135336
523.530356	0.136714
523.746928	0.137364
523.963481	0.137363
524.180017	0.138205
524.396534	0.139524
524.613032	0.140857
524.829513	0.140408
525.045975	0.141761
525.262420	0.141454
525.478845	0.141175
525.695253	0.141319
525.911643	0.141556
526.128014	0.142210
526.344367	0.142156
526.560702	0.142457
526.777018	0.142673
526.993316	0.142307
527.209597	0.142019
527.425858	0.143306
527.642102	0.143963
527.858328	0.144544
528.074535	0.143554
528.290724	0.144457
528.506894	0.144505
528.723047	0.144824
528.939181	0.144846
529.155297	0.145689
529.371395	0.146069
529.587475	0.146699
529.803536	0.147013
530.019579	0.148310
530.235604	0.148444
530.451611	0.148794
530.667600	0.149443
530.883570	0.150395
531.099522	0.150676
531.315456	0.150397
531.531372	0.149879
531.747269	0.149863
531.963148	0.150651
532.179009	0.150876
532.394852	0.151383
532.610676	0.150943
532.826482	0.151655
533.042271	0.152394
533.258040	0.152868
533.473792	0.152497
533.689525	0.152266
533.905240	0.151849
534.120937	0.152654
534.336616	0.152559
534.552277	0.152889
534.767919	0.152006
534.983543	0.152417
535.199149	0.152536
535.414736	0.153589
535.630306	0.154418
535.845857	0.154811
536.061390	0.155196
536.276904	0.156053
536.492401	0.156066
536.707879	0.156880
536.923339	0.156542
537.138781	0.156329
537.354204	0.157049
537.569610	0.157370
537.784997	0.157456
538.000366	0.157686
538.215716	0.157598
538.431049	0.158543
538.646363	0.158620
538.861659	0.158362
539.076937	0.158710
539.292196	0.158155
539.507438	0.159246
539.722661	0.159696
539.937866	0.159681
540.153052	0.159978
540.368221	0.159950
540.583371	0.160328
540.798503	0.161353
541.013617	0.162374
541.228712	0.162604
541.443789	0.162496
541.658848	0.162946
541.873889	0.163414
542.088912	0.163067
542.303916	0.163947
542.518902	0.163878
542.733870	0.164484
542.948820	0.164514
543.163752	0.164955
543.378665	0.164889
543.593560	0.165156
543.808437	0.165010
544.023295	0.166011
544.238136	0.165994
544.452958	0.166740
544.667762	0.167022
544.882548	0.167264
545.097315	0.168028
545.312064	0.168316
545.526795	0.168797
545.741508	0.169026
545.956203	0.169087
546.170879	0.169462
546.385537	0.169033
546.600177	0.168800
546.814799	0.168852
547.029402	0.169041
547.243988	0.169689
547.458555	0.169973
547.673103	0.170742
547.887634	0.171130
548.102146	0.171040
548.316640	0.171851
548.531116	0.171940
548.745574	0.172311
548.960013	0.172493
549.174435	0.172616
549.388838	0.172556
549.603222	0.172859
549.817589	0.173053
550.031937	0.173687
550.246267	0.173655
550.460579	0.174252
550.674873	0.174514
550.889148	0.174692
551.103405	0.174563
551.317644	0.174657
551.531865	0.174354
551.746068	0.174363
551.960252	0.174558
552.174418	0.174753
552.388566	0.175062
552.602696	0.175326
552.816807	0.175357
553.030900	0.175846
553.244975	0.176066
553.459032	0.176813
553.673070	0.177359
553.887091	0.177327
554.101093	0.177758
554.315077	0.177799
554.529042	0.178311
554.742990	0.178824
554.956919	0.178649
555.170830	0.178927
555.384722	0.178831
555.598597	0.178680
555.812453	0.178884
556.026291	0.179440
556.240111	0.179664
556.453913	0.179709
556.667696	0.179689
556.881461	0.180683
557.095208	0.181131
557.308937	0.180926
557.522647	0.181770
557.736339	0.182468
557.950013	0.183003
558.163669	0.183013
558.377307	0.183668
558.590926	0.183889
558.804527	0.183930
559.018110	0.183694
559.231675	0.184503
559.445221	0.184488
559.658749	0.184288
559.872259	0.184094
560.085751	0.184236
560.299225	0.183624
560.512680	0.184317
560.726117	0.184158
560.939536	0.184951
561.152937	0.184955
561.366319	0.185132
561.579683	0.185390
561.793029	0.185099
562.006357	0.185355
562.219667	0.185905
562.432958	0.185738
562.646231	0.185960
562.859486	0.185560
563.072723	0.185182
563.285941	0.185583
563.499141	0.185616
563.712323	0.186251
563.925487	0.186521
564.138632	0.186515
564.351760	0.186451
564.564869	0.186617
564.777960	0.186926
564.991032	0.187504
565.204087	0.187091
565.417123	0.187230
565.630141	0.187743
565.843140	0.187533
566.056122	0.187479
566.269085	0.187465
566.482030	0.187412
566.694957	0.187725
566.907866	0.187761
567.120756	0.187881
567.333628	0.187653
567.546482	0.187437
567.759318	0.188185
567.972135	0.188831
568.184935	0.189219
568.397716	0.188999
568.610478	0.189000
568.823223	0.189232
569.035949	0.189330
569.248657	0.189898
569.461347	0.189758
569.674019	0.189887
569.886672	0.189463
570.099308	0.189155
570.311925	0.189620
570.524523	0.189596
570.737104	0.189875
570.949666	0.189973
571.162210	0.190019
571.374736	0.190281
571.587244	0.190017
571.799733	0.190572
572.012205	0.191420
572.224658	0.191942
572.437092	0.192068
572.649509	0.191753
572.861907	0.192182
573.074287	0.192454
573.286649	0.192626
573.498993	0.193192
573.711318	0.193065
573.923625	0.192871
574.135914	0.193038
574.348185	0.193266
574.560438	0.193987
574.772672	0.193812
574.984888	0.193613
575.197086	0.193778
575.409266	0.193730
575.621427	0.193998
575.833570	0.194395
576.045695	0.194259
576.257802	0.194688
576.469890	0.194905
576.681961	0.195614
576.894013	0.196027
577.106046	0.196111
577.318062	0.195988
577.530059	0.196037
577.742039	0.195693
577.954000	0.195645
578.165942	0.195637
578.377867	0.195351
578.589773	0.194806
578.801661	0.194683
579.013531	0.194572
579.225382	0.194749
579.437216	0.195265
579.649031	0.195794
579.860828	0.196042
580.072606	0.196003
580.284367	0.196380
580.496109	0.196680
580.707833	0.196677
580.919539	0.196687
581.131227	0.197161
581.342896	0.197015
581.554547	0.197230
581.766180	0.197727
581.977795	0.197877
582.189391	0.198031
582.400969	0.198103
582.612529	0.198586
582.824071	0.199051
583.035595	0.199034
583.247100	0.199200
583.458587	0.198547
583.670056	0.198442
583.881506	0.198578
584.092939	0.198624
584.304353	0.199070
584.515749	0.199223
584.727127	0.199358
584.938486	0.199354
585.149828	0.199360
585.361151	0.200046
585.572456	0.200042
585.783742	0.200221
585.995011	0.200195
586.206261	0.200446
586.417493	0.200558
586.628706	0.200738
586.839902	0.201191
587.051079	0.201294
587.262238	0.201580
587.473379	0.202155
587.684502	0.202211
587.895606	0.202070
588.106692	0.202417
588.317760	0.202370
588.528810	0.202579
588.739841	0.202252
588.950855	0.202504
589.161850	0.202709
589.372827	0.202724
589.583785	0.202904
589.794726	0.203196
590.005648	0.202777
590.216552	0.203351
590.427437	0.203541
590.638305	0.203686
590.849154	0.203565
591.059985	0.203623
591.270798	0.203452
591.481592	0.203758
591.692369	0.203982
591.903127	0.204389
592.113867	0.204588
592.324588	0.204872
592.535292	0.205031
592.745977	0.205451
592.956644	0.205705
593.167293	0.206133
593.377923	0.206070
593.588536	0.206418
593.799130	0.206630
594.009706	0.206214
594.220263	0.206133
594.430803	0.206522
594.641324	0.206542
594.851827	0.205885
595.062312	0.206165
595.272778	0.206495
595.483227	0.206734
595.693657	0.206811
595.904069	0.207275
596.114462	0.207720
596.324838	0.208064
596.535195	0.208430
596.745534	0.209512
596.955855	0.209004
597.166157	0.209247
597.376441	0.209285
597.586707	0.209515
597.796955	0.209446
598.007185	0.209145
598.217396	0.209319
598.427589	0.209414
598.637764	0.208994
598.847921	0.209891
599.058060	0.209421
599.268180	0.209645
599.478282	0.209991
599.688366	0.210256
599.898431	0.210223
600.108479	0.210617
600.318508	0.210357
600.528519	0.210981
600.738511	0.211212
600.948486	0.211495
601.158442	0.211588
601.368380	0.211161
601.578300	0.211397
601.788202	0.211764
601.998085	0.211318
602.207950	0.211467
602.417797	0.211490
602.627626	0.211029
602.837436	0.211573
603.047228	0.211641
603.257002	0.211905
603.466758	0.212230
603.676496	0.212562
603.886215	0.212989
604.095916	0.213773
604.305599	0.214072
604.515264	0.214655
604.724910	0.214698
604.934538	0.214896
605.144148	0.215425
605.353740	0.215463
605.563314	0.215196
605.772869	0.215434
605.982406	0.215135
606.191925	0.215211
606.401425	0.215201
606.610908	0.215543
606.820372	0.215697
607.029818	0.215425
607.239246	0.215647
607.448655	0.216375
607.658047	0.216330
607.867420	0.216911
608.076775	0.216986
608.286111	0.217313
608.495430	0.217093
608.704730	0.217269
608.914012	0.217593
609.123275	0.217489
609.332521	0.217314
609.541748	0.217237
609.750957	0.217193
609.960148	0.217165
610.169321	0.217222
610.378475	0.217889
610.587611	0.217988
610.796729	0.217822
611.005829	0.218086
611.214910	0.217902
611.423974	0.218265
611.633019	0.218568
611.842045	0.218770
612.051054	0.218830
612.260044	0.218729
612.469017	0.218979
612.677970	0.219650
612.886906	0.219893
613.095824	0.220129
613.304723	0.220411
613.513604	0.220157
613.722467	0.220325
613.931311	0.220262
614.140138	0.220498
614.348946	0.220454
614.557736	0.220494
614.766507	0.220593
614.975261	0.220917
615.183996	0.220974
615.392713	0.221388
615.601412	0.221559
615.810092	0.221831
616.018754	0.221977
616.227399	0.222086
616.436024	0.222292
616.644632	0.222298
616.853222	0.222457
617.061793	0.222637
617.270346	0.222369
617.478880	0.222345
617.687397	0.222644
617.895895	0.222585
618.104375	0.222949
618.312837	0.223062
618.521281	0.222919
618.729706	0.223039
618.938113	0.222780
619.146502	0.223049
619.354873	0.223170
619.563226	0.223079
619.771560	0.223146
619.979876	0.223531
620.188174	0.223889
620.396453	0.224383
620.604715	0.224865
620.812958	0.225097
621.021183	0.225329
621.229390	0.225640
621.437578	0.225944
621.645748	0.226115
621.853900	0.225859
622.062034	0.225581
622.270150	0.225840
622.478247	0.225570
622.686326	0.226002
622.894387	0.226011
623.102430	0.226438
623.310454	0.226784
623.518461	0.227363
623.726449	0.227501
623.934418	0.227861
624.142370	0.227755
624.350303	0.227854
624.558218	0.227952
624.766115	0.228276
624.973994	0.228264
625.181855	0.227973
625.389697	0.227707
625.597521	0.227765
625.805327	0.227847
626.013114	0.227885
626.220883	0.227988
626.428634	0.227987
626.636367	0.228222
626.844082	0.228513
627.051778	0.228866
627.259457	0.228877
627.467117	0.229081
627.674758	0.229160
627.882382	0.229512
628.089987	0.230130
628.297574	0.230338
628.505143	0.230361
628.712694	0.230373
628.920226	0.230496
629.127740	0.230707
629.335236	0.230687
629.542714	0.230717
629.750174	0.230688
629.957615	0.230463
630.165038	0.230735
630.372443	0.231114
630.579829	0.230926
630.787198	0.231122
630.994548	0.231060
631.201880	0.231404
631.409194	0.231558
631.616489	0.231919
631.823766	0.231985
632.031025	0.232371
632.238266	0.232558
632.445489	0.232768
632.652693	0.232896
632.859879	0.233382
633.067047	0.233675
633.274197	0.233946
633.481329	0.234083
633.688442	0.234706
633.895537	0.234577
634.102614	0.234614
634.309672	0.234965
634.516713	0.234847
634.723735	0.234880
634.930739	0.235118
635.137724	0.235193
635.344692	0.235565
635.551641	0.235392
635.758572	0.235289
635.965485	0.235191
636.172379	0.235375
636.379256	0.235571
636.586114	0.235887
636.792954	0.236146
636.999775	0.236419
637.206579	0.236141
637.413364	0.236330
637.620131	0.236862
637.826880	0.237298
638.033610	0.237132
638.240323	0.237765
638.447017	0.238101
638.653692	0.237759
638.860350	0.237974
639.066990	0.238306
639.273611	0.238579
639.480214	0.238928
639.686798	0.238621
639.893365	0.239105
640.099913	0.239066
640.306443	0.238879
640.512955	0.238901
640.719449	0.239178
640.925924	0.239490
641.132381	0.239589
641.338820	0.239364
641.545241	0.239806
641.751644	0.240168
641.958028	0.240329
642.164394	0.240762
642.370742	0.241329
642.577071	0.241085
642.783383	0.241177
642.989676	0.241427
643.195951	0.241862
643.402207	0.242200
643.608446	0.242015
643.814666	0.242374
644.020868	0.242471
644.227052	0.242946
644.433218	0.243512
644.639365	0.243657
644.845494	0.244000
645.051605	0.244110
645.257698	0.244218
645.463772	0.244537
645.669828	0.244495
645.875866	0.244780
646.081886	0.244392
646.287888	0.244584
646.493871	0.244854
646.699836	0.244562
646.905783	0.244610
647.111712	0.244736
647.317622	0.244846
647.523514	0.244959
647.729388	0.244939
647.935244	0.245425
648.141082	0.245257
648.346901	0.245429
648.552702	0.245997
648.758485	0.246133
648.964250	0.246253
649.169996	0.246444
649.375724	0.246568
649.581434	0.246807
649.787126	0.246833
649.992800	0.247304
650.198455	0.247337
650.404092	0.247488
650.609711	0.247981
650.815311	0.248375
651.020894	0.248702
651.226458	0.249193
651.432004	0.249530
651.637532	0.249970
651.843041	0.250039
652.048532	0.250223
652.254006	0.250217
652.459460	0.250274
652.664897	0.250370
652.870315	0.250368
653.075716	0.250646
653.281097	0.250297
653.486461	0.250720
653.691807	0.250891
653.897134	0.251442
654.102443	0.251549
654.307734	0.251724
654.513006	0.251821
654.718261	0.252165
654.923497	0.251983
655.128715	0.252412
655.333915	0.252364
655.539096	0.252469
655.744259	0.252313
655.949404	0.252532
656.154531	0.252733
656.359640	0.253005
656.564730	0.253081
656.769802	0.253191
656.974856	0.253380
657.179892	0.253611
657.384909	0.253797
657.589908	0.253915
657.794889	0.254226
657.999852	0.254194
658.204797	0.254413
658.409723	0.254846
658.614631	0.255571
658.819521	0.256076
659.024393	0.256175
659.229246	0.256527
659.434081	0.256698
659.638898	0.256991
659.843697	0.257320
660.048478	0.257516
660.253240	0.257580
660.457984	0.257520
660.662710	0.257505
660.867417	0.257578
661.072107	0.257580
661.276778	0.258065
661.481431	0.257810
661.686066	0.257808
661.890682	0.258217
662.095281	0.258509
662.299861	0.258556
662.504422	0.258945
662.708966	0.259148
662.913491	0.259325
663.117999	0.259647
663.322488	0.260258
663.526958	0.260651
663.731411	0.260683
663.935845	0.260991
664.140261	0.261544
664.344659	0.261523
664.549038	0.261926
664.753400	0.262331
664.957743	0.262229
665.162068	0.262397
665.366375	0.262592
665.570663	0.262869
665.774933	0.262935
665.979185	0.262851
666.183419	0.263230
666.387635	0.263435
666.591832	0.263404
666.796011	0.263708
667.000172	0.263836
667.204315	0.264398
667.408439	0.264386
667.612545	0.264612
667.816634	0.264928
668.020703	0.264929
668.224755	0.265174
668.428788	0.265631
668.632803	0.265838
668.836800	0.265951
669.040779	0.265773
669.244739	0.265832
669.448681	0.266131
669.652605	0.266523
669.856511	0.266724
670.060399	0.266939
670.264268	0.266990
670.468119	0.267213
670.671952	0.267708
670.875767	0.267977
671.079563	0.268226
671.283341	0.268173
671.487101	0.268073
671.690843	0.268414
671.894567	0.268455
672.098272	0.268785
672.301959	0.269129
672.505628	0.269510
672.709278	0.269656
672.912911	0.270229
673.116525	0.270510
673.320121	0.270723
673.523699	0.270974
673.727258	0.271292
673.930799	0.271288
674.134322	0.271366
674.337827	0.271209
674.541314	0.271383
674.744782	0.271464
674.948232	0.271609
675.151664	0.271876
675.355078	0.272143
675.558474	0.272546
675.761851	0.273115
675.965210	0.273376
676.168551	0.273816
676.371873	0.274561
676.575178	0.274876
676.778464	0.275329
676.981732	0.275613
677.184981	0.275795
677.388213	0.275923
677.591426	0.276415
677.794621	0.276762
677.997798	0.276682
678.200956	0.276497
678.404097	0.276815
678.607219	0.277018
678.810323	0.277337
679.013408	0.277667
679.216476	0.277636
679.419525	0.277300
679.622556	0.277344
679.825569	0.277993
680.028563	0.278387
680.231540	0.278414
680.434498	0.278325
680.637438	0.278535
680.840359	0.278609
681.043263	0.278797
681.246148	0.279087
681.449015	0.279266
681.651864	0.279151
681.854694	0.278829
682.057506	0.279025
682.260301	0.279487
682.463076	0.279176
682.665834	0.279386
682.868573	0.279984
683.071295	0.280157
683.273998	0.280276
683.476682	0.280449
683.679349	0.281081
683.881997	0.281203
684.084627	0.281347
684.287239	0.281970
684.489833	0.282203
684.692408	0.281941
684.894965	0.282177
685.097504	0.282388
685.300025	0.282717
685.502527	0.282862
685.705012	0.283028
685.907478	0.282967
686.109925	0.283017
686.312355	0.283025
686.514766	0.283442
686.717159	0.283711
686.919534	0.283770
687.121891	0.283945
687.324230	0.284143
687.526550	0.284351
687.728852	0.284685
687.931136	0.284659
688.133401	0.284975
688.335649	0.284980
688.537878	0.285281
688.740089	0.285743
688.942281	0.285923
689.144456	0.286278
689.346612	0.286710
689.548750	0.287181
689.750870	0.287661
689.952971	0.287845
690.155055	0.288028
690.357120	0.288019
690.559167	0.288016
690.761195	0.288410
690.963206	0.288493
691.165198	0.288525
691.367172	0.288585
691.569128	0.288553
691.771065	0.288631
691.972984	0.288707
692.174885	0.289066
692.376768	0.289235
692.578633	0.289149
692.780479	0.289018
692.982308	0.289155
693.184118	0.289304
693.385909	0.289310
