sample name	sample
index	995
start time	 04-14-2021  04:25:51 PM


Wavelength (nm)	Absorbance
494.344910	-0.649845
494.563924	-0.649845
494.782919	-0.649845
495.001897	-0.247454
495.220856	-0.408448
495.439797	-0.337069
495.658719	-0.245737
495.877624	-0.214277
496.096510	-0.148498
496.315378	-0.120403
496.534227	-0.134769
496.753059	-0.071795
496.971872	0.018670
497.190667	0.145444
497.409444	0.150149
497.628203	0.154318
497.846943	0.158414
498.065665	0.158700
498.284369	0.160821
498.503055	0.161260
498.721723	0.160620
498.940372	0.161003
499.159003	0.161094
499.377616	0.161153
499.596210	0.160060
499.814787	0.160466
500.033345	0.159228
500.251885	0.159659
500.470406	0.158360
500.688910	0.157715
500.907395	0.157858
501.125862	0.159187
501.344311	0.159192
501.562742	0.160574
501.781154	0.160425
501.999548	0.162360
502.217924	0.162002
502.436282	0.161878
502.654621	0.162775
502.872942	0.162410
503.091245	0.160953
503.309530	0.161184
503.527797	0.161060
503.746045	0.161736
503.964275	0.160971
504.182487	0.161275
504.400681	0.163067
504.618856	0.164413
504.837013	0.164567
505.055152	0.165671
505.273273	0.165721
505.491376	0.165607
505.709460	0.164741
505.927526	0.166069
506.145574	0.165734
506.363604	0.164977
506.581615	0.164160
506.799608	0.164424
507.017583	0.165045
507.235540	0.165684
507.453478	0.165932
507.671399	0.166277
507.889301	0.165793
508.107185	0.167264
508.325050	0.167695
508.542898	0.167237
508.760727	0.167748
508.978538	0.167188
509.196330	0.166716
509.414105	0.167281
509.631861	0.168687
509.849599	0.168313
510.067319	0.166710
510.285021	0.166686
510.502704	0.168197
510.720369	0.168649
510.938016	0.168545
511.155645	0.169940
511.373255	0.170261
511.590848	0.170162
511.808422	0.170946
512.025977	0.172596
512.243515	0.173511
512.461034	0.172318
512.678536	0.173398
512.896018	0.173793
513.113483	0.173500
513.330930	0.174173
513.548358	0.173900
513.765768	0.174194
513.983160	0.173369
514.200533	0.172870
514.417889	0.174037
514.635226	0.173429
514.852545	0.174370
515.069845	0.174171
515.287128	0.173590
515.504392	0.173991
515.721638	0.174508
515.938866	0.176034
516.156075	0.176142
516.373267	0.176758
516.590440	0.177010
516.807594	0.177519
517.024731	0.178133
517.241850	0.178746
517.458950	0.178893
517.676032	0.178430
517.893095	0.178296
518.110141	0.179698
518.327168	0.179560
518.544177	0.179799
518.761168	0.179046
518.978141	0.179971
519.195095	0.180424
519.412031	0.180357
519.628949	0.181178
519.845849	0.180613
520.062731	0.180502
520.279594	0.181116
520.496439	0.181042
520.713266	0.181643
520.930074	0.182203
521.146865	0.182000
521.363637	0.183091
521.580391	0.183588
521.797127	0.183926
522.013844	0.184067
522.230543	0.183727
522.447224	0.184294
522.663887	0.184806
522.880532	0.184881
523.097158	0.184914
523.313766	0.184892
523.530356	0.185523
523.746928	0.186832
523.963481	0.186905
524.180017	0.188601
524.396534	0.189235
524.613032	0.189497
524.829513	0.189211
525.045975	0.190066
525.262420	0.190183
525.478845	0.190100
525.695253	0.189849
525.911643	0.190460
526.128014	0.189813
526.344367	0.190438
526.560702	0.190805
526.777018	0.191713
526.993316	0.192287
527.209597	0.193006
527.425858	0.192671
527.642102	0.193425
527.858328	0.193995
528.074535	0.194155
528.290724	0.194327
528.506894	0.194609
528.723047	0.194329
528.939181	0.194488
529.155297	0.194419
529.371395	0.195109
529.587475	0.194968
529.803536	0.195480
530.019579	0.195920
530.235604	0.196357
530.451611	0.197009
530.667600	0.197792
530.883570	0.198142
531.099522	0.198830
531.315456	0.199415
531.531372	0.199978
531.747269	0.200272
531.963148	0.201190
532.179009	0.200936
532.394852	0.201873
532.610676	0.202067
532.826482	0.201930
533.042271	0.202012
533.258040	0.202758
533.473792	0.203117
533.689525	0.202954
533.905240	0.202631
534.120937	0.203058
534.336616	0.202400
534.552277	0.202978
534.767919	0.203879
534.983543	0.203767
535.199149	0.203986
535.414736	0.204145
535.630306	0.204856
535.845857	0.205152
536.061390	0.205241
536.276904	0.205745
536.492401	0.205645
536.707879	0.206107
536.923339	0.207142
537.138781	0.207051
537.354204	0.208327
537.569610	0.209014
537.784997	0.209802
538.000366	0.210771
538.215716	0.211408
538.431049	0.211863
538.646363	0.212036
538.861659	0.212722
539.076937	0.213208
539.292196	0.213221
539.507438	0.213432
539.722661	0.213874
539.937866	0.213896
540.153052	0.213881
540.368221	0.214177
540.583371	0.214363
540.798503	0.214014
541.013617	0.213751
541.228712	0.213898
541.443789	0.214557
541.658848	0.214469
541.873889	0.214769
542.088912	0.215534
542.303916	0.216027
542.518902	0.216550
542.733870	0.216880
542.948820	0.218101
543.163752	0.218160
543.378665	0.217993
543.593560	0.218478
543.808437	0.218911
544.023295	0.219066
544.238136	0.219432
544.452958	0.219722
544.667762	0.219742
544.882548	0.219139
545.097315	0.219532
545.312064	0.219795
545.526795	0.219905
545.741508	0.220202
545.956203	0.220246
546.170879	0.220899
546.385537	0.220849
546.600177	0.221848
546.814799	0.222825
547.029402	0.223236
547.243988	0.223109
547.458555	0.224018
547.673103	0.224582
547.887634	0.224803
548.102146	0.224960
548.316640	0.225579
548.531116	0.225966
548.745574	0.226221
548.960013	0.226379
549.174435	0.227223
549.388838	0.227192
549.603222	0.227296
549.817589	0.227642
550.031937	0.227647
550.246267	0.227998
550.460579	0.228191
550.674873	0.228421
550.889148	0.228396
551.103405	0.228497
551.317644	0.228482
551.531865	0.228847
551.746068	0.229522
551.960252	0.229902
552.174418	0.229906
552.388566	0.230383
552.602696	0.230776
552.816807	0.231687
553.030900	0.232550
553.244975	0.232494
553.459032	0.232419
553.673070	0.232390
553.887091	0.232684
554.101093	0.233307
554.315077	0.233643
554.529042	0.233826
554.742990	0.233770
554.956919	0.233369
555.170830	0.234512
555.384722	0.234823
555.598597	0.235071
555.812453	0.234838
556.026291	0.234820
556.240111	0.234707
556.453913	0.235036
556.667696	0.234819
556.881461	0.235003
557.095208	0.235098
557.308937	0.235827
557.522647	0.235856
557.736339	0.236561
557.950013	0.236739
558.163669	0.237327
558.377307	0.237701
558.590926	0.238515
558.804527	0.238933
559.018110	0.238874
559.231675	0.238543
559.445221	0.239076
559.658749	0.239262
559.872259	0.239945
560.085751	0.239482
560.299225	0.239780
560.512680	0.239569
560.726117	0.239838
560.939536	0.240751
561.152937	0.241168
561.366319	0.241275
561.579683	0.241413
561.793029	0.241413
562.006357	0.242128
562.219667	0.241682
562.432958	0.242433
562.646231	0.242412
562.859486	0.242046
563.072723	0.242402
563.285941	0.242587
563.499141	0.242891
563.712323	0.242512
563.925487	0.242367
564.138632	0.242949
564.351760	0.242605
564.564869	0.243039
564.777960	0.243324
564.991032	0.243334
565.204087	0.243662
565.417123	0.243714
565.630141	0.244557
565.843140	0.245128
566.056122	0.244895
566.269085	0.245411
566.482030	0.245470
566.694957	0.245049
566.907866	0.245306
567.120756	0.245071
567.333628	0.245189
567.546482	0.245225
567.759318	0.245124
567.972135	0.245522
568.184935	0.245624
568.397716	0.245897
568.610478	0.246641
568.823223	0.246631
569.035949	0.247053
569.248657	0.247241
569.461347	0.247436
569.674019	0.247654
569.886672	0.247861
570.099308	0.248023
570.311925	0.248558
570.524523	0.248675
570.737104	0.248514
570.949666	0.248698
571.162210	0.248772
571.374736	0.248910
571.587244	0.248737
571.799733	0.248686
572.012205	0.248710
572.224658	0.248588
572.437092	0.248822
572.649509	0.249249
572.861907	0.249487
573.074287	0.249996
573.286649	0.250270
573.498993	0.250641
573.711318	0.251037
573.923625	0.251517
574.135914	0.251622
574.348185	0.252033
574.560438	0.252546
574.772672	0.252655
574.984888	0.252851
575.197086	0.252963
575.409266	0.253256
575.621427	0.253618
575.833570	0.253512
576.045695	0.253470
576.257802	0.253512
576.469890	0.253812
576.681961	0.254070
576.894013	0.254239
577.106046	0.254148
577.318062	0.254004
577.530059	0.253803
577.742039	0.254202
577.954000	0.254680
578.165942	0.254424
578.377867	0.254697
578.589773	0.254503
578.801661	0.254725
579.013531	0.255405
579.225382	0.255940
579.437216	0.256284
579.649031	0.256597
579.860828	0.257099
580.072606	0.257137
580.284367	0.257003
580.496109	0.257646
580.707833	0.257964
580.919539	0.258096
581.131227	0.257885
581.342896	0.258076
581.554547	0.258251
581.766180	0.257879
581.977795	0.258489
582.189391	0.258737
582.400969	0.258900
582.612529	0.258924
582.824071	0.259055
583.035595	0.259660
583.247100	0.259901
583.458587	0.260091
583.670056	0.260224
583.881506	0.260479
584.092939	0.260764
584.304353	0.261075
584.515749	0.260985
584.727127	0.260924
584.938486	0.260943
585.149828	0.261566
585.361151	0.261650
585.572456	0.262044
585.783742	0.261804
585.995011	0.262006
586.206261	0.262035
586.417493	0.262573
586.628706	0.263185
586.839902	0.263652
587.051079	0.263705
587.262238	0.263815
587.473379	0.264344
587.684502	0.264920
587.895606	0.264688
588.106692	0.264707
588.317760	0.264702
588.528810	0.264693
588.739841	0.264793
588.950855	0.264916
589.161850	0.265298
589.372827	0.264912
589.583785	0.265614
589.794726	0.266430
590.005648	0.266450
590.216552	0.266955
590.427437	0.266857
590.638305	0.266794
590.849154	0.266754
591.059985	0.266826
591.270798	0.267340
591.481592	0.267033
591.692369	0.267199
591.903127	0.267873
592.113867	0.267625
592.324588	0.267874
592.535292	0.268052
592.745977	0.268285
592.956644	0.268520
593.167293	0.268516
593.377923	0.268802
593.588536	0.269008
593.799130	0.268890
594.009706	0.269095
594.220263	0.269217
594.430803	0.269874
594.641324	0.270415
594.851827	0.270641
595.062312	0.270848
595.272778	0.271078
595.483227	0.270984
595.693657	0.271507
595.904069	0.271854
596.114462	0.272244
596.324838	0.272254
596.535195	0.272663
596.745534	0.272619
596.955855	0.273030
597.166157	0.273382
597.376441	0.273801
597.586707	0.273914
597.796955	0.274336
598.007185	0.274813
598.217396	0.275188
598.427589	0.275193
598.637764	0.275600
598.847921	0.275557
599.058060	0.275773
599.268180	0.275661
599.478282	0.275684
599.688366	0.275502
599.898431	0.275346
600.108479	0.275199
600.318508	0.274917
600.528519	0.274930
600.738511	0.275492
600.948486	0.275737
601.158442	0.276059
601.368380	0.276278
601.578300	0.276598
601.788202	0.276748
601.998085	0.277181
602.207950	0.277463
602.417797	0.277722
602.627626	0.277304
602.837436	0.276985
603.047228	0.277098
603.257002	0.277660
603.466758	0.277602
603.676496	0.277527
603.886215	0.277631
604.095916	0.277719
604.305599	0.278141
604.515264	0.278718
604.724910	0.279440
604.934538	0.279436
605.144148	0.279454
605.353740	0.279502
605.563314	0.279999
605.772869	0.280251
605.982406	0.280097
606.191925	0.279901
606.401425	0.279803
606.610908	0.279666
606.820372	0.279799
607.029818	0.279725
607.239246	0.279939
607.448655	0.280391
607.658047	0.280492
607.867420	0.280860
608.076775	0.281028
608.286111	0.281416
608.495430	0.281392
608.704730	0.281850
608.914012	0.282130
609.123275	0.282378
609.332521	0.282315
609.541748	0.282241
609.750957	0.282500
609.960148	0.282823
610.169321	0.283037
610.378475	0.283409
610.587611	0.283682
610.796729	0.283541
611.005829	0.284158
611.214910	0.284053
611.423974	0.284116
611.633019	0.284325
611.842045	0.284499
612.051054	0.284777
612.260044	0.284840
612.469017	0.284660
612.677970	0.284991
612.886906	0.284899
613.095824	0.285311
613.304723	0.285603
613.513604	0.285851
613.722467	0.286014
613.931311	0.285778
614.140138	0.285941
614.348946	0.286029
614.557736	0.286425
614.766507	0.286504
614.975261	0.286640
615.183996	0.286465
615.392713	0.286748
615.601412	0.286920
615.810092	0.287280
616.018754	0.287552
616.227399	0.287920
616.436024	0.288083
616.644632	0.288176
616.853222	0.288157
617.061793	0.288535
617.270346	0.288544
617.478880	0.288897
617.687397	0.289237
617.895895	0.289398
618.104375	0.289444
618.312837	0.289527
618.521281	0.290007
618.729706	0.290516
618.938113	0.290951
619.146502	0.291232
619.354873	0.291254
619.563226	0.291501
619.771560	0.291714
619.979876	0.292162
620.188174	0.292397
620.396453	0.292340
620.604715	0.292513
620.812958	0.292806
621.021183	0.293093
621.229390	0.293108
621.437578	0.292749
621.645748	0.292764
621.853900	0.292704
622.062034	0.292897
622.270150	0.293157
622.478247	0.293395
622.686326	0.293416
622.894387	0.293373
623.102430	0.293501
623.310454	0.293817
623.518461	0.294107
623.726449	0.294483
623.934418	0.294460
624.142370	0.294694
624.350303	0.294437
624.558218	0.294580
624.766115	0.294936
624.973994	0.295060
625.181855	0.295237
625.389697	0.295124
625.597521	0.295158
625.805327	0.295456
626.013114	0.295526
626.220883	0.295927
626.428634	0.296111
626.636367	0.296321
626.844082	0.296774
627.051778	0.296981
627.259457	0.297318
627.467117	0.297604
627.674758	0.297625
627.882382	0.297989
628.089987	0.297999
628.297574	0.298017
628.505143	0.298049
628.712694	0.297895
628.920226	0.297955
629.127740	0.298191
629.335236	0.298114
629.542714	0.298259
629.750174	0.298165
629.957615	0.298329
630.165038	0.298558
630.372443	0.298542
630.579829	0.298793
630.787198	0.299186
630.994548	0.299452
631.201880	0.299782
631.409194	0.300090
631.616489	0.300032
631.823766	0.300470
632.031025	0.300809
632.238266	0.301258
632.445489	0.301475
632.652693	0.301624
632.859879	0.301768
633.067047	0.301788
633.274197	0.301989
633.481329	0.302523
633.688442	0.302411
633.895537	0.302375
634.102614	0.302309
634.309672	0.302434
634.516713	0.302447
634.723735	0.302286
634.930739	0.302677
635.137724	0.302804
635.344692	0.302844
635.551641	0.303100
635.758572	0.303533
635.965485	0.303576
636.172379	0.303882
636.379256	0.303956
636.586114	0.304329
636.792954	0.304465
636.999775	0.304359
637.206579	0.304458
637.413364	0.304382
637.620131	0.304554
637.826880	0.305118
638.033610	0.305196
638.240323	0.305463
638.447017	0.305695
638.653692	0.305618
638.860350	0.306258
639.066990	0.306383
639.273611	0.306989
639.480214	0.307217
639.686798	0.307435
639.893365	0.307581
640.099913	0.307840
640.306443	0.307821
640.512955	0.307996
640.719449	0.307493
640.925924	0.307966
641.132381	0.307975
641.338820	0.307910
641.545241	0.307752
641.751644	0.308073
641.958028	0.308355
642.164394	0.308965
642.370742	0.309251
642.577071	0.309913
642.783383	0.309849
642.989676	0.310380
643.195951	0.310528
643.402207	0.311071
643.608446	0.311258
643.814666	0.311488
644.020868	0.311216
644.227052	0.311494
644.433218	0.311780
644.639365	0.311973
644.845494	0.312135
645.051605	0.312393
645.257698	0.312424
645.463772	0.312605
645.669828	0.312806
645.875866	0.312950
646.081886	0.313035
646.287888	0.313139
646.493871	0.313634
646.699836	0.313580
646.905783	0.313929
647.111712	0.314256
647.317622	0.314362
647.523514	0.314668
647.729388	0.314724
647.935244	0.314953
648.141082	0.315305
648.346901	0.315375
648.552702	0.315883
648.758485	0.315977
648.964250	0.316112
649.169996	0.316439
649.375724	0.316761
649.581434	0.317370
649.787126	0.317724
649.992800	0.318072
650.198455	0.318388
650.404092	0.318146
650.609711	0.318426
650.815311	0.318412
651.020894	0.318398
651.226458	0.318475
651.432004	0.318488
651.637532	0.318329
651.843041	0.318450
652.048532	0.318610
652.254006	0.319164
652.459460	0.319113
652.664897	0.319429
652.870315	0.319856
653.075716	0.320001
653.281097	0.320575
653.486461	0.321381
653.691807	0.321596
653.897134	0.321720
654.102443	0.321653
654.307734	0.322072
654.513006	0.322378
654.718261	0.322628
654.923497	0.322860
655.128715	0.322848
655.333915	0.322749
655.539096	0.322609
655.744259	0.322799
655.949404	0.323274
656.154531	0.323358
656.359640	0.323355
656.564730	0.323493
656.769802	0.323837
656.974856	0.324368
657.179892	0.324433
657.384909	0.324884
657.589908	0.325342
657.794889	0.325487
657.999852	0.326035
658.204797	0.326590
658.409723	0.326668
658.614631	0.326668
658.819521	0.326803
659.024393	0.327312
659.229246	0.327516
659.434081	0.327508
659.638898	0.327948
659.843697	0.328257
660.048478	0.328236
660.253240	0.328634
660.457984	0.328898
660.662710	0.328793
660.867417	0.328847
661.072107	0.329209
661.276778	0.329363
661.481431	0.329189
661.686066	0.329245
661.890682	0.329691
662.095281	0.329927
662.299861	0.330179
662.504422	0.330773
662.708966	0.331301
662.913491	0.331398
663.117999	0.331872
663.322488	0.332238
663.526958	0.332354
663.731411	0.332555
663.935845	0.332611
664.140261	0.332903
664.344659	0.333022
664.549038	0.332879
664.753400	0.333091
664.957743	0.333167
665.162068	0.333355
665.366375	0.333467
665.570663	0.333593
665.774933	0.334245
665.979185	0.334565
666.183419	0.334568
666.387635	0.335168
666.591832	0.335403
666.796011	0.335686
667.000172	0.336144
667.204315	0.336510
667.408439	0.336660
667.612545	0.336684
667.816634	0.336718
668.020703	0.337151
668.224755	0.337112
668.428788	0.337242
668.632803	0.337723
668.836800	0.337864
669.040779	0.338373
669.244739	0.338621
669.448681	0.338959
669.652605	0.339494
669.856511	0.339644
670.060399	0.340138
670.264268	0.340483
670.468119	0.340546
670.671952	0.340523
670.875767	0.340437
671.079563	0.341052
671.283341	0.341329
671.487101	0.341383
671.690843	0.341953
671.894567	0.342483
672.098272	0.342855
672.301959	0.343164
672.505628	0.343423
672.709278	0.343678
672.912911	0.343685
673.116525	0.343678
673.320121	0.344075
673.523699	0.344210
673.727258	0.344135
673.930799	0.344559
674.134322	0.344748
674.337827	0.345355
674.541314	0.345687
674.744782	0.345931
674.948232	0.346228
675.151664	0.346357
675.355078	0.346339
675.558474	0.346470
675.761851	0.346637
675.965210	0.346652
676.168551	0.346534
676.371873	0.346918
676.575178	0.346947
676.778464	0.347239
676.981732	0.347589
677.184981	0.347733
677.388213	0.348117
677.591426	0.348154
677.794621	0.348687
677.997798	0.349178
678.200956	0.349160
678.404097	0.349492
678.607219	0.349825
678.810323	0.349977
679.013408	0.350301
679.216476	0.350303
679.419525	0.350585
679.622556	0.350640
679.825569	0.350835
680.028563	0.351470
680.231540	0.351873
680.434498	0.351965
680.637438	0.352145
680.840359	0.352478
681.043263	0.352816
681.246148	0.352919
681.449015	0.353258
681.651864	0.353517
681.854694	0.353396
682.057506	0.353566
682.260301	0.353764
682.463076	0.354029
682.665834	0.354387
682.868573	0.354779
683.071295	0.355101
683.273998	0.355271
683.476682	0.355566
683.679349	0.355609
683.881997	0.355703
684.084627	0.356325
684.287239	0.356508
684.489833	0.356623
684.692408	0.356837
684.894965	0.356869
685.097504	0.357216
685.300025	0.357273
685.502527	0.357808
685.705012	0.358257
685.907478	0.358364
686.109925	0.358399
686.312355	0.358801
686.514766	0.358983
686.717159	0.359322
686.919534	0.359423
687.121891	0.359477
687.324230	0.359871
687.526550	0.360049
687.728852	0.360149
687.931136	0.360697
688.133401	0.360728
688.335649	0.360936
688.537878	0.361273
688.740089	0.361678
688.942281	0.361948
689.144456	0.361934
689.346612	0.361904
689.548750	0.362101
689.750870	0.362057
689.952971	0.362542
690.155055	0.362702
690.357120	0.362846
690.559167	0.362804
690.761195	0.363378
690.963206	0.363800
691.165198	0.364396
691.367172	0.364491
691.569128	0.364593
691.771065	0.364576
691.972984	0.364508
692.174885	0.364918
692.376768	0.365311
692.578633	0.365120
692.780479	0.365003
692.982308	0.365016
693.184118	0.365261
693.385909	0.365496
