sample name	sample
index	284
start time	 02-25-2021  12:17:25 PM


Wavelength (nm)	Absorbance
494.344910	0.532472
494.563924	0.532472
494.782919	0.532472
495.001897	0.072659
495.220856	0.114554
495.439797	0.124341
495.658719	0.038753
495.877624	-0.004781
496.096510	-0.039288
496.315378	-0.059963
496.534227	-0.101049
496.753059	-0.086644
496.971872	-0.100150
497.190667	0.088299
497.409444	0.104046
497.628203	0.108759
497.846943	0.111994
498.065665	0.114035
498.284369	0.114954
498.503055	0.114772
498.721723	0.114847
498.940372	0.115015
499.159003	0.114483
499.377616	0.113817
499.596210	0.114567
499.814787	0.113419
500.033345	0.113117
500.251885	0.113226
500.470406	0.113140
500.688910	0.114276
500.907395	0.113892
501.125862	0.113729
501.344311	0.114762
501.562742	0.114958
501.781154	0.116563
501.999548	0.117842
502.217924	0.118053
502.436282	0.118709
502.654621	0.117609
502.872942	0.118186
503.091245	0.117875
503.309530	0.117197
503.527797	0.117166
503.746045	0.115930
503.964275	0.115714
504.182487	0.115650
504.400681	0.116061
504.618856	0.117044
504.837013	0.117319
505.055152	0.118841
505.273273	0.119164
505.491376	0.118636
505.709460	0.119445
505.927526	0.118664
506.145574	0.118581
506.363604	0.117706
506.581615	0.118004
506.799608	0.117530
507.017583	0.116678
507.235540	0.116852
507.453478	0.117387
507.671399	0.117146
507.889301	0.117819
508.107185	0.117972
508.325050	0.119262
508.542898	0.119628
508.760727	0.120818
508.978538	0.121408
509.196330	0.121582
509.414105	0.121791
509.631861	0.122657
509.849599	0.122371
510.067319	0.122856
510.285021	0.122251
510.502704	0.121640
510.720369	0.121842
510.938016	0.122260
511.155645	0.122619
511.373255	0.122877
511.590848	0.122719
511.808422	0.122628
512.025977	0.122308
512.243515	0.122989
512.461034	0.124090
512.678536	0.124134
512.896018	0.123988
513.113483	0.124279
513.330930	0.124554
513.548358	0.125366
513.765768	0.125351
513.983160	0.126942
514.200533	0.127018
514.417889	0.126197
514.635226	0.126017
514.852545	0.126657
515.069845	0.126429
515.287128	0.126067
515.504392	0.125535
515.721638	0.125969
515.938866	0.126478
516.156075	0.126983
516.373267	0.128192
516.590440	0.128835
516.807594	0.129329
517.024731	0.129888
517.241850	0.130521
517.458950	0.131073
517.676032	0.131346
517.893095	0.130394
518.110141	0.130642
518.327168	0.130370
518.544177	0.130303
518.761168	0.130468
518.978141	0.130693
519.195095	0.131629
519.412031	0.130988
519.628949	0.132125
519.845849	0.133403
520.062731	0.133292
520.279594	0.133654
520.496439	0.133702
520.713266	0.134009
520.930074	0.134365
521.146865	0.133391
521.363637	0.134114
521.580391	0.133687
521.797127	0.132827
522.013844	0.132640
522.230543	0.133102
522.447224	0.133634
522.663887	0.133031
522.880532	0.132858
523.097158	0.133380
523.313766	0.134038
523.530356	0.134392
523.746928	0.135101
523.963481	0.135646
524.180017	0.135999
524.396534	0.136639
524.613032	0.137334
524.829513	0.137617
525.045975	0.137953
525.262420	0.138231
525.478845	0.138463
525.695253	0.138367
525.911643	0.138596
526.128014	0.138309
526.344367	0.137928
526.560702	0.138813
526.777018	0.139533
526.993316	0.139891
527.209597	0.139848
527.425858	0.140374
527.642102	0.140850
527.858328	0.140992
528.074535	0.141637
528.290724	0.142146
528.506894	0.142313
528.723047	0.142287
528.939181	0.143155
529.155297	0.143980
529.371395	0.144514
529.587475	0.144630
529.803536	0.144907
530.019579	0.145075
530.235604	0.145549
530.451611	0.145604
530.667600	0.146112
530.883570	0.145859
531.099522	0.145533
531.315456	0.145532
531.531372	0.145884
531.747269	0.146218
531.963148	0.146178
532.179009	0.146735
532.394852	0.147290
532.610676	0.147479
532.826482	0.147711
533.042271	0.148546
533.258040	0.148813
533.473792	0.148864
533.689525	0.149657
533.905240	0.150535
534.120937	0.150686
534.336616	0.151163
534.552277	0.151731
534.767919	0.152358
534.983543	0.152714
535.199149	0.153126
535.414736	0.153609
535.630306	0.153702
535.845857	0.153172
536.061390	0.153106
536.276904	0.152736
536.492401	0.153041
536.707879	0.153166
536.923339	0.152879
537.138781	0.153209
537.354204	0.153891
537.569610	0.154488
537.784997	0.155054
538.000366	0.156029
538.215716	0.156122
538.431049	0.156592
538.646363	0.156805
538.861659	0.157538
539.076937	0.157724
539.292196	0.157647
539.507438	0.157802
539.722661	0.158318
539.937866	0.158211
540.153052	0.159105
540.368221	0.159434
540.583371	0.160335
540.798503	0.160660
541.013617	0.160899
541.228712	0.161350
541.443789	0.160971
541.658848	0.161608
541.873889	0.162235
542.088912	0.162295
542.303916	0.162187
542.518902	0.162281
542.733870	0.162736
542.948820	0.163031
543.163752	0.163379
543.378665	0.164145
543.593560	0.164496
543.808437	0.164092
544.023295	0.164212
544.238136	0.164455
544.452958	0.164863
544.667762	0.165503
544.882548	0.165588
545.097315	0.165803
545.312064	0.166621
545.526795	0.166491
545.741508	0.167684
545.956203	0.168592
546.170879	0.169491
546.385537	0.170095
546.600177	0.169585
546.814799	0.170188
547.029402	0.170121
547.243988	0.170356
547.458555	0.170675
547.673103	0.170431
547.887634	0.170803
548.102146	0.170164
548.316640	0.169478
548.531116	0.170021
548.745574	0.170436
548.960013	0.171364
549.174435	0.171093
549.388838	0.171443
549.603222	0.171575
549.817589	0.171195
550.031937	0.171812
550.246267	0.172779
550.460579	0.172983
550.674873	0.173015
550.889148	0.173149
551.103405	0.173699
551.317644	0.173725
551.531865	0.174129
551.746068	0.174457
551.960252	0.175002
552.174418	0.175140
552.388566	0.174857
552.602696	0.175136
552.816807	0.175300
553.030900	0.175215
553.244975	0.175358
553.459032	0.175314
553.673070	0.175787
553.887091	0.175926
554.101093	0.176024
554.315077	0.176465
554.529042	0.176646
554.742990	0.176419
554.956919	0.176752
555.170830	0.177331
555.384722	0.177920
555.598597	0.177632
555.812453	0.177749
556.026291	0.177634
556.240111	0.178273
556.453913	0.178704
556.667696	0.178992
556.881461	0.179124
557.095208	0.179329
557.308937	0.179390
557.522647	0.179626
557.736339	0.179842
557.950013	0.180212
558.163669	0.180558
558.377307	0.180646
558.590926	0.181101
558.804527	0.181263
559.018110	0.181265
559.231675	0.181510
559.445221	0.182069
559.658749	0.182306
559.872259	0.182417
560.085751	0.182226
560.299225	0.182200
560.512680	0.182234
560.726117	0.182398
560.939536	0.182995
561.152937	0.182646
561.366319	0.182637
561.579683	0.182760
561.793029	0.183191
562.006357	0.183607
562.219667	0.184103
562.432958	0.184079
562.646231	0.184501
562.859486	0.184173
563.072723	0.184753
563.285941	0.185069
563.499141	0.185638
563.712323	0.185483
563.925487	0.185717
564.138632	0.185975
564.351760	0.186447
564.564869	0.186992
564.777960	0.186989
564.991032	0.187150
565.204087	0.187450
565.417123	0.187181
565.630141	0.187392
565.843140	0.187693
566.056122	0.187726
566.269085	0.188093
566.482030	0.187979
566.694957	0.188087
566.907866	0.188314
567.120756	0.188234
567.333628	0.188224
567.546482	0.188662
567.759318	0.188781
567.972135	0.188866
568.184935	0.188715
568.397716	0.188582
568.610478	0.189327
568.823223	0.189584
569.035949	0.190069
569.248657	0.190490
569.461347	0.190257
569.674019	0.190002
569.886672	0.189892
570.099308	0.190059
570.311925	0.190348
570.524523	0.190433
570.737104	0.190735
570.949666	0.190798
571.162210	0.191030
571.374736	0.191656
571.587244	0.191966
571.799733	0.192647
572.012205	0.192941
572.224658	0.193144
572.437092	0.193283
572.649509	0.192970
572.861907	0.193095
573.074287	0.193072
573.286649	0.192879
573.498993	0.193077
573.711318	0.193047
573.923625	0.193005
574.135914	0.193369
574.348185	0.193058
574.560438	0.193787
574.772672	0.194393
574.984888	0.194947
575.197086	0.195153
575.409266	0.195474
575.621427	0.195681
575.833570	0.195802
576.045695	0.195843
576.257802	0.196238
576.469890	0.195980
576.681961	0.195949
576.894013	0.195792
577.106046	0.196324
577.318062	0.196298
577.530059	0.196398
577.742039	0.196903
577.954000	0.197079
578.165942	0.197444
578.377867	0.197881
578.589773	0.197788
578.801661	0.197701
579.013531	0.197242
579.225382	0.197353
579.437216	0.197517
579.649031	0.197746
579.860828	0.197996
580.072606	0.198036
580.284367	0.198178
580.496109	0.198252
580.707833	0.198728
580.919539	0.199109
581.131227	0.199730
581.342896	0.199681
581.554547	0.199982
581.766180	0.199824
581.977795	0.199920
582.189391	0.200088
582.400969	0.200240
582.612529	0.200276
582.824071	0.200496
583.035595	0.200455
583.247100	0.200907
583.458587	0.201106
583.670056	0.201505
583.881506	0.202170
584.092939	0.202253
584.304353	0.202695
584.515749	0.203123
584.727127	0.203369
584.938486	0.203636
585.149828	0.204230
585.361151	0.204438
585.572456	0.204890
585.783742	0.204898
585.995011	0.205136
586.206261	0.205100
586.417493	0.205020
586.628706	0.205417
586.839902	0.205177
587.051079	0.205081
587.262238	0.205188
587.473379	0.205222
587.684502	0.205230
587.895606	0.205787
588.106692	0.205862
588.317760	0.206373
588.528810	0.206460
588.739841	0.206990
588.950855	0.207041
589.161850	0.206999
589.372827	0.206872
589.583785	0.207327
589.794726	0.207255
590.005648	0.207704
590.216552	0.207878
590.427437	0.208066
590.638305	0.207872
590.849154	0.208125
591.059985	0.208615
591.270798	0.209212
591.481592	0.209396
591.692369	0.209741
591.903127	0.209831
592.113867	0.209843
592.324588	0.210209
592.535292	0.210834
592.745977	0.210923
592.956644	0.211002
593.167293	0.210957
593.377923	0.211126
593.588536	0.210969
593.799130	0.211377
594.009706	0.211468
594.220263	0.211451
594.430803	0.211522
594.641324	0.211573
594.851827	0.211765
595.062312	0.212088
595.272778	0.212154
595.483227	0.212236
595.693657	0.212406
595.904069	0.212846
596.114462	0.213250
596.324838	0.213478
596.535195	0.213719
596.745534	0.213736
596.955855	0.213898
597.166157	0.214630
597.376441	0.215068
597.586707	0.214929
597.796955	0.215135
598.007185	0.215087
598.217396	0.214902
598.427589	0.215559
598.637764	0.215568
598.847921	0.215710
599.058060	0.215099
599.268180	0.214921
599.478282	0.215463
599.688366	0.215648
599.898431	0.216003
600.108479	0.216329
600.318508	0.216245
600.528519	0.216364
600.738511	0.216477
600.948486	0.216945
601.158442	0.216979
601.368380	0.216817
601.578300	0.216849
601.788202	0.216867
601.998085	0.217151
602.207950	0.217249
602.417797	0.218014
602.627626	0.218334
602.837436	0.218582
603.047228	0.219610
603.257002	0.220003
603.466758	0.219885
603.676496	0.220352
603.886215	0.220649
604.095916	0.221097
604.305599	0.220929
604.515264	0.221007
604.724910	0.221276
604.934538	0.221090
605.144148	0.221020
605.353740	0.221397
605.563314	0.221017
605.772869	0.221139
605.982406	0.220832
606.191925	0.220708
606.401425	0.220638
606.610908	0.220566
606.820372	0.220696
607.029818	0.221197
607.239246	0.221449
607.448655	0.221321
607.658047	0.221469
607.867420	0.221688
608.076775	0.222132
608.286111	0.222326
608.495430	0.222445
608.704730	0.222562
608.914012	0.222262
609.123275	0.222243
609.332521	0.222939
609.541748	0.222963
609.750957	0.223271
609.960148	0.223364
610.169321	0.223501
610.378475	0.223766
610.587611	0.223974
610.796729	0.224071
611.005829	0.224465
611.214910	0.224862
611.423974	0.224984
611.633019	0.224976
611.842045	0.225130
612.051054	0.225602
612.260044	0.225691
612.469017	0.225575
612.677970	0.225737
612.886906	0.225698
613.095824	0.225588
613.304723	0.226021
613.513604	0.226004
613.722467	0.225915
613.931311	0.226084
614.140138	0.226326
614.348946	0.226690
614.557736	0.227093
614.766507	0.227386
614.975261	0.227731
615.183996	0.227780
615.392713	0.228211
615.601412	0.228416
615.810092	0.228392
616.018754	0.228686
616.227399	0.228608
616.436024	0.228482
616.644632	0.228412
616.853222	0.228248
617.061793	0.228401
617.270346	0.228670
617.478880	0.229004
617.687397	0.229251
617.895895	0.229257
618.104375	0.229752
618.312837	0.230167
618.521281	0.230376
618.729706	0.230781
618.938113	0.230868
619.146502	0.230811
619.354873	0.231039
619.563226	0.230895
619.771560	0.230938
619.979876	0.230983
620.188174	0.231375
620.396453	0.231753
620.604715	0.231836
620.812958	0.232179
621.021183	0.232586
621.229390	0.232704
621.437578	0.232890
621.645748	0.232859
621.853900	0.232983
622.062034	0.233039
622.270150	0.233273
622.478247	0.233643
622.686326	0.233598
622.894387	0.233959
623.102430	0.234154
623.310454	0.234645
623.518461	0.235132
623.726449	0.235425
623.934418	0.235729
624.142370	0.235933
624.350303	0.236055
624.558218	0.236464
624.766115	0.236349
624.973994	0.236667
625.181855	0.236734
625.389697	0.236935
625.597521	0.237073
625.805327	0.237067
626.013114	0.236832
626.220883	0.236994
626.428634	0.237300
626.636367	0.237339
626.844082	0.237541
627.051778	0.237700
627.259457	0.237724
627.467117	0.237739
627.674758	0.237874
627.882382	0.238090
628.089987	0.238081
628.297574	0.238137
628.505143	0.238454
628.712694	0.238295
628.920226	0.238405
629.127740	0.238830
629.335236	0.239085
629.542714	0.239390
629.750174	0.240001
629.957615	0.240160
630.165038	0.240113
630.372443	0.240134
630.579829	0.240495
630.787198	0.240595
630.994548	0.240465
631.201880	0.240606
631.409194	0.240558
631.616489	0.240259
631.823766	0.240133
632.031025	0.240201
632.238266	0.240390
632.445489	0.240658
632.652693	0.240776
632.859879	0.240989
633.067047	0.241114
633.274197	0.241196
633.481329	0.241536
633.688442	0.242274
633.895537	0.242582
634.102614	0.242852
634.309672	0.242678
634.516713	0.242898
634.723735	0.243067
634.930739	0.243213
635.137724	0.243516
635.344692	0.243689
635.551641	0.243683
635.758572	0.243974
635.965485	0.244159
636.172379	0.244581
636.379256	0.244573
636.586114	0.244858
636.792954	0.245062
636.999775	0.245203
637.206579	0.245525
637.413364	0.245550
637.620131	0.245640
637.826880	0.245855
638.033610	0.246313
638.240323	0.246859
638.447017	0.246944
638.653692	0.247148
638.860350	0.247404
639.066990	0.247144
639.273611	0.247278
639.480214	0.247165
639.686798	0.247312
639.893365	0.247137
640.099913	0.247235
640.306443	0.247418
640.512955	0.247727
640.719449	0.247750
640.925924	0.248287
641.132381	0.248889
641.338820	0.249437
641.545241	0.249529
641.751644	0.249785
641.958028	0.250159
642.164394	0.250717
642.370742	0.250935
642.577071	0.251409
642.783383	0.251720
642.989676	0.251809
643.195951	0.251815
643.402207	0.251976
643.608446	0.252115
643.814666	0.252067
644.020868	0.252023
644.227052	0.251872
644.433218	0.252017
644.639365	0.251969
644.845494	0.252019
645.051605	0.251981
645.257698	0.252204
645.463772	0.252207
645.669828	0.252345
645.875866	0.252368
646.081886	0.252596
646.287888	0.252582
646.493871	0.252795
646.699836	0.252870
646.905783	0.253478
647.111712	0.253594
647.317622	0.253947
647.523514	0.254133
647.729388	0.254299
647.935244	0.254598
648.141082	0.254811
648.346901	0.254893
648.552702	0.255154
648.758485	0.255400
648.964250	0.255654
649.169996	0.255889
649.375724	0.256107
649.581434	0.256451
649.787126	0.256738
649.992800	0.257085
650.198455	0.257273
650.404092	0.257366
650.609711	0.257292
650.815311	0.257621
651.020894	0.257883
651.226458	0.257996
651.432004	0.258129
651.637532	0.258294
651.843041	0.258415
652.048532	0.258500
652.254006	0.258789
652.459460	0.258946
652.664897	0.259099
652.870315	0.259261
653.075716	0.259899
653.281097	0.260213
653.486461	0.260422
653.691807	0.260791
653.897134	0.261391
654.102443	0.261627
654.307734	0.262000
654.513006	0.262261
654.718261	0.262345
654.923497	0.262304
655.128715	0.262526
655.333915	0.262880
655.539096	0.262974
655.744259	0.262981
655.949404	0.263227
656.154531	0.263576
656.359640	0.263571
656.564730	0.264016
656.769802	0.264090
656.974856	0.264020
657.179892	0.264335
657.384909	0.264634
657.589908	0.264943
657.794889	0.265266
657.999852	0.265336
658.204797	0.265668
658.409723	0.265774
658.614631	0.266173
658.819521	0.266662
659.024393	0.266730
659.229246	0.266808
659.434081	0.267077
659.638898	0.267229
659.843697	0.267595
660.048478	0.267834
660.253240	0.268036
660.457984	0.268150
660.662710	0.268434
660.867417	0.268748
661.072107	0.268954
661.276778	0.269042
661.481431	0.269003
661.686066	0.269108
661.890682	0.269602
662.095281	0.269947
662.299861	0.270164
662.504422	0.270251
662.708966	0.270427
662.913491	0.270923
663.117999	0.271152
663.322488	0.271642
663.526958	0.271759
663.731411	0.271569
663.935845	0.271593
664.140261	0.271965
664.344659	0.272418
664.549038	0.272881
664.753400	0.272993
664.957743	0.273356
665.162068	0.273853
665.366375	0.274077
665.570663	0.274397
665.774933	0.274692
665.979185	0.274787
666.183419	0.274776
666.387635	0.274796
666.591832	0.274704
666.796011	0.274906
667.000172	0.274673
667.204315	0.274901
667.408439	0.274991
667.612545	0.275032
667.816634	0.275226
668.020703	0.275153
668.224755	0.275156
668.428788	0.275253
668.632803	0.275446
668.836800	0.275588
669.040779	0.275683
669.244739	0.276001
669.448681	0.276211
669.652605	0.276351
669.856511	0.276771
670.060399	0.276952
670.264268	0.277206
670.468119	0.277065
670.671952	0.277437
670.875767	0.277691
671.079563	0.278228
671.283341	0.278791
671.487101	0.279177
671.690843	0.279246
671.894567	0.279435
672.098272	0.279900
672.301959	0.280273
672.505628	0.280554
672.709278	0.280813
672.912911	0.280856
673.116525	0.280958
673.320121	0.281159
673.523699	0.281631
673.727258	0.281931
673.930799	0.282085
674.134322	0.282475
674.337827	0.282608
674.541314	0.282910
674.744782	0.283273
674.948232	0.283521
675.151664	0.283704
675.355078	0.283890
675.558474	0.284210
675.761851	0.284713
675.965210	0.285200
676.168551	0.285609
676.371873	0.285919
676.575178	0.285937
676.778464	0.286161
676.981732	0.286114
677.184981	0.286317
677.388213	0.286622
677.591426	0.286640
677.794621	0.286706
677.997798	0.286873
678.200956	0.287020
678.404097	0.287390
678.607219	0.287637
678.810323	0.288161
679.013408	0.288515
679.216476	0.288743
679.419525	0.289073
679.622556	0.289369
679.825569	0.289694
680.028563	0.290084
680.231540	0.290219
680.434498	0.290391
680.637438	0.290769
680.840359	0.290807
681.043263	0.291169
681.246148	0.291363
681.449015	0.291508
681.651864	0.291514
681.854694	0.291540
682.057506	0.291850
682.260301	0.292250
682.463076	0.292478
682.665834	0.292763
682.868573	0.292700
683.071295	0.292866
683.273998	0.293088
683.476682	0.293191
683.679349	0.293405
683.881997	0.293545
684.084627	0.293415
684.287239	0.293326
684.489833	0.293532
684.692408	0.293599
684.894965	0.293495
685.097504	0.293498
685.300025	0.293969
685.502527	0.294158
685.705012	0.294177
685.907478	0.294349
686.109925	0.294619
686.312355	0.294651
686.514766	0.295032
686.717159	0.295534
686.919534	0.296029
687.121891	0.296087
687.324230	0.296273
687.526550	0.296445
687.728852	0.296463
687.931136	0.296583
688.133401	0.296695
688.335649	0.296883
688.537878	0.296960
688.740089	0.296880
688.942281	0.296825
689.144456	0.296980
689.346612	0.297017
689.548750	0.297410
689.750870	0.297696
689.952971	0.297747
690.155055	0.297958
690.357120	0.298381
690.559167	0.298314
690.761195	0.298647
690.963206	0.298690
691.165198	0.298797
691.367172	0.298868
691.569128	0.298913
691.771065	0.299448
691.972984	0.299611
692.174885	0.299649
692.376768	0.300153
692.578633	0.300211
692.780479	0.300737
692.982308	0.301076
693.184118	0.301122
693.385909	0.301314
