sample name	sample
index	96
start time	 02-15-2021  10:53:03 AM
880	0.430166
Peak Time (s)	91.535
Peak Height 	0.4302
calc peak height	90,93
Baseline Time (s)	9.535
Baseline Value 	0.002053
subtract baseline	10,4
Abs	0.342440
Peak Time (s)	90.538
Peak Height 	0.3424
calc peak height	90,93
Baseline Time (s)	10.536
Baseline Value 	0.002155
subtract baseline	10,3
PK_550	0.159395
Peak Time (s)	91.535
Peak Height 	0.1594
calc peak height	90,93
Baseline Time (s)	10.536
Baseline Value 	0.00153
subtract baseline	10,2
PK_880	0.311720
Peak Time (s)	92.035
Peak Height 	0.3117
calc peak height	90,93
Baseline Time (s)	9.535
Baseline Value 	0.002485
subtract baseline	10,1


Time (s)	A880-A510	A880-A775	A880-A975	A880	I510	I775	I975	I880	
0.034500	0.002032	-0.003534	0.004204	-0.005202	4236.463883	15823.981886	3195.752676	8966.532114
0.534500	-0.004283	-0.001633	-0.001787	0.000899	4199.137181	15700.023610	3186.911150	8881.875302
1.035500	-0.000209	-0.001018	-0.001440	0.000598	4212.168117	15726.966400	3187.378177	8886.018275
1.541000	-0.001614	0.000001	-0.003310	-0.002565	4217.442765	15850.642215	3188.313349	8929.796448
2.036000	0.000063	-0.001315	0.005982	-0.002880	4223.440408	15820.905179	3195.349667	8934.164578
2.539000	0.000909	-0.000569	0.001218	0.001938	4211.504067	15700.750709	3188.331682	8867.570430
3.037000	0.004353	-0.000918	0.008664	-0.003152	4237.291623	15840.776202	3197.545266	8937.954646
3.539500	-0.005146	-0.002011	-0.009907	-0.002795	4207.553515	15797.772805	3183.734848	8932.985297
4.037000	-0.003552	-0.001504	0.003371	-0.001912	4209.675510	15786.680031	3192.710108	8920.730029
4.540000	-0.003396	-0.001261	-0.002064	-0.001283	4208.264750	15775.257445	3188.287804	8912.016002
5.035500	-0.000076	-0.000040	-0.005075	-0.000500	4215.858039	15788.188263	3185.551108	8901.174071
5.535500	-0.002142	-0.001181	0.009112	-0.001811	4213.592809	15793.214013	3196.879437	8919.324270
6.035500	0.001547	-0.001546	-0.000020	-0.001348	4223.298853	15768.775117	3189.818779	8912.918481
6.536000	0.000994	-0.000108	-0.000562	-0.000698	4219.669802	15792.054929	3188.951980	8903.910925
7.036500	-0.000122	0.000522	0.006333	-0.000078	4214.455283	15792.371209	3193.540396	8895.353859
7.536000	-0.001709	0.000081	0.004476	-0.000642	4211.391366	15796.007490	3192.589594	8903.146879
8.040000	0.006005	-0.001694	0.004499	-0.001172	4236.289422	15759.190612	3192.995236	8910.468473
8.539500	-0.004058	-0.001215	-0.011195	-0.001202	4206.047595	15774.208884	3181.685377	8910.887856
9.037500	0.000314	0.000811	0.002137	0.000043	4215.397601	15797.300847	3190.376644	8893.669884
9.535000	0.000000	0.000138	0.001056	0.000000	4214.585919	15778.685442	3189.620580	8894.269873
10.035000	-0.002428	-0.000056	0.002822	-0.000196	4207.908515	15778.734167	3191.050735	8896.975657
10.535500	-0.002436	0.000000	0.000000	0.000269	4206.500325	15766.678288	3188.658813	8890.563399
11.035500	0.000711	0.000691	-0.004944	0.000594	4214.937213	15777.460732	3184.860336	8886.070165
11.537000	0.000473	-0.002160	-0.000737	-0.002072	4222.243093	15772.014129	3189.823961	8922.955093
12.035500	0.000540	-0.000808	0.003318	-0.000418	4217.462529	15763.102908	3191.576512	8900.050889
12.536500	0.003873	-0.000897	0.003289	-0.000445	4227.601193	15761.256899	3191.574481	8900.414715
13.037000	0.000575	-0.001308	0.002428	-0.002825	4224.824240	15819.521826	3192.688470	8933.406306
13.540000	0.001881	0.000184	0.005486	-0.000693	4222.327977	15800.539566	3193.368792	8903.842614
14.034500	-0.001033	-0.000904	0.001335	-0.001487	4215.948604	15791.846096	3190.907602	8914.834465
14.537500	-0.000379	-0.000474	-0.009215	0.001975	4207.543634	15702.459791	3180.837805	8867.058487
15.035500	0.000337	-0.000979	-0.000435	-0.000691	4217.671773	15766.083044	3189.039134	8903.816142
15.561000	0.004837	-0.000296	0.003624	-0.001237	4232.932611	15802.450487	3192.400862	8911.375014
16.035500	0.001027	-0.000395	0.009223	-0.001900	4223.395594	15819.168484	3197.028956	8920.568615
16.536000	0.000245	-0.001195	-0.002895	-0.001110	4218.657571	15772.111323	3187.561349	8909.622606
17.036500	-0.001192	-0.001748	0.006983	-0.002473	4218.434689	15796.038326	3195.790167	8928.514563
17.539500	-0.001027	-0.002256	-0.006699	-0.005968	4229.489583	15884.725675	3188.323488	8977.240280
18.037000	0.004800	0.000696	0.004160	-0.000632	4230.979693	15813.880525	3192.349927	8902.999572
18.537000	-0.001946	-0.000847	-0.006033	-0.000104	4209.074159	15752.668440	3184.580991	8895.706947
19.035000	-0.005308	-0.002488	0.001517	-0.001528	4203.297965	15746.281694	3191.070944	8915.402299
19.535000	-0.000897	0.000239	0.009871	0.000703	4209.796165	15760.924102	3195.576717	8884.572120
20.035000	0.000211	-0.001366	-0.006836	-0.000426	4216.497532	15746.845297	3184.236578	8900.148169
20.535000	-0.004057	-0.002161	0.002341	-0.000131	4202.864011	15714.775883	3190.652150	8896.075463
21.036000	-0.000238	-0.001907	0.005494	-0.001060	4217.051796	15749.586460	3193.645211	8908.919562
21.536500	-0.000046	-0.000508	-0.004608	-0.000022	4214.513536	15760.261201	3185.543361	8894.576547
22.037000	0.000690	-0.001273	0.007697	-0.001052	4219.821535	15768.097164	3195.266800	8908.820295
22.536000	-0.002224	-0.000606	-0.000256	-0.000242	4208.652261	15763.855587	3188.843258	8897.605907
23.037000	0.003830	0.001079	0.004742	0.001806	4220.672151	15753.151751	3190.991450	8869.386636
23.534500	0.000569	-0.001502	0.007505	-0.001110	4219.632548	15763.044003	3195.167167	8909.616801
24.035500	0.004736	-0.001071	-0.003078	-0.000486	4230.344152	15757.344365	3186.978318	8900.986789
24.535000	0.002901	0.000891	0.011197	0.001209	4219.672223	15765.211163	3196.185292	8877.601658
25.035500	0.001764	0.000031	0.004292	0.000388	4218.719628	15764.082878	3191.699728	8888.920514
25.535500	0.000219	-0.000322	-0.001397	0.000250	4214.490660	15757.702101	3187.660448	8890.812737
26.036000	-0.001938	-0.000562	0.000739	-0.000497	4210.270289	15772.697832	3189.751611	8901.137403
26.536500	-0.001952	-0.001724	0.001799	-0.000592	4210.513576	15741.214891	3190.593399	8902.456108
27.039500	-0.001985	-0.000956	-0.004000	-0.001209	4212.260115	15782.092162	3186.835117	8910.986793
27.537000	-0.003064	-0.000999	-0.001060	-0.001350	4209.454753	15784.980086	3189.063542	8912.934451
28.034000	-0.000147	-0.001146	-0.003475	-0.003694	4225.268175	15850.119152	3189.012160	8945.493936
28.540500	-0.004429	-0.002711	-0.009015	0.001576	4196.698874	15648.592173	3181.261556	8872.548745
29.057000	0.001666	-0.000666	0.005686	-0.001914	4225.368177	15811.529324	3194.416595	8920.762726
29.535500	0.000866	-0.001215	0.002485	-0.003002	4226.239446	15827.521871	3192.860521	8935.867113
30.036000	-0.000287	-0.001393	-0.001994	-0.002788	4222.109838	15815.875528	3189.430420	8932.890094
30.536500	-0.001193	-0.000187	-0.002651	0.004606	4197.308969	15633.779018	3183.631841	8831.002823
31.035500	0.002223	0.000787	0.006828	-0.001007	4224.309651	15827.708988	3194.590075	8908.192062
31.537000	0.002090	-0.002128	-0.005042	-0.000399	4222.072090	15723.636512	3185.502564	8899.779684
32.036500	-0.003861	-0.001657	-0.003376	-0.001197	4206.622067	15761.024372	3187.276667	8910.824478
32.562000	-0.002453	-0.001459	0.004161	0.002340	4200.288200	15662.835061	3190.177084	8862.038814
33.034500	-0.001148	-0.001975	0.008947	-0.003401	4221.361399	15816.811442	3197.941286	8941.411874
33.535000	-0.000881	-0.001703	-0.003090	-0.003570	4222.673638	15829.866169	3189.201718	8943.761683
34.035000	-0.002675	-0.001590	0.008554	-0.003132	4215.957696	15820.267510	3197.448111	8937.677965
34.535500	-0.003904	-0.001230	-0.007158	0.001156	4199.498060	15704.328890	3182.878859	8878.333007
35.035500	-0.001854	-0.001768	-0.003433	-0.000104	4209.347981	15725.531630	3186.447428	8895.702976
35.536000	-0.002703	-0.003633	0.000625	-0.001865	4212.074982	15722.493980	3190.665525	8920.080349
36.036500	-0.003951	-0.003343	-0.000318	-0.002422	4210.009708	15747.443781	3190.383856	8927.811160
36.539500	0.003198	-0.000003	0.008374	0.000964	4221.302751	15746.056051	3194.276027	8880.967257
37.037000	0.000395	-0.000986	0.008378	0.000394	4214.588785	15733.885639	3194.699847	8888.826846
37.537000	0.001055	-0.002698	-0.001908	-0.000854	4220.324365	15720.257019	3188.089984	8906.072069
38.037000	-0.004398	-0.000233	-0.000210	0.000743	4199.258083	15745.811476	3188.162712	8884.023150
38.534500	-0.002289	-0.002493	0.016275	-0.000502	4209.235379	15715.922937	3201.264852	8901.199611
39.035500	-0.002611	-0.001651	0.002007	-0.000501	4208.274632	15740.692670	3190.679124	8901.195968
39.535500	-0.000534	-0.002677	0.027952	-0.001109	4216.311954	15728.349900	3210.661763	8909.599746
40.036500	-0.000142	-0.002031	0.003123	-0.000505	4215.676216	15729.630128	3191.497243	8901.252822
40.536000	0.000203	-0.001465	0.004797	-0.000707	4217.319244	15752.234422	3192.872691	8904.045507
41.039000	-0.001948	-0.001596	-0.010841	-0.000035	4208.859974	15728.579278	3181.109937	8894.755436
41.537000	-0.000689	-0.001456	0.013666	-0.000510	4214.049047	15746.673945	3199.309075	8901.312801
42.037000	-0.003442	-0.000717	-0.001184	0.000428	4203.030616	15740.831758	3187.686217	8888.364235
42.534500	-0.003008	-0.002453	0.000109	-0.001558	4210.243954	15748.187304	3190.064988	8915.816687
43.034500	-0.001555	-0.002657	-0.003194	-0.001477	4214.354045	15739.810206	3187.610563	8914.703013
43.535000	0.000934	-0.000865	-0.012017	-0.000168	4217.894260	15754.042199	3180.372362	8896.589422
44.035500	0.000154	-0.001693	0.003784	-0.000589	4216.816266	15742.041270	3192.042179	8902.406082
44.535500	-0.000382	-0.000886	0.011378	-0.002299	4220.347192	15816.410054	3198.935140	8926.094037
45.036000	0.001540	-0.002175	0.009505	-0.004739	4233.554862	15850.557510	3199.360010	8960.058190
45.536000	0.000424	-0.001060	0.010679	-0.002226	4222.557331	15809.107682	3198.357825	8925.084770
46.037000	0.001895	-0.002026	0.017250	-0.002914	4229.087745	15800.857183	3203.829273	8934.636843
46.537000	-0.000008	0.000041	0.004864	-0.002213	4221.216731	15841.388859	3194.030937	8924.908287
47.037000	0.002206	-0.000634	-0.005443	-0.003085	4230.553002	15847.216067	3187.147288	8937.019258
47.534500	0.001395	-0.001516	0.004098	-0.003112	4228.173095	15821.847172	3194.128316	8937.391989
48.056500	-0.000611	-0.002183	-0.011954	-0.002318	4219.715011	15778.603740	3181.938953	8926.360308
48.535500	0.000270	-0.001075	0.006543	0.000313	4214.458544	15733.683507	3193.406886	8889.954657
49.035500	-0.002241	-0.001608	-0.005886	-0.000644	4209.805454	15746.181955	3185.073184	8903.175665
49.564500	-0.000421	-0.001547	0.006253	-0.003672	4224.372943	15837.539863	3196.137731	8945.183321
50.036500	0.000333	-0.001701	0.012804	-0.003529	4226.222697	15828.732152	3200.930664	8943.202906
50.539500	-0.002073	-0.000938	0.002471	0.000280	4207.546401	15738.668059	3190.447564	8890.404544
51.036500	0.001737	-0.000530	0.004059	-0.004544	4233.560889	15893.730775	3195.158078	8957.342844
51.537000	0.001500	-0.001611	0.008118	-0.007917	4243.136445	15962.270904	3200.705267	9004.586065
52.034500	-0.023687	-0.015346	0.018553	0.052997	4003.747406	13906.347712	3164.826607	8205.361019
52.535000	-0.064087	-0.037355	0.007273	0.110083	3784.239340	12081.119566	3122.427560	7551.574937
53.035000	-0.003364	-0.011638	-0.008853	-0.098941	4535.239806	18631.342453	3261.494662	10428.603467
53.535500	0.000112	-0.011407	-0.001711	-0.110240	4591.417167	19053.435286	3278.315114	10627.126527
54.036000	0.000417	-0.014206	0.006206	-0.019859	4276.841903	15942.697320	3208.344892	9174.845846
54.536000	0.004012	-0.012689	0.006532	-0.044178	4367.445689	16739.445494	3227.882521	9536.392465
55.036000	0.017767	-0.007139	0.028566	-0.051978	4441.507625	17170.125156	3253.065836	9656.705799
55.536500	0.028561	-0.002772	0.030358	-0.036034	4423.476406	16795.875782	3240.904049	9413.052262
56.037000	0.042494	-0.000237	0.051480	-0.002414	4356.489958	15839.080780	3230.488720	8927.690776
56.537500	0.049573	0.003098	0.061761	0.031909	4268.656306	14951.044957	3211.275743	8469.458946
57.035000	0.070049	0.007425	0.076150	0.050381	4274.932908	14566.266869	3208.117395	8237.432443
57.534000	0.090261	0.019587	0.091479	0.080999	4242.662371	14082.707212	3196.549759	7873.924359
58.035000	0.105682	0.027757	0.106071	0.089652	4263.562937	14070.323847	3200.995129	7775.750847
58.535500	0.129410	0.038461	0.141372	0.138087	4188.820844	13144.513753	3191.246300	7260.944755
59.036000	0.143944	0.049802	0.155435	0.191431	4079.669026	12204.151523	3163.788048	6756.587111
59.535500	0.167821	0.063673	0.181952	0.233695	4031.261293	11618.107878	3153.459270	6398.721731
60.039000	0.184147	0.077108	0.196667	0.261263	4002.661408	11340.387163	3145.302198	6183.381133
60.536500	0.204409	0.088641	0.235267	0.291668	3977.483800	10983.333530	3150.475160	5961.196560
61.034500	0.215529	0.095526	0.245886	0.308663	3963.169479	10798.360119	3146.442111	5843.624564
61.537000	0.232136	0.105686	0.243716	0.326136	3961.073227	10667.201022	3134.382058	5727.441509
62.034500	0.236072	0.111110	0.265066	0.338828	3940.134370	10539.027171	3139.630519	5645.934648
62.534500	0.250532	0.116625	0.276163	0.348563	3951.380376	10465.569435	3140.465542	5585.009494
63.035000	0.256052	0.122261	0.281448	0.351205	3958.294446	10517.619827	3142.094567	5568.713193
63.535500	0.256805	0.126373	0.276410	0.343004	3980.088514	10735.411651	3144.055904	5619.633591
64.036000	0.262247	0.130148	0.287845	0.343536	3992.232618	10793.804257	3150.928433	5616.301621
64.536000	0.265225	0.130652	0.273550	0.345180	3995.556028	10773.232888	3140.939179	5606.026859
65.080500	0.264976	0.134740	0.284705	0.346047	3992.775666	10831.511877	3147.344904	5600.628138
65.537500	0.267804	0.132040	0.292459	0.345152	4002.078240	10798.801992	3152.847992	5606.202380
66.037500	0.275360	0.138070	0.292418	0.352379	4002.907363	10777.190979	3148.216369	5561.503108
66.537500	0.277690	0.140675	0.291812	0.356887	3997.448026	10742.928459	3145.002799	5533.989592
67.035000	0.284965	0.142174	0.289131	0.358636	4011.346772	10738.447323	3142.250025	5523.393089
67.535000	0.274731	0.137883	0.298333	0.357629	3988.238982	10679.734517	3148.636815	5529.491004
68.035500	0.279349	0.142574	0.303481	0.364694	3982.191635	10637.565025	3147.425758	5487.018240
68.538500	0.280175	0.142532	0.294142	0.365102	3983.221010	10629.579243	3141.351587	5484.585379
69.036000	0.275270	0.141813	0.291665	0.365772	3969.558190	10605.040957	3139.419324	5480.598222
69.542000	0.277574	0.144945	0.295117	0.369096	3967.077886	10601.656173	3139.497612	5460.902480
70.037000	0.279940	0.145893	0.307590	0.371914	3965.980919	10568.771952	3145.472752	5444.325045
70.537000	0.278308	0.145885	0.288357	0.375131	3954.275958	10512.351497	3131.782021	5425.526969
71.037000	0.280419	0.145002	0.292896	0.375111	3959.403864	10497.320957	3134.505653	5425.644314
71.535000	0.287720	0.146871	0.301073	0.378572	3968.704511	10469.689026	3137.352122	5405.575061
72.035000	0.286101	0.149345	0.304499	0.382706	3954.799292	10440.979073	3136.923189	5381.814762
72.535000	0.293858	0.148094	0.296975	0.384478	3969.271324	10388.984308	3131.349560	5371.700964
73.035500	0.288197	0.151805	0.302217	0.386773	3950.077821	10413.285600	3133.103385	5358.657523
73.536000	0.289678	0.149425	0.291786	0.387164	3952.685747	10365.774516	3126.720261	5356.441693
74.039000	0.297660	0.152534	0.313303	0.393058	3957.703620	10318.347900	3135.986588	5323.297143
74.536000	0.293334	0.149572	0.328159	0.392209	3949.363177	10282.550524	3145.643530	5328.043175
75.037000	0.295156	0.152382	0.316354	0.394160	3949.054374	10297.080853	3137.165800	5317.148001
75.537000	0.302612	0.154467	0.315203	0.397636	3958.603496	10273.567286	3134.374622	5297.859460
76.037000	0.294675	0.152678	0.318121	0.395809	3943.981411	10274.201971	3137.237547	5307.977290
76.534500	0.292836	0.152633	0.320114	0.397595	3935.403659	10243.363896	3137.363018	5298.085396
77.035500	0.304364	0.154966	0.322428	0.401215	3954.210097	10221.765388	3136.572097	5278.160861
77.535500	0.302040	0.154824	0.309308	0.403244	3943.816979	10185.477341	3127.561377	5267.063847
78.035500	0.298179	0.153198	0.289575	0.402746	3935.855351	10166.697140	3116.564447	5269.781241
78.536000	0.301596	0.153233	0.330485	0.403475	3942.213971	10155.160955	3140.103932	5265.802203
79.036500	0.293909	0.152582	0.307179	0.404445	3921.882641	10128.299318	3125.622797	5260.521971
79.536500	0.295803	0.154910	0.329138	0.405229	3924.465072	10153.889150	3138.208782	5256.259607
80.037000	0.305412	0.155813	0.313024	0.409082	3937.973392	10105.077789	3126.324465	5235.422123
80.537500	0.305918	0.158753	0.314472	0.412469	3931.192082	10097.711732	3125.199355	5217.263050
81.037500	0.296343	0.153291	0.314126	0.407618	3920.163671	10087.650033	3127.821030	5243.316334
81.535000	0.303841	0.157339	0.310710	0.412365	3926.568489	10076.162774	3123.089860	5217.814097
82.035000	0.302640	0.156537	0.322113	0.413314	3921.560794	10047.469245	3129.164926	5212.750745
82.535500	0.305156	0.155556	0.323824	0.414396	3924.899372	10013.807956	3129.535332	5206.991810
83.036000	0.305837	0.159240	0.309498	0.417048	3920.313922	10030.633199	3119.728423	5192.932213
83.539000	0.301973	0.157326	0.320452	0.415736	3914.406104	10020.819517	3126.775190	5199.877470
84.036500	0.306828	0.155844	0.323822	0.418012	3920.375930	9959.833606	3127.413287	5187.840768
84.536000	0.306755	0.154880	0.327380	0.416193	3924.438836	9973.664924	3130.573959	5197.455799
85.037000	0.302470	0.156338	0.330716	0.417545	3911.381171	9975.379060	3131.749866	5190.306448
85.534500	0.308329	0.157893	0.324665	0.419500	3920.404438	9968.894333	3127.036874	5180.005276
86.034000	0.305794	0.156122	0.335362	0.418394	3917.091799	9958.154370	3134.015267	5185.826297
86.535000	0.304605	0.157050	0.321324	0.420886	3908.610987	9932.939613	3124.294686	5172.735090
87.035500	0.301688	0.156633	0.324869	0.422068	3899.247641	9907.259015	3125.661649	5166.551503
87.535500	0.312390	0.155382	0.345023	0.421441	3925.340145	9897.258766	3138.009533	5169.829750
88.036000	0.308352	0.154473	0.320786	0.422430	3913.677231	9866.937162	3123.096246	5164.658982
88.536000	0.304612	0.155320	0.317110	0.422866	3904.092337	9873.493465	3120.746102	5162.383021
89.036500	0.305782	0.154141	0.332202	0.421922	3908.933377	9869.736297	3130.037664	5167.309866
89.537000	0.304543	0.156423	0.327353	0.425099	3898.846543	9855.472755	3125.344209	5150.766213
90.037500	0.308149	0.156086	0.328432	0.426821	3903.136283	9822.784238	3124.972306	5141.849774
90.537500	0.311007	0.156408	0.342440	0.426966	3909.348457	9825.598956	3133.121786	5141.102722
91.035000	0.310501	0.157531	0.326087	0.427210	3907.626523	9839.528841	3123.395198	5139.839817
91.535500	0.311406	0.159395	0.322378	0.430166	3902.936475	9822.222595	3119.593416	5124.630809
92.035500	0.311720	0.155831	0.336867	0.428044	3908.511824	9799.416480	3129.179506	5135.540693
92.535500	0.306780	0.154587	0.331590	0.427772	3897.856743	9784.097583	3126.252115	5136.941518
93.039000	0.306593	0.158337	0.334345	0.429891	3892.636641	9809.841537	3126.622590	5126.043817
93.536500	0.309398	0.155015	0.336462	0.427496	3904.449412	9795.196418	3129.263578	5138.365265
94.036500	0.314298	0.156590	0.331961	0.431382	3906.768743	9758.829122	3124.376279	5118.405413
94.537000	0.309754	0.153374	0.336404	0.428936	3901.974740	9746.755445	3128.383404	5130.948765
95.119000	0.312699	0.157478	0.330351	0.432346	3900.915522	9757.638012	3122.894965	5113.479530
95.534500	0.306974	0.155888	0.328440	0.433406	3885.585265	9716.179359	3121.195691	5108.075547
96.056500	0.307834	0.155946	0.329918	0.435092	3883.736598	9690.846371	3121.077811	5099.512104
96.535000	0.313141	0.157410	0.338350	0.436605	3892.261779	9690.098947	3125.049992	5091.855951
97.035000	0.311860	0.158700	0.331652	0.435768	3891.259233	9723.212637	3121.681050	5096.086190
97.536000	0.312577	0.158456	0.349368	0.435870	3892.648697	9717.810895	3131.944003	5095.571750
98.060500	0.308088	0.158918	0.346815	0.437609	3878.685424	9697.920078	3129.404524	5086.786373
